#   1 NUMBER                 Running object number                                     
#   2 MAG_AUTO               Kron-like elliptical aperture magnitude                    [mag]
#   3 X_IMAGE                Object position along x                                    [pixel]
#   4 Y_IMAGE                Object position along y                                    [pixel]
#   5 X_WORLD                Barycenter position along world x axis                     [deg]
#   6 Y_WORLD                Barycenter position along world y axis                     [deg]
#   7 A_WORLD                Profile RMS along major axis (world units)                 [deg]
#   8 B_WORLD                Profile RMS along minor axis (world units)                 [deg]
#   9 THETA_WORLD            Position angle (CCW/world-x)                               [deg]
#  10 FWHM_WORLD             FWHM assuming a gaussian core                              [deg]
#  11 ELONGATION             A_IMAGE/B_IMAGE                                           
#  12 ELLIPTICITY            1 - B_IMAGE/A_IMAGE                                       
         1 -14.0526     67.7233    147.0220   8.0905012449e+01   3.7028217678e+01     2.125696     1.166654  74.34  0.002805721    2.609    0.617
         2 -13.0102    204.1048     49.4845   2.3473257580e+01   2.8036871569e+01     1.038542    0.9768589 -66.32  0.003617574    1.042    0.041
         3 -13.2301    213.8502     41.6950   2.0065759738e+01   2.6713632907e+01    0.8314184     0.727501  47.10  0.001306143    1.294    0.227
         4 -12.7558    241.0817     17.4627   1.1242254884e+01   2.3321206558e+01    0.8698587    0.7656451 -72.19  0.005072952    1.080    0.074
         5 -11.3095      2.6456     10.4816   7.1182609164e+01   7.2347828796e+01    0.3370468    0.1434984 -43.50    0.0019769    1.711    0.416
         6  -9.5604    158.0267      9.2012   1.8680674311e+01   4.4741998479e+01    0.1986015    0.1694257  65.73  0.001004113    1.040    0.038
         7  -9.0714     90.4631    237.8434   8.6991585849e+01   1.4392724486e+01    0.1575279    0.1106985 -73.53  0.001013275    1.544    0.352
         8 -11.3035     74.9405    246.1593   9.0534024511e+01   1.5116903938e+01    0.5010649    0.3154095 -80.24  0.003281171    1.650    0.394
         9 -10.5221     71.6375    241.3076   9.0727287294e+01   1.6426443503e+01     0.319001    0.1771507  64.63 0.0009932584    1.573    0.364
        10 -13.4091     49.7412    178.9442   8.9311899205e+01   3.1914491099e+01     1.659638    0.9656745  70.49  0.008273499    1.701    0.412
        11 -16.2520     34.8683    187.6166   9.3299315088e+01   3.1704133652e+01     8.838122     4.420754  64.21   0.04034372    1.897    0.473
        12  -9.4308    142.2694    216.4426   7.4299283196e+01   9.9313630229e+00    0.2088925    0.1773666 -62.42 0.0007984711    1.356    0.263
        13  -8.7384    128.5189    215.4900   7.6970278524e+01   1.2471107565e+01    0.1332971    0.1116103  56.32 0.0001940617    1.036    0.034
        14  -9.0370    132.3019    213.0498   7.5857033943e+01   1.2279166457e+01    0.1748954    0.1570816  73.78  0.000427432    1.124    0.110
        15  -8.5245    167.9638    205.0303   6.7266066697e+01   7.3727250596e+00    0.1555171    0.1455427  34.39 0.0003564051    1.065    0.061
        16 -16.6775      6.7859    231.4198   1.0120464262e+02   2.5811944866e+01     1.900866    0.8882685  37.04  0.009070268    2.240    0.554
        17 -10.7452    154.9633    230.1693   7.3712425005e+01   5.3926864556e+00    0.3177536    0.1929731 -53.05  0.001688329    2.012    0.503
        18 -11.5470    117.5748    196.6784   7.6628859354e+01   1.8023314376e+01    0.4865283    0.3070669 -29.02  0.002120366    2.904    0.656
        19 -10.4169    192.3647    193.5398   6.0270203267e+01   4.8466945659e+00    0.3332489    0.2072819 -51.10  0.001098969    1.972    0.493
        20 -10.1080    189.5201    189.0281   6.0000970580e+01   6.1633190398e+00    0.3478383    0.2319456 -69.78  0.001517582    2.683    0.627
        21 -11.2772    148.2781    228.7179   7.4819295982e+01   6.7673710744e+00     0.344249    0.2661716 -45.78  0.001803907    1.568    0.362
        22 -11.2549    163.2855    192.9822   6.6179781961e+01   1.0434288557e+01    0.6152263     0.294165 -55.82   0.00244553    2.700    0.630
        23  -9.4565    202.5935    188.1908   5.7219491967e+01   3.8415045051e+00    0.1870331    0.1274114 -24.72 0.0006109837    1.614    0.380
        24  -9.1891     77.3956    187.1730   8.4157432648e+01   2.6433683224e+01    0.2456266    0.1443638 -74.70 0.0007137243    1.691    0.408
        25  -9.8387     76.2905    182.7197   8.3849533877e+01   2.7575528040e+01    0.4783483    0.2460115  62.99  0.002175202    2.183    0.542
        26  -9.2148     76.8686    230.7158   8.8861385554e+01   1.7644469193e+01    0.1862071    0.1511286 -72.39  0.001288846    1.397    0.284
        27 -11.2331     97.8473    181.1954   7.8762704652e+01   2.4620425619e+01    0.4862867     0.362261  46.58  0.001893856    1.279    0.218
        28  -9.7270     68.0975    229.9498   9.0426310804e+01   1.8993198454e+01    0.1918938    0.1732926 -46.27 0.0008736128    1.682    0.405
        29 -10.5731    180.3322    177.0411   5.9592044033e+01   1.0125441335e+01    0.3062558    0.2280562 -52.61  0.001460186    1.525    0.344
        30 -10.0268    199.8235    173.3659   5.4831291185e+01   6.9431401109e+00     0.244137    0.1926871 -48.41 0.0009094496    1.424    0.298
        31 -11.4282     67.2290    128.2651   7.7875779293e+01   4.1586657991e+01    0.8184723    0.7398906  61.76  0.004608629    1.163    0.140
        32 -11.7386     68.9684    171.7954   8.4125163122e+01   3.1065659290e+01    0.4404116    0.3610958  66.10  0.001280508    1.119    0.106
        33 -12.3924     77.9737    154.6636   7.9498236430e+01   3.3774958422e+01     1.159992    0.6970186  84.47  0.001403411    2.143    0.533
        34  -9.4743    139.9457    250.0000   7.9101822507e+01   4.7181061256e+00    0.2094463   0.05544508  41.21 0.0007655223    2.980    0.664
        35  -9.8574     92.6979    172.4788   7.8664715230e+01   2.7396285004e+01    0.2059158    0.1925019  17.39 0.0001916558    1.350    0.259
        36 -10.6982    103.3406    170.8752   7.5902345308e+01   2.6016328980e+01    0.4018723    0.2452484  67.14  0.001812578    1.967    0.492
        37 -10.3850     54.8489    167.9137   8.6922426263e+01   3.3791844429e+01    0.5282692    0.2425269  68.48  0.001430826    3.001    0.667
        38  -9.9179     59.4905    167.0029   8.5727855671e+01   3.3419431786e+01    0.2800411    0.1915169 -74.86 0.0003601389    1.309    0.236
        39 -10.8457     55.5597    162.9300   8.6146280034e+01   3.4853684362e+01    0.5293738    0.3245344  68.15  0.001909166    1.692    0.409
        40  -9.5795    110.4699    167.0489   7.3569032764e+01   2.5654090394e+01    0.2921464    0.2143134  88.73 0.0009997055    1.559    0.358
        41 -11.1413    230.0894    166.1020   4.7502507789e+01   2.3627344225e+00    0.3811025    0.1935669 -34.95  0.001712412    1.911    0.477
        42 -10.6501    245.7722    159.0344   4.3237499759e+01   6.1982349683e-01    0.4223402    0.1784475 -44.97  0.001684863    2.695    0.629
        43 -10.5144     71.1274    226.2890   8.9541073518e+01   1.9276030702e+01    0.3455676    0.2211245  50.40  0.002157831    1.305    0.234
        44 -10.6849    133.6717    145.6223   6.3775678832e+01   2.6137303739e+01     1.292831    0.2829374 -54.50   0.00274587    7.192    0.861
        45  -9.4663    167.2732    224.3489   7.0460549556e+01   4.2278934069e+00    0.2076865    0.1557605 -30.73  0.000711633    1.634    0.388
        46 -11.5660     86.2328    147.8340   7.6264748020e+01   3.4146008517e+01    0.6155801    0.4988965   6.29  0.002042257    1.727    0.421
        47  -9.8278     88.0768    140.5538   7.4470940513e+01   3.5588583556e+01    0.3033611    0.1933958 -71.38 0.0008409219    1.635    0.388
        48  -8.7409     32.2339    149.2119   9.0120750021e+01   4.0620241020e+01    0.1693106    0.1191717  76.33 0.0005458256    1.331    0.248
        49 -11.6561     75.5312    167.2441   8.1966794864e+01   3.1191447899e+01    0.7859327    0.4089329  63.12  0.003260077    2.300    0.565
        50  -9.6970     23.2521    147.0131   9.2057725346e+01   4.1962248268e+01    0.3578978    0.1919414  70.55  0.001304067    1.989    0.497
        51 -10.5072     33.5951    143.5155   8.9119870857e+01   4.1815813178e+01    0.4127431    0.2470915  31.34  0.001382104    1.955    0.488
        52 -10.2559    101.2642    135.3078   6.9931621587e+01   3.4642373435e+01    0.4715891     0.318514 -15.36  0.001911256    2.683    0.627
        53  -9.9042    105.2901    130.6185   6.7861701589e+01   3.5036540483e+01    0.4149498    0.3085686 -66.55  0.001709768    1.375    0.272
        54 -15.4968      4.5308    144.2765   9.6241332155e+01   4.4067174198e+01     14.85589     1.718124 -77.23   0.02890231   13.627    0.927
        55 -11.6815     88.2576    134.2372   7.3216819100e+01   3.7067374482e+01    0.2928544    0.2544945 -61.01 0.0004742737    1.095    0.087
        56 -11.4087     65.6302    165.4239   8.4074225278e+01   3.2982704008e+01    0.3860378    0.2958136 -30.76   0.00133201    1.912    0.477
        57  -8.9852     48.4770    132.5051   8.3743008027e+01   4.2869233653e+01    0.1330579    0.1121771 -81.06 0.0003694413    1.034    0.033
        58  -8.4393    140.2952    131.6513   5.8997316796e+01   2.7903332747e+01    0.1596515    0.1228311 -88.46 0.0004408411    1.676    0.403
        59  -9.8454    136.0000    129.0758   5.9467152735e+01   2.9384171275e+01    0.4393429   0.08779199 -47.54  0.001058262    4.997    0.800
        60 -10.2113     44.9044    127.6179   8.3968941837e+01   4.4424023308e+01    0.3219434    0.2597898 -64.31 0.0008234425    1.101    0.092
        61  -9.4546    110.5830    127.5126   6.5750306555e+01   3.4795620231e+01    0.2801024    0.2470849   5.31 0.0008298347    1.371    0.271
        62  -9.9298     95.0435    219.8829   8.4271203488e+01   1.7046494286e+01    0.1941733    0.1581241  64.90 0.0006461585    1.013    0.013
        63  -9.9755     97.8070    122.7009   6.8174662077e+01   3.8224233563e+01    0.2868994    0.2303872  -6.65  0.001415912    1.680    0.405
        64 -10.6994     54.8945    117.5861   7.9443722879e+01   4.5697554298e+01    0.5556211    0.2406053 -70.33  0.002236122    2.471    0.595
        65  -9.1694    117.0136    122.5096   6.2862970775e+01   3.4730684546e+01    0.2347075    0.1512656  40.18  0.001033322    1.606    0.377
        66 -10.3059     32.2270    118.2311   8.6087991122e+01   4.7895707601e+01    0.2120811    0.1834616  79.33 0.0003343357    1.186    0.157
        67  -9.8328     25.5023    118.3191   8.7999069319e+01   4.8455227212e+01    0.2868926    0.1568534   5.53   0.00140572    2.979    0.664
        68  -8.9818    107.0763    117.0028   6.4271048689e+01   3.7897133229e+01    0.2114937    0.2052977 -67.89 0.0002848253    1.017    0.017
        69  -9.8429     69.4817    116.4643   7.4957584139e+01   4.4106696971e+01    0.2698238    0.2174946  78.87  0.000794079    1.379    0.275
        70  -8.2534    183.3100    116.3238   4.5213191858e+01   2.1455972100e+01    0.1591948    0.1242975   7.00  0.000703791    1.652    0.395
        71  -8.5937     78.7775    113.5828   7.1613091950e+01   4.3458290790e+01    0.1861865    0.1304895  51.70 0.0006287165    1.585    0.369
        72 -11.5994     70.4234    161.0171   8.2315333640e+01   3.3356370895e+01    0.3352523    0.3115672 -51.75 0.0008221741    1.282    0.220
        73  -9.7885    205.4898    110.2529   3.9229410836e+01   1.7452623378e+01    0.3024861    0.2394844  42.78 0.0009532473    1.317    0.241
        74 -10.4710     53.1716    110.0102   7.8527300074e+01   4.7698657435e+01    0.3281388    0.1738917 -61.13  0.001132758    1.627    0.385
        75  -9.1135    115.3385    108.3140   5.9804397903e+01   3.8302660736e+01    0.1557467    0.1221118  -6.96 0.0006930856    1.696    0.411
        76  -8.7991     70.6554    108.0633   7.2825047222e+01   4.5936110243e+01    0.1940031    0.1592457 -59.96 0.0003580394    1.102    0.092
        77  -9.9312     29.1679    107.1739   8.5258527740e+01   5.0755619460e+01      0.20857    0.1731321  65.29 0.0007779056    1.345    0.256
        78  -9.5691     24.1883    105.4351   8.6475272830e+01   5.1564518974e+01    0.2886041    0.1583215 -75.13  0.001254613    1.630    0.387
        79 -11.7264     18.6938     99.5510   8.7222006796e+01   5.3330234907e+01    0.5343333    0.1888234 -61.21  0.002482347    2.067    0.516
        80 -10.2121    114.5275    172.9968   7.3616906283e+01   2.3609703629e+01     0.236212    0.1835667  47.69  0.001062334    1.222    0.182
        81 -15.0353     40.5203    223.8752   9.4999181942e+01   2.3632627580e+01      1.96565    0.7600591 -80.22  0.007677771    2.554    0.608
        82  -8.8788     46.2192    102.4147   7.9175961408e+01   5.0253715754e+01    0.1691107    0.1190842  46.27 0.0007531178    1.639    0.390
        83  -8.3263     77.7080     90.2745   6.6307895859e+01   4.9008346082e+01    0.1329041    0.1100547  84.23 0.0001934447    1.519    0.342
        84  -9.1302    184.5967     77.1893   3.4445244289e+01   2.8514487949e+01    0.2129069    0.1498541 -23.45 0.0005869956    1.622    0.384
        85 -11.0465     27.8601     66.9141   7.7641551524e+01   5.9928278086e+01    0.4802403    0.2020696  39.70  0.002229225    3.088    0.676
        86  -9.1292     75.7327     66.1710   5.9931311495e+01   5.4445195327e+01    0.2221185    0.1821187  47.10 0.0005328411    1.422    0.297
        87 -16.0509      8.4978    207.4841   9.9727784014e+01   3.0230788639e+01     1.518061     1.080934 -81.36  0.009156113    1.295    0.228
        88 -12.5439    192.2480     57.7993   2.7622516878e+01   2.9782379927e+01    0.7801678    0.6147179  32.32  0.000822396    1.507    0.336
        89 -10.0302    124.8344    247.5212   8.1612741009e+01   7.5022786177e+00    0.4308194    0.1193451 -54.32  0.001764105    4.335    0.769
        90  -9.6993    101.7830    243.5500   8.5453568053e+01   1.1712914848e+01    0.3115519    0.1769605 -54.18  0.001800975    2.212    0.548
        91 -11.4022     13.2021     60.2980   8.1656692366e+01   6.2354990347e+01    0.2977162    0.2199559 -56.10 0.0006615965    1.093    0.085
        92  -8.5485     82.7298     61.3929   5.5973544459e+01   5.4242240244e+01    0.1362454    0.1099287 -72.21 0.0006986303    1.724    0.420
        93  -8.5088     34.3057     53.2957   7.1408779950e+01   6.2189205808e+01    0.1277412   0.07835559 -28.87 0.0002678675    1.584    0.369
        94 -16.4272      3.8826    236.9617   1.0190995965e+02   2.5083878932e+01      1.37119    0.6381776  72.28  0.009047428    1.632    0.387
        95  -8.9417     69.5270     39.0432   5.2547956198e+01   6.0384715834e+01    0.1867709    0.1190775 -36.90 0.0003642782    1.481    0.325
        96 -10.0574     29.9113     33.8484   6.6805023047e+01   6.6277870102e+01    0.1872203    0.1306442 -25.12 0.0004073556    1.220    0.180
        97  -9.7437     34.2139     26.6431   6.2084675271e+01   6.7089283659e+01    0.1601213    0.1007212  10.82 0.0009493942    1.680    0.405
        98 -11.4040      2.9619     24.3773   7.6170331570e+01   6.9943693197e+01    0.3614658    0.2195637 -58.88  0.002362617    1.593    0.372
        99 -10.0534    119.0747    241.6105   8.2033415169e+01   9.3825185865e+00    0.1947855    0.1686482 -82.89 0.0004608076    1.307    0.235
       100  -9.8957     41.0520     23.0440   5.7511137078e+01   6.6897701000e+01    0.3732757    0.1731426  44.64   0.00173275    3.270    0.694
       101 -10.1687     34.4482     20.7677   5.9517863652e+01   6.8009454177e+01     0.265296    0.1648515  42.36  0.001462065    2.268    0.559
       102  -9.3199     60.3234     21.0204   4.8561036234e+01   6.4555077154e+01    0.2010099    0.1598878  19.22 0.0004516941    1.167    0.143
       103  -9.4289    189.5056     15.0004   1.6034651726e+01   3.6137127646e+01    0.1950942    0.1361218 -29.42 0.0008070628    1.567    0.362
       104 -10.4036    111.7283    240.1609   8.3254944101e+01   1.0776936277e+01    0.2443184    0.1962858 -76.66 0.0008001356    1.403    0.287
