#   1 NUMBER                 Running object number                                     
#   2 MAG_AUTO               Kron-like elliptical aperture magnitude                    [mag]
#   3 X_IMAGE                Object position along x                                    [pixel]
#   4 Y_IMAGE                Object position along y                                    [pixel]
#   5 X_WORLD                Barycenter position along world x axis                     [deg]
#   6 Y_WORLD                Barycenter position along world y axis                     [deg]
#   7 A_WORLD                Profile RMS along major axis (world units)                 [deg]
#   8 B_WORLD                Profile RMS along minor axis (world units)                 [deg]
#   9 THETA_WORLD            Position angle (CCW/world-x)                               [deg]
#  10 FWHM_WORLD             FWHM assuming a gaussian core                              [deg]
#  11 ELONGATION             A_IMAGE/B_IMAGE                                           
#  12 ELLIPTICITY            1 - B_IMAGE/A_IMAGE                                       
         1 -14.8252    158.0855     42.4077   8.4859684758e+01   4.0647313418e+01     1.399247     1.061576 -15.28  0.004055847    1.409    0.290
         2 -13.3068    167.9590     13.8349   7.3495627043e+01   4.1570218490e+01     0.821646    0.4435001  82.24  0.002868579    2.239    0.553
         3 -14.3465    169.7724      7.7918   7.1232575612e+01   4.1690787299e+01     1.055918    0.7769427  69.45  0.003797991    1.284    0.221
         4 -11.6884    189.9611     14.5285   7.0655524639e+01   3.5730475043e+01    0.2206886    0.1946063 -27.78 0.0007451526    1.187    0.158
         5 -12.0029    168.0359    242.2076   1.2771870101e+02   4.1398274541e+00    0.2500292    0.1708738 -49.98  0.000968182    1.921    0.479
         6 -11.5759    189.1152    250.2028   1.2522752196e+02  -1.7543719866e-01    0.1727632    0.1223153  30.29 0.0007292773    1.222    0.182
         7 -11.9889    176.2174    249.5166   1.2726103870e+02   1.9287411126e+00    0.2015624    0.1856985 -13.41 0.0006414394    1.386    0.279
         8 -20.0459     81.6189    195.3094   1.3778551208e+02   2.5282093760e+01     12.81152     5.620838 -67.33   0.06483107    2.334    0.572
         9 -13.1977    138.1470    198.2619   1.2721250058e+02   1.5782206067e+01    0.6216015    0.3095066  59.60  0.002320676    2.399    0.583
        10 -12.3041    142.1817    193.9733   1.2579580948e+02   1.5823013052e+01    0.3802772    0.1922941  48.04  0.001287568    1.739    0.425
        11 -13.9575    167.0823    191.0850   1.2050049383e+02   1.1804021736e+01    0.6648255    0.5134595  82.28  0.003725324    1.741    0.426
        12 -13.0195    179.8613    192.4283   1.1828872323e+02   9.2208146008e+00    0.3853821    0.3295935 -77.57  0.001290706    1.531    0.347
        13 -13.8811    176.5913    188.3045   1.1820008814e+02   1.0486018445e+01    0.8567765    0.4132981 -59.19  0.003250389    3.881    0.742
        14 -11.7297    150.9944    242.0356   1.3057450269e+02   6.8795556898e+00    0.2995583     0.179862 -54.78  0.001283882    2.166    0.538
        15 -12.5664    147.6339    189.2059   1.2398787368e+02   1.5683834840e+01    0.3697632     0.237723  29.54   0.00188811    1.830    0.453
        16 -14.5302    196.7841    172.5415   1.1142469776e+02   9.1346079974e+00     1.188306    0.7624689 -67.24  0.002574435    3.047    0.672
        17 -13.1544    205.5098    180.0013   1.1123588144e+02   6.2979512714e+00    0.4523737    0.3451473 -70.77  0.001742079    2.144    0.533
        18 -13.3731    209.2371    177.4572   1.1006115901e+02   5.9680047479e+00    0.4615121    0.3909369 -13.33  0.001591221    1.209    0.173
        19 -12.8531    126.3255    187.2940   1.2793666126e+02   1.9790665682e+01    0.5028232    0.2717613  59.12  0.001315469    1.991    0.498
        20 -10.7518      7.7587    237.8185   1.5325227928e+02   2.6336693482e+01    0.1216703   0.06733424  74.12  0.000432934    1.264    0.209
        21 -14.0834    177.9230    171.1412   1.1480843258e+02   1.3080926463e+01    0.7498053    0.4753209 -47.96  0.003742053    1.780    0.438
        22 -11.8265    168.6355    176.1453   1.1758788822e+02   1.4033643632e+01    0.2371086    0.1748679  53.26 0.0005775237    1.314    0.239
        23 -12.2310    196.3341    236.0948   1.2212972146e+02   3.2906837063e-01    0.2249734    0.1408928 -20.35  0.001350306    2.181    0.541
        24 -13.5177    174.7166    193.2807   1.1940786900e+02   1.0038188526e+01    0.5164099    0.3740698 -63.96  0.001975507    1.874    0.466
        25 -12.2777    202.0063    165.7445   1.0907822975e+02   9.1843667684e+00    0.3578708    0.3089341 -82.57  0.001446525    1.602    0.376
        26 -10.8693     11.9599    164.0398   1.4853754490e+02   3.9515963864e+01    0.2589179    0.1519883 -37.18  0.001024999    3.376    0.704
        27 -11.5054    223.6860    163.6665   1.0467086115e+02   5.2314461864e+00    0.2374526    0.2273634 -24.94 0.0006166279    1.224    0.183
        28 -10.8408    172.2996    230.3266   1.2544543672e+02   5.0132325361e+00    0.1148724   0.08310498  19.05 0.0003401606    1.636    0.389
        29 -12.4516    161.1185    157.2230   1.1550303170e+02   1.8933668804e+01    0.3261183    0.2166802  75.92   0.00133468    2.338    0.572
        30  -9.9810      3.4913    158.4987   1.4981887223e+02   4.1338953423e+01    0.1089555   0.07887898  88.02 0.0008105767    1.016    0.016
        31 -11.3183     29.0042    156.5276   1.4443053943e+02   3.9522631208e+01     0.221715    0.1406235 -80.33 0.0004690016    1.271    0.213
        32 -10.5353     17.0321    224.9967   1.5129304334e+02   2.7566586522e+01    0.1196477   0.06962164 -89.21 0.0006586717    1.393    0.282
        33 -11.4169    191.9565    154.5488   1.0868085050e+02   1.3076460796e+01     0.380036    0.2065018 -24.29  0.001550198    2.449    0.592
        34 -14.4132    134.2576    146.3881   1.1917188515e+02   2.6388921560e+01     1.398326    0.4056274 -51.71  0.004436239    3.738    0.732
        35 -14.6342    137.1529    125.4273   1.1397770596e+02   3.0162189118e+01     1.198634    0.5431153 -49.92  0.002372425    2.257    0.557
        36 -14.7883    149.5262    148.9300   1.1630016459e+02   2.2865333616e+01      1.08018     0.583048  48.16  0.001011243    1.788    0.441
        37 -12.9830    174.3541    148.5109   1.1093103439e+02   1.7825591382e+01    0.4108557    0.3615488 -75.68  0.001745759    1.340    0.254
        38 -12.7093    199.5095    222.7768   1.1963492281e+02   1.4472470940e+00    0.4170468    0.1379646  42.05  0.001120907    2.451    0.592
        39 -10.8255    184.4198    151.2710   1.0947462061e+02   1.5216491813e+01      0.23638    0.1772296  69.10 0.0006976275    1.693    0.409
        40 -11.9726     27.2784    145.8492   1.4375698776e+02   4.1966755466e+01     0.264855    0.2364428  84.18 0.0008334335    1.215    0.177
        41 -11.9717    177.1713    143.8276   1.0932608127e+02   1.8089243609e+01    0.2202869    0.2035486  78.61 0.0007012492    1.207    0.171
        42 -12.8654     11.9178    206.2716   1.5115928696e+02   3.1362614716e+01    0.4597325    0.2238718  39.98   0.00302149    2.072    0.517
        43 -14.2747    143.5576    144.6769   1.1673733161e+02   2.4910111470e+01    0.9814593    0.4558781 -57.59  0.003680936    2.733    0.634
        44 -13.9617    157.3723    177.9519   1.2016621752e+02   1.5871822678e+01    0.6840358    0.3651283 -51.32  0.003202091    2.127    0.530
        45 -14.1064    118.8534    135.8063   1.2058973009e+02   3.1525697060e+01    0.8222192     0.512423 -54.86  0.002459878    1.594    0.373
        46 -14.3994    123.3238    128.0643   1.1787279484e+02   3.2344726242e+01    0.7526323    0.6300083 -22.99  0.003006061    1.457    0.314
        47 -12.4361    168.8860    202.5576   1.2201377292e+02   9.6384887050e+00    0.3114791    0.1981602  51.89 0.0007210135    1.464    0.317
        48 -13.7757    156.8000    200.4550   1.2396562974e+02   1.2133919654e+01    0.8678337    0.3692352 -58.52  0.003484446    3.684    0.729
        49 -11.0812     18.4900    148.4996   1.4593116360e+02   4.2190904390e+01      0.18547    0.1780974  71.51  0.001161688    1.390    0.281
        50 -12.0411    153.3405    194.5269   1.2371173972e+02   1.3738198211e+01    0.2685107    0.1959648  64.26 0.0007644889    1.468    0.319
        51 -13.3383    160.5844    128.0717   1.0925454745e+02   2.4667354839e+01     0.486816    0.3835183 -44.58  0.001844825    1.290    0.225
        52 -13.4600    153.4748    188.6963   1.2275590547e+02   1.4710960731e+01    0.5104446      0.29416 -44.66  0.001501975    1.989    0.497
        53 -13.9617    158.2717    192.6016   1.2245132958e+02   1.3169494203e+01    0.7710795    0.4970184 -80.97  0.003283186    2.797    0.643
        54 -11.8478     17.3570    153.5476   1.4661394153e+02   4.1223153140e+01    0.3401863    0.1971138 -51.36  0.001589893    2.102    0.524
        55 -12.4940    163.3671    203.5514   1.2320086681e+02   1.0467908977e+01    0.3207429    0.2749805  48.68  0.001012286    1.042    0.040
        56 -12.4714    105.9866    113.9845   1.1903032547e+02   3.8620839346e+01     0.432332    0.1990356 -51.74  0.001499152    2.066    0.516
        57 -11.6570    161.3925    198.7806   1.2283403280e+02   1.1584483399e+01    0.4187349    0.2162861  63.01  0.001445436    3.032    0.670
        58 -10.9885     30.7420    206.5150   1.4801601948e+02   2.9433903226e+01    0.1975417    0.1881124  68.95  0.001682343    1.567    0.362
        59 -11.4444    221.4931    205.3270   1.1298778044e+02  -8.6927128415e-02    0.2222847   0.09873556  42.75 0.0009220836    1.943    0.485
        60 -10.7131    205.5391    110.1792   9.5612798980e+01   1.7735976303e+01    0.2740658     0.211238  47.68 0.0006760989    1.311    0.237
        61 -12.0802     25.9644    106.2941   1.3923513391e+02   5.0808607628e+01    0.3497265    0.2320036  -0.51  0.002047127    2.413    0.586
        62 -12.2422     40.8475     94.1198   1.3294464711e+02   5.2180725822e+01     0.433043    0.2892559 -44.01  0.002415138    1.496    0.332
        63 -11.6269     50.6405     91.8322   1.2956261790e+02   5.1661441493e+01    0.2625689    0.1914381  21.71 0.0008536861    1.737    0.424
        64 -11.8047    126.1861     91.1236   1.0787330528e+02   3.9581583988e+01     0.329304    0.2126399  53.57  0.001018116    1.681    0.405
        65 -11.8522      6.1461     89.0182   1.4232019523e+02   5.6044225307e+01    0.4294082    0.2052492 -13.59  0.002020717    4.210    0.762
        66 -11.4046     21.9354    240.3371   1.5128614304e+02   2.4516494564e+01    0.1445254   0.09527117  78.46 0.0004381937    1.131    0.116
        67 -10.9636    142.3400     80.0227   1.0056529111e+02   3.8214283530e+01    0.2216713    0.1951833 -35.05 0.0005600093    1.112    0.101
        68 -14.2997    147.5146     57.1802   9.2067377531e+01   4.1030231034e+01     1.097742      0.78649   2.84 0.0009796055    1.792    0.442
        69 -11.6565    160.4384    246.8321   1.2955292707e+02   4.7501956723e+00    0.2841206    0.2015953 -31.66  0.001512306    2.014    0.503
        70 -13.0022    161.6805     33.9215   8.1304535413e+01   4.0876405083e+01    0.4417888    0.3789358  36.35 0.0008735937    1.166    0.142
        71 -11.1439     13.3833     59.8597   1.3480736057e+02   6.1882632870e+01    0.1634103    0.1514938 -79.88 0.0004759198    1.259    0.206
        72 -12.7864    198.2904    245.9639   1.2316412950e+02  -1.1323498598e+00    0.3779056    0.1317701  46.52  0.001807408    2.412    0.585
        73 -11.5411     28.9195    244.0611   1.5043215690e+02   2.3182973830e+01    0.2466157    0.1062409 -79.29  0.001437115    2.157    0.536
