#   1 NUMBER                 Running object number                                     
#   2 MAG_AUTO               Kron-like elliptical aperture magnitude                    [mag]
#   3 X_IMAGE                Object position along x                                    [pixel]
#   4 Y_IMAGE                Object position along y                                    [pixel]
#   5 X_WORLD                Barycenter position along world x axis                     [deg]
#   6 Y_WORLD                Barycenter position along world y axis                     [deg]
#   7 A_WORLD                Profile RMS along major axis (world units)                 [deg]
#   8 B_WORLD                Profile RMS along minor axis (world units)                 [deg]
#   9 THETA_WORLD            Position angle (CCW/world-x)                               [deg]
#  10 FWHM_WORLD             FWHM assuming a gaussian core                              [deg]
#  11 ELONGATION             A_IMAGE/B_IMAGE                                           
#  12 ELLIPTICITY            1 - B_IMAGE/A_IMAGE                                       
         1 -13.9637     68.5168    144.2948   9.8939519127e+01   3.7524247103e+01     2.807292      1.67323  86.93   0.01007515    2.397    0.583
         2 -13.3973    201.0891     42.1153   4.1964872234e+01   3.0163287292e+01     1.268576     1.064177 -33.29  0.004071285    1.373    0.271
         3 -13.6461    211.7468     31.9514   3.8394183634e+01   2.9102298645e+01    0.9517508    0.8738279   3.20  0.001908908    1.560    0.359
         4 -12.9068    237.4355      6.1758   3.0783762820e+01   2.6679748628e+01    0.8122035    0.5859354 -85.10   0.00545151    1.161    0.139
         5  -9.7991     13.7573      5.0118   7.9829085363e+01   7.2944827233e+01    0.1637263    0.1193902  58.40 0.0009007468    3.581    0.721
         6 -11.4001    120.3273    215.2045   9.7035763382e+01   1.2478077374e+01    0.4878235     0.338397 -55.87   0.00258703    1.569    0.363
         7 -10.0583    140.0143    250.2988   9.7585929974e+01   2.7544131596e+00    0.3182704    0.1437656  38.72   0.00153573    1.839    0.456
         8 -10.1511    102.0000    248.9960   1.0520658405e+02   8.6568773511e+00    0.2732885    0.1985649 -66.51  0.001403378    1.584    0.369
         9 -10.9624    101.1830    243.8896   1.0481936597e+02   9.7343691217e+00    0.3903806    0.2070532 -70.53   0.00194826    2.345    0.574
        10 -12.9723     53.2540    186.5724   1.0916002293e+02   2.9019633433e+01     1.116618    0.9980072 -82.69  0.006911365    1.109    0.098
        11 -10.0250    107.6013    203.7937   9.8309325063e+01   1.7000868458e+01    0.2631053    0.1793899  60.64 0.0006896473    1.555    0.357
        12 -10.6028    110.8065    202.8520   9.7419524573e+01   1.6684634500e+01    0.3640981    0.2368447  72.14  0.001121694    2.004    0.501
        13 -10.9271    193.2144    195.2355   7.7863854646e+01   4.0467886707e+00    0.8957532    0.4618277 -63.81  0.002744858    5.529    0.819
        14 -10.4877    122.2469    198.5569   9.4072201822e+01   1.5712476223e+01    0.4022408    0.2622185 -74.49  0.001857209    1.957    0.489
        15  -9.6851    112.5236    196.9889   9.6124487134e+01   1.7704129197e+01     0.284963     0.181249  -5.59   0.00104062    3.515    0.715
        16  -9.5456     58.9567    196.7312   1.0893919934e+02   2.5861810268e+01    0.2343362    0.1989906 -84.02 0.0005784048    1.113    0.101
        17 -14.5816      9.3677    207.4548   1.2098750905e+02   2.8971530065e+01     1.128997    0.9321135  12.19  0.007683428    1.753    0.430
        18  -8.5102     82.7852    194.6058   1.0294266693e+02   2.2996997488e+01    0.2002398     0.116351  47.40 0.0006831056    1.615    0.381
        19 -14.1418     38.4234    193.1615   1.1342151299e+02   2.9232714084e+01     4.233161     1.513155  64.52   0.01038503    4.659    0.785
        20  -9.5491    118.3471    191.0216   9.3778148937e+01   1.8058065421e+01    0.2017391    0.1855648 -78.72 0.0007860063    1.117    0.105
        21 -10.1738    147.7289    187.8391   8.6301751783e+01   1.3541807338e+01      0.48542    0.3211103 -70.43  0.001873005    2.067    0.516
        22  -8.9842     79.9741    183.0021   1.0202235453e+02   2.6181638970e+01    0.3742285     0.219881 -88.36  0.001599246    2.181    0.541
        23  -8.2917     82.6766    182.3068   1.0123812007e+02   2.5940766758e+01    0.1457414    0.1372209  82.61 0.0004557784    1.057    0.054
        24  -8.1775     76.4288    184.4927   1.0312609686e+02   2.6348312550e+01    0.1414439    0.1269382  79.75 0.0001576358    1.011    0.011
        25  -9.7132     99.3736    180.7469   9.6773968426e+01   2.3659243051e+01    0.2501585     0.245425  25.06 0.0006115416    1.139    0.122
        26 -10.4776    241.0243    178.4944   6.5861871994e+01  -7.1306020968e-01    0.3107393    0.1247009  40.57  0.001373669    2.770    0.639
        27  -8.3823     88.5407    178.5578   9.9178856130e+01   2.5938048129e+01    0.1460894    0.1316503  74.39 0.0001233497    1.040    0.039
        28 -10.9374     41.0412    176.6262   1.1107056620e+02   3.2915151158e+01    0.5587596     0.358647 -30.63  0.001951189    2.445    0.591
        29 -10.1829    186.9687    175.5021   7.5332772381e+01   8.8904928699e+00    0.3696767    0.2958034 -52.09  0.001210385    1.338    0.253
        30 -15.5045      6.8107    164.5865   1.1848968571e+02   3.9168444084e+01     12.78956     1.294389 -75.01   0.03020408    8.011    0.875
        31 -12.4669    106.6579    172.1721   9.3469657261e+01   2.4478636554e+01     3.599267    0.6561087  46.75  0.007079967    8.556    0.883
        32 -12.9481     68.8694    154.2355   1.0054469019e+02   3.4955625493e+01    0.6236826    0.4893816 -53.12  0.001097659    1.275    0.216
        33 -10.5076    120.0767    244.8233   1.0099992779e+02   6.7351683690e+00    0.2007439    0.1851682 -85.31 0.0005284469    1.231    0.188
        34  -8.4143    193.4708    170.4619   7.2992516690e+01   8.6888851132e+00    0.1400495    0.1334062 -22.00 7.737813e-05    1.045    0.043
        35 -11.7888     80.7105    159.1087   9.8080283787e+01   3.1966584885e+01    0.7044612    0.4348224  60.71  0.000371343    1.882    0.469
        36 -11.4287     67.5466    172.3659   1.0369411993e+02   3.0594367907e+01    0.4433507    0.2953496 -37.64  0.001412205    1.961    0.490
        37  -8.4761    120.4950    165.5357   8.8707259256e+01   2.3588429189e+01    0.1517166    0.1437783  74.60 0.0001433972    1.040    0.038
        38 -13.3438     20.2060    220.7227   1.1959662749e+02   2.4990907732e+01    0.7881316    0.4961955  59.53  0.002323763    1.309    0.236
        39  -9.9423     33.4772    155.9162   1.1063182659e+02   3.8882723621e+01    0.2959097    0.2458597  70.54   0.00145256    1.160    0.138
        40 -11.8105     88.1156    152.3875   9.4834844456e+01   3.2473499250e+01    0.7336475    0.5142087 -22.23  0.003224602    2.101    0.524
        41 -10.5468    133.6172    144.6773   8.1043027063e+01   2.5977677235e+01     1.199937    0.2993243 -55.07  0.002696673    6.036    0.834
        42  -9.5085    174.8178    148.9812   7.2334319819e+01   1.6636793062e+01    0.2792116    0.2101831 -63.50 0.0007414562    1.534    0.348
        43 -11.4511     72.0159    167.6734   1.0181835955e+02   3.1124913835e+01     0.520187    0.3178515 -59.93  0.000871751    1.561    0.359
        44 -10.4168     29.7908    143.5705   1.1009838820e+02   4.2351706253e+01    0.4517297    0.3002714  15.96   0.00239232    1.906    0.475
        45 -10.4436    101.7909    138.8048   8.8277754508e+01   3.3495190256e+01    0.6187557    0.3821387 -24.74  0.002319282    2.669    0.625
        46 -10.1431    106.0205    131.1184   8.5384289314e+01   3.4591673083e+01    0.4462926    0.3078369 -56.45  0.001455853    1.432    0.302
        47  -9.5428    111.3744    129.2224   8.3444672831e+01   3.4030041829e+01     0.329334     0.255106   6.21   0.00085875    1.743    0.426
        48 -11.5707     89.3113    138.0139   9.1674900986e+01   3.5868224991e+01    0.2952801    0.2635629 -43.49 0.0004567618    1.159    0.137
        49 -10.5940     25.9488    137.6506   1.1043338507e+02   4.4198494538e+01     0.338043    0.2357021  38.31  0.001363345    1.568    0.362
        50 -10.9986    239.6761    170.2279   6.4488784425e+01   8.6772961435e-01    0.3656475    0.2015738 -19.96  0.001335978    2.323    0.570
        51 -10.1777    135.2170    128.8958   7.6999329305e+01   2.9296557961e+01    0.3657956    0.3248637  79.30  0.001442534    1.218    0.179
        52  -9.8951     44.0550    129.4652   1.0371620076e+02   4.4417812844e+01    0.1962721    0.1394693  28.09 0.0009767518    1.581    0.368
        53 -10.4226     28.5419    128.0875   1.0830623725e+02   4.6354249372e+01    0.3244464    0.2267041  68.67  0.001743642    1.599    0.374
        54  -9.0361    160.8270    127.9703   7.0608384198e+01   2.4041752664e+01    0.2654923      0.18047 -72.04  0.001092881    2.028    0.507
        55 -10.1991     98.4166    125.1905   8.6206858564e+01   3.7431059676e+01    0.3235135    0.2687791 -16.03  0.000997061    1.461    0.316
        56  -9.9916    117.2282    123.8767   8.0553154158e+01   3.4146539255e+01    0.4319919    0.2654808  20.75  0.001439387    2.485    0.598
        57  -9.7385    121.3251    120.3292   7.8564988044e+01   3.4143046671e+01    0.2593702    0.1980951 -33.59  0.001035696    1.436    0.304
        58  -8.3402    163.5142    121.4647   6.8434858188e+01   2.4844324950e+01    0.1547182    0.1461932 -73.65 0.0001622812    1.060    0.057
        59  -8.8516     86.1055    119.8997   8.8662922334e+01   4.0878082557e+01    0.2331783    0.1980858  76.70 0.0006892355    1.324    0.245
        60 -10.2353     32.6813    118.9709   1.0555003007e+02   4.8234370270e+01     0.203323    0.1550539 -65.77 0.0007296561    1.141    0.124
        61  -9.2865    107.5774    118.3140   8.1903730335e+01   3.7353677335e+01    0.2538125    0.2031578  39.33 0.0003481669    1.286    0.222
        62 -10.1355    231.3253    113.7955   5.4182524464e+01   1.2155066618e+01    0.2891071    0.2446823 -44.55 0.0007631379    1.035    0.034
        63  -8.8719    135.0000    111.9801   7.2845317048e+01   3.3138059823e+01    0.2611618   0.08778158 -45.66 0.0008018057    2.938    0.660
        64 -11.1556     52.8090    110.0713   9.7177522896e+01   4.8202323237e+01    0.4637559    0.3039357 -62.25  0.001847205    1.422    0.297
        65  -9.3416    205.2655    110.3971   5.7587600752e+01   1.8001060615e+01    0.2992052    0.2397838  40.21  0.001322666    1.434    0.303
        66 -10.3184    116.0571    108.3979   7.6971771173e+01   3.7943858962e+01    0.4272143    0.3277813  78.73  0.001951831    1.679    0.404
        67 -10.6478     33.5505    108.4166   1.0338171431e+02   5.0747401425e+01    0.3032781    0.2232899 -77.56  0.001609207    1.360    0.265
        68 -10.3420    244.9987    108.5008   5.1122796800e+01   1.0509726868e+01    0.1802596    0.1319841  58.34  0.001036244    1.600    0.375
        69  -9.3249    134.5152    105.9766   7.1399203653e+01   3.4547974344e+01    0.2205101    0.1370713 -21.87  0.000810055    2.520    0.603
        70 -16.9172     14.9292    243.0188   1.2191883777e+02   2.0926553573e+01     6.346308     2.187426  25.69   0.02597571    4.517    0.779
        71  -8.7213    111.7212    150.0220   8.7909689393e+01   2.8936117736e+01    0.3232354    0.1797197  62.30  0.001150426    2.641    0.621
        72 -10.7601     39.2933    102.8374   1.0029153479e+02   5.1516285607e+01    0.4908908    0.2044042  43.75  0.001826904    2.916    0.657
        73  -9.9975     33.0408    100.1182   1.0194004640e+02   5.2800582716e+01     0.305543    0.2098865 -67.24 0.0008205255    1.358    0.263
        74 -10.2088    240.7116    102.1595   5.0367840428e+01   1.2369756656e+01    0.2640148     0.141298  34.58  0.001089231    3.348    0.701
        75  -9.4923     53.0169     90.9714   9.2654365275e+01   5.2705380566e+01    0.2300718    0.1552597 -26.61 0.0007610002    1.682    0.406
        76 -10.3237    193.6592    205.3044   7.9611631717e+01   2.1605346644e+00    0.1941648    0.1192037  27.69 0.0009680689    1.637    0.389
        77  -8.7597     75.0540     85.1069   8.3256953435e+01   5.0780724534e+01    0.2154083    0.1752588  78.83 0.0006475782    1.649    0.394
        78  -8.9163    158.8274     82.8456   5.9471649759e+01   3.3617168789e+01    0.2098126    0.1729264 -78.69 0.0004828221    1.318    0.241
        79  -8.9350    151.0488     82.8672   6.1150288455e+01   3.5437681096e+01     0.229513    0.1933288 -79.22 0.0004931937    1.288    0.224
        80  -8.8004    110.7862     80.7580   7.0687601204e+01   4.4911531591e+01    0.2069895    0.1743086  76.20  0.001048025    1.396    0.284
        81  -8.6357     69.3284     81.4261   8.4185823703e+01   5.2495067385e+01    0.1758121    0.1333931  46.10 0.0004382872    1.461    0.315
        82  -8.9766     31.5693    204.3824   1.1598563081e+02   2.7396571362e+01    0.2582836    0.1372343  57.87  0.001342378    1.717    0.417
        83  -9.3974     34.7479    171.7547   1.1212881506e+02   3.4811329299e+01     0.257032    0.1749195  63.31 0.0004352911    1.425    0.298
        84 -11.1133     12.7872     59.7844   1.0072382816e+02   6.3521235234e+01    0.3285735    0.2398211  25.16  0.001120583    1.576    0.365
        85 -12.9505    191.0571     49.5938   4.5104390399e+01   3.1433181369e+01     1.046659    0.7922466  46.35  0.001217322    1.564    0.360
        86 -11.4848    115.9146    244.8508   1.0186748264e+02   7.3585146752e+00    0.3915475    0.2805678 -68.89  0.002319859    1.661    0.398
        87  -8.8479     60.1030    218.4739   1.1095509160e+02   2.0765965561e+01    0.2121937    0.1442008  69.79 0.0004040401    1.373    0.272
        88  -9.4575    198.1714     23.3756   3.7838238164e+01   3.3230567955e+01    0.2002055    0.1687364 -35.27 0.0006647587    1.379    0.275
        89  -8.9618    189.6747     14.9987   3.6732106412e+01   3.6147182627e+01    0.1749099    0.1500036 -72.15 0.0006279805    1.087    0.080
        90  -9.1693     89.0757    210.7687   1.0356432822e+02   1.8364871763e+01    0.2032443    0.1615929  64.19  0.000917285    1.175    0.149
