#   1 NUMBER                 Running object number                                     
#   2 MAG_AUTO               Kron-like elliptical aperture magnitude                    [mag]
#   3 X_IMAGE                Object position along x                                    [pixel]
#   4 Y_IMAGE                Object position along y                                    [pixel]
#   5 X_WORLD                Barycenter position along world x axis                     [deg]
#   6 Y_WORLD                Barycenter position along world y axis                     [deg]
#   7 A_WORLD                Profile RMS along major axis (world units)                 [deg]
#   8 B_WORLD                Profile RMS along minor axis (world units)                 [deg]
#   9 THETA_WORLD            Position angle (CCW/world-x)                               [deg]
#  10 FWHM_WORLD             FWHM assuming a gaussian core                              [deg]
#  11 ELONGATION             A_IMAGE/B_IMAGE                                           
#  12 ELLIPTICITY            1 - B_IMAGE/A_IMAGE                                       
         1 -11.6204    181.3157     30.0324   7.1745768105e+01   3.6473562556e+01     1.082027    0.7904266  33.81  0.005650917    1.656    0.396
         2 -11.3856    185.8585     22.2448   6.8980594237e+01   3.6269613841e+01    0.8264826    0.6517988   1.82  0.001811317    1.702    0.413
         3  -7.9826    206.1021      5.0866   6.2209248170e+01   3.3180646409e+01    0.1843947    0.1535298  63.41 -0.0006383859    1.229    0.186
         4  -9.4380    233.7399      9.9177   6.0625148050e+01   2.6162985026e+01    0.3510566    0.2135715 -38.94  0.001301994    1.664    0.399
         5 -10.0062    120.7214    249.3455   1.3280823936e+02   7.2189329428e+00    0.5315344    0.2900593  43.07 0.0009564634    1.581    0.368
         6 -10.1819    145.2638    246.5495   1.2793657247e+02   3.5711523937e+00    0.9935198    0.2561296  36.35  0.002663499    6.531    0.847
         7  -8.9370    134.2968    249.4020   1.3032930796e+02   4.9564773744e+00    0.3614783    0.1663911  39.51  0.001487843    1.985    0.496
         8  -8.4536    107.9215    250.4859   1.3524796320e+02   9.0881126524e+00    0.2814878   0.08710459  47.96  0.001193096    2.591    0.614
         9 -10.2674     96.1889    249.2800   1.3721393105e+02   1.1135837436e+01    0.6925859    0.3030899  50.85  0.003565796    1.852    0.460
        10  -9.7172     88.8821    244.6193   1.3804608564e+02   1.3091636522e+01    0.2694799    0.2056607 -84.33 0.0007077983    1.290    0.225
        11 -12.2614     11.1789    207.4074   1.4867354397e+02   3.0272086478e+01     2.281511    0.9108352  30.91  0.006023701    3.438    0.709
        12 -14.4605     37.7959    244.3964   1.4674558142e+02   2.0106828066e+01      3.49166    0.9465851 -60.54   0.01069689    4.070    0.754
        13 -12.1262      7.6862    244.5231   1.5146244927e+02   2.3459953710e+01    0.6005509    0.2375411  66.77 0.0007068795    2.071    0.517
        14 -12.9294     13.2005    241.1781   1.5044008718e+02   2.3497027671e+01    0.6591294    0.4569587  33.10  0.004421891    2.154    0.536
        15  -8.1998    177.4669    238.5079   1.2072458200e+02  -7.3341462123e-01    0.1291364    0.1088333  37.18 1.636191e-05    1.030    0.029
        16  -8.0238    103.1421    237.9960   1.3475012932e+02   1.2095770856e+01    0.1856737    0.1488672  67.63 0.0004399214    1.025    0.025
        17  -8.7683    171.8725    233.4320   1.2101969814e+02   1.0714353803e+00    0.3253282    0.1085439  36.12   0.00115128    3.315    0.698
        18 -10.0380     83.4446    231.4174   1.3769105588e+02   1.6399247527e+01    0.4208525    0.1655607  41.59  0.001955445    2.365    0.577
        19  -9.2889    113.7084    230.8523   1.3191152454e+02   1.1708454357e+01    0.3548116    0.1614831  37.48  0.001596729    2.317    0.568
        20  -9.4488    108.3653    229.7999   1.3280783901e+02   1.2791817002e+01    0.3936497     0.228591  29.33  0.001876612    2.472    0.595
        21  -8.9388    110.3140    224.7661   1.3180796526e+02   1.3438884899e+01    0.2776386    0.2221365 -75.91 0.0007620465    1.290    0.225
        22 -10.0406     96.6492    228.3163   1.3487178405e+02   1.4967307639e+01    0.4796749    0.2229059  63.31  0.002116276    2.498    0.600
        23  -7.3080    177.2475    219.9938   1.1782511285e+02   2.3516966619e+00    0.1630658    0.1165629 -45.22 0.0008849953    1.586    0.369
        24 -12.9531     53.4186    241.7087   1.4395747189e+02   1.8641499628e+01     1.231943    0.7902629  62.59  0.002855339    1.217    0.179
        25 -13.1338     27.3527    242.6243   1.4830630389e+02   2.1667693555e+01    0.8899305    0.7021604  -4.34  0.002293696    3.523    0.716
        26  -8.0939    166.8990    209.9228   1.1820815582e+02   6.0831127804e+00    0.4162266    0.2319246 -70.46  0.001562701    3.550    0.718
        27 -10.0148    174.5274    203.8102   1.1558566324e+02   5.7536238063e+00    0.2443638    0.2331927  35.77 0.0003432887    1.049    0.047
        28 -11.1730     77.3621    197.6505   1.3503653549e+02   2.4279942470e+01     0.783307    0.6091403 -78.36  0.003576326    1.177    0.151
        29 -10.2097     35.9389    195.9155   1.4318701055e+02   3.0068459717e+01    0.4816901    0.2189515  59.77  0.002461296    2.168    0.539
        30 -10.9891     30.9744    186.2164   1.4324745987e+02   3.2720125600e+01    0.7033932    0.3898599  70.32  0.002960433    1.747    0.428
        31  -7.5360    175.5161    189.0361   1.1264815437e+02   8.3644614485e+00    0.1980221    0.1440524 -46.89 0.0003446131    1.464    0.317
        32  -9.5920    199.5512    200.7421   1.0997970857e+02   1.4969236284e+00    0.3888142    0.2617092  36.17  0.001993258    1.397    0.284
        33  -9.4646     43.7396    188.6529   1.4091933651e+02   3.0743276600e+01    0.3152449    0.1301304  52.52  0.001500671    2.376    0.579
        34  -7.8533    208.4772    188.4768   1.0583775957e+02   1.9352552321e+00    0.1411578    0.1292466  13.49 0.0008095942    1.031    0.030
        35  -9.4926     87.0821    182.4028   1.3088975045e+02   2.6191253161e+01    0.4014779      0.25254 -72.21  0.001826196    1.549    0.354
        36  -9.3826     89.9671    176.5645   1.2936564586e+02   2.7063650440e+01    0.3964601    0.2513878 -45.58  0.001130685    1.876    0.467
        37 -13.3611     69.1086    212.9609   1.3845883863e+02   2.2207589225e+01     4.568424     1.639892 -72.74   0.01563007    3.116    0.679
        38  -7.5639    193.2800    195.3403   1.1020530122e+02   3.6638555099e+00    0.1412056    0.1077727   1.63 0.0007007964    1.625    0.384
        39  -7.8019     32.0067    171.2683   1.4151414576e+02   3.5923272368e+01    0.1594712    0.1334242  79.39 0.0004075946    1.133    0.118
        40  -7.2265    248.2771    189.3194   9.8588551948e+01  -5.5095566948e+00     0.133296   0.09352458  -0.66 0.0003056454    1.576    0.365
        41  -7.7750    190.2057    188.6150   1.0952602707e+02   5.5066057788e+00    0.3405758    0.2139653  -8.65  0.001325326    2.914    0.657
        42  -9.2506     95.8359    167.0462   1.2646948782e+02   2.8303038815e+01    0.2904429    0.2475219 -50.93 0.0004510833    1.280    0.219
        43 -12.9947     17.8057    228.0648   1.4892059579e+02   2.5488975495e+01     1.383575     0.776805  37.14  0.005425947    2.145    0.534
        44 -10.8135     84.9203    162.5211   1.2829394788e+02   3.1109833036e+01    0.3935899     0.345948 -72.43 0.0009132738    1.079    0.073
        45  -9.0667    100.2281    159.6464   1.2412569378e+02   2.9286663386e+01    0.5021042    0.2824949 -42.57  0.001404553    2.121    0.529
        46  -7.6908     49.9798    166.4937   1.3700388355e+02   3.4990872418e+01    0.1647728    0.1251266  41.44 0.0003910943    1.495    0.331
        47  -7.7111      3.1088    155.5004   1.4609183004e+02   4.2024153857e+01    0.1342056      0.11468  35.79  0.001013121    1.553    0.356
        48  -8.8608    120.9083    148.8906   1.1698241307e+02   2.8033763039e+01    0.2318696    0.2195853 -73.97 0.0002829824    1.034    0.032
        49 -12.4543      4.2315    248.7459   1.5219013106e+02   2.3051917814e+01    0.7716578    0.3108313  55.78  0.004790317    1.866    0.464
        50  -7.7010      5.6587    149.6926   1.4498181690e+02   4.3110452035e+01    0.1138794   0.07155193 -51.46 0.0003164473    1.687    0.407
        51 -11.2117     68.2356    144.4610   1.2933719290e+02   3.7799412653e+01    0.7288641    0.5142949  82.80  0.003567064    1.589    0.371
        52 -10.1543     67.7211    134.5412   1.2770222176e+02   4.0206143238e+01    0.3227297    0.2667107 -48.44  0.001253186    1.223    0.182
        53  -8.2291    110.6082    142.8466   1.1827544063e+02   3.1376672617e+01      0.49995    0.2277496 -39.95  0.001767458    2.820    0.645
        54  -8.1650     99.1946    144.0839   1.2141363762e+02   3.3115201189e+01     0.222789    0.2008266  57.35  0.000329534    1.143    0.125
        55  -8.5160    186.0313    140.7545   1.0008626225e+02   1.5892047672e+01    0.2424774    0.2150151 -43.19 0.0003228614    1.122    0.109
        56  -9.9327    232.0996    133.5122   8.9476453010e+01   7.1489610837e+00    0.2610013    0.2552244   1.13 0.0003478311    1.065    0.061
        57  -8.8399    117.7684    133.7960   1.1448308348e+02   3.2128906550e+01    0.3591278    0.2500863  50.54 0.0008365131    1.488    0.328
        58  -8.1992    133.7016    145.1688   1.1306104800e+02   2.6350621169e+01    0.3095697    0.1351688 -56.22  0.001072244    2.548    0.608
        59  -9.2700     69.4671    126.6917   1.2573597049e+02   4.1808439383e+01    0.2784858    0.1542751  50.71  0.001282249    2.115    0.527
        60  -6.8903    160.4754    126.5132   1.0230194493e+02   2.4698304559e+01     0.156296    0.1530795  -3.10 9.507453e-05    1.084    0.077
        61  -8.0237    235.8849    115.1814   8.4603684595e+01   9.6626132865e+00    0.2655505    0.1848685 -49.74   0.00129691    1.390    0.281
        62  -8.9819    250.0763    114.8129   8.2268835255e+01   6.7279253477e+00    0.2320653     0.186886 -35.82 0.0002504325    1.149    0.129
        63  -7.5696    168.9794    115.0056   9.7466081124e+01   2.5160508278e+01      0.24597    0.1923402 -86.52 0.0007575572    1.603    0.376
        64  -6.9749    183.2933    113.2969   9.3935672193e+01   2.2125607070e+01    0.1533353    0.1255625   8.59  0.000396292    1.562    0.360
        65  -7.6694    196.8064    107.4911   8.9729538408e+01   2.0047411118e+01    0.2239229    0.1528279  54.00 0.0007267621    1.492    0.330
        66  -7.7698    203.9889     92.7043   8.4621394582e+01   2.1092117382e+01    0.2087836    0.1865385  67.91 0.0001905911    1.128    0.114
        67  -7.1420     96.6823     90.3336   1.0928153361e+02   4.5691080892e+01    0.1428483    0.1146396 -86.60 0.0004369895    1.693    0.409
        68  -7.1095    150.2926     73.7127   9.0312782535e+01   3.7614619131e+01    0.1481897    0.1184021 -78.59 0.0001654957    1.543    0.352
        69  -8.4998    187.9223     70.8996   8.1810210591e+01   2.8865674737e+01    0.2167717    0.2056617  78.20 0.0002912695    1.027    0.026
        70  -9.7682    243.3021     58.5686   7.0410126606e+01   1.7494357227e+01    0.2499472    0.2300444 -68.46   0.00025707    1.099    0.090
        71  -8.5263    247.4856     54.3681   6.8968951874e+01   1.7182962674e+01    0.2606679    0.2172315  26.19   0.00124467    1.735    0.424
        72  -8.3399    161.2349     53.2228   8.1900270408e+01   3.8311504410e+01    0.2354853    0.1186994  69.35 0.0008247334    2.447    0.591
        73 -10.4983    168.7922     42.5456   7.7346015642e+01   3.7971860707e+01    0.3992333     0.367047 -79.65  0.001318971    1.106    0.096
        74  -7.7956    244.4748     47.4928   6.7784116493e+01   1.8863370998e+01    0.1352096    0.1162057 -70.89 0.0002146273    1.014    0.014
        75  -7.6651    184.8849     44.1398   7.5045755374e+01   3.3735541428e+01    0.2135079    0.1791729 -75.00 0.0003505486    1.210    0.174
        76 -12.2158     45.0898    249.4972   1.4592068160e+02   1.8267507828e+01    0.5179946    0.2143034  46.08 0.0007509424    2.034    0.508
        77  -7.1992    196.3915    247.5080   1.1855769284e+02  -5.3285218253e+00    0.1222311     0.102388  30.80 0.0001452003    1.024    0.024
        78  -8.5944    139.4565     34.9407   8.0753285015e+01   4.6080159569e+01    0.2495069     0.185764  55.12 0.0003041654    1.238    0.192
        79  -9.2441    129.4858    250.0553   1.3129120191e+02   5.6508574580e+00    0.4369672    0.2910242  61.87  0.002387554    1.392    0.282
