#   1 NUMBER                 Running object number                                     
#   2 MAG_AUTO               Kron-like elliptical aperture magnitude                    [mag]
#   3 X_IMAGE                Object position along x                                    [pixel]
#   4 Y_IMAGE                Object position along y                                    [pixel]
#   5 X_WORLD                Barycenter position along world x axis                     [deg]
#   6 Y_WORLD                Barycenter position along world y axis                     [deg]
#   7 A_WORLD                Profile RMS along major axis (world units)                 [deg]
#   8 B_WORLD                Profile RMS along minor axis (world units)                 [deg]
#   9 THETA_WORLD            Position angle (CCW/world-x)                               [deg]
#  10 FWHM_WORLD             FWHM assuming a gaussian core                              [deg]
#  11 ELONGATION             A_IMAGE/B_IMAGE                                           
#  12 ELLIPTICITY            1 - B_IMAGE/A_IMAGE                                       
         1 -13.9116    244.8476    110.4000   2.8167989022e+01   9.5192888186e+00     2.019616    0.9804818 -37.03  0.009487647    1.812    0.448
         2 -11.2212     39.4165      8.1200   4.3819588101e+01   7.1878693133e+01    0.5990303    0.2538747 -33.98  0.002730611    2.186    0.542
         3 -13.4358     43.9624     23.1944   5.0173087704e+01   6.8768501586e+01     1.613986    0.9044524 -53.37  0.007356621    2.410    0.585
         4 -10.3601    116.3637     16.9809   2.1433995230e+01   5.4049040958e+01    0.4407623    0.1655431 -43.88  0.001487393    3.256    0.693
         5 -11.3985    227.2186     15.9900   6.7221326434e+00   2.5515855728e+01    0.4485248    0.3103829  88.37  0.002534828    1.475    0.322
         6 -12.2110     78.0869     13.6548   3.0270494335e+01   6.3715330101e+01    0.4629723    0.2936356 -19.82  0.002300956    1.581    0.368
         7 -12.1910    156.4189     11.9806   1.2612440222e+01   4.3862714397e+01    0.6146234    0.4111192  81.31  0.002526129    1.490    0.329
         8 -12.1184    164.8685     12.1041   1.1575458538e+01   4.1582530435e+01    0.4616973    0.3913876 -77.13  0.001859753    1.157    0.136
         9 -12.1717    169.4020      9.5628   1.0200019459e+01   4.0616648959e+01    0.6856325    0.4039576 -45.71  0.003220955    1.684    0.406
        10 -13.0314    172.7627      3.2232   7.7948611990e+00   4.0300424857e+01     1.218011    0.6029909 -88.20  0.005084831    2.225    0.551
        11 -11.2921    223.6461      4.8741   4.1523908253e+00   2.7457971386e+01     0.440624    0.1684845 -51.76  0.001881189    2.382    0.580
        12 -10.8703     71.2006      5.8122   2.8293365591e+01   6.6111063852e+01    0.4387962    0.2206728  56.18  0.002001971    1.981    0.495
        13 -11.0739    208.0434      4.4874   5.1388061331e+00   3.1201178586e+01    0.2856061    0.2362385  84.64  0.001256421    1.179    0.152
        14 -12.5737    158.7019      3.7521   9.4760155955e+00   4.3996808140e+01     1.020472    0.3246028  62.74  0.003725743    2.620    0.618
        15 -11.4354    142.2563      1.9900   1.0883365994e+01   4.8563488459e+01    0.5440743    0.3219888 -50.96  0.002512506    1.848    0.459
        16 -11.0325    131.2194      3.7747   1.3164427117e+01   5.1379738844e+01    0.7217954    0.1927969  57.50  0.002455486    2.888    0.654
        17 -11.8375     83.8900      3.6139   2.3075080706e+01   6.3448117050e+01    0.8155772    0.3242984  62.59  0.003220808    2.526    0.604
        18 -11.0961     60.7526      2.1630   2.9971074064e+01   6.8705287430e+01    0.4686371     0.224639  46.07  0.002202251    1.892    0.471
        19  -9.5499     17.7547      1.9814   5.3464303699e+01   7.5788379120e+01    0.1618601   0.08772579 -37.96 0.0008859115    1.599    0.375
        20 -11.3263    232.2901      9.3644   4.7064387591e+00   2.5045965967e+01    0.4617376    0.2929555 -70.27  0.002564119    1.522    0.343
        21 -11.5727    190.7378     36.4950   1.6043662934e+01   3.2048441607e+01    0.3894606    0.2102361 -52.37  0.001648228    1.958    0.489
        22 -10.7181    220.5564    156.3745   4.2283233724e+01   7.2466361413e+00    0.2677871    0.2162202 -60.06   0.00148352    1.946    0.486
        23  -9.8898     20.4981    155.5073   8.9610343601e+01   4.0030071794e+01    0.1247685    0.1010929  79.26 0.0008106496    1.002    0.002
        24 -11.0602    163.3984    150.5794   5.2343244113e+01   1.9011236399e+01    0.5348497    0.2504791 -31.05  0.001992621    2.706    0.630
        25  -9.9196     53.8609    143.6886   7.9403357734e+01   3.9335276019e+01    0.2392235      0.17028 -63.46  0.001091342    1.353    0.261
        26 -12.0255     11.0768    140.0997   9.0922674379e+01   4.4426353395e+01     0.472391    0.2085509  64.03  0.002240064    2.255    0.557
        27 -13.6199    240.7073    125.2071   3.2155621028e+01   8.1776629174e+00     1.226483     1.053128  50.87  0.007582427    1.446    0.308
        28 -10.9413    160.7749    231.0596   6.6620271998e+01   6.1610160441e+00    0.3980126    0.2198759   8.63  0.001794189    3.243    0.692
        29 -12.2365    189.4728    115.6033   3.8614944242e+01   1.9965275710e+01    0.8463752    0.4876681  -9.96  0.003107604    2.800    0.643
        30 -11.5841    212.7069    113.0963   3.3764797436e+01   1.5431923069e+01    0.5845331    0.3083113 -31.53  0.002573937    1.749    0.428
        31 -11.0928    154.8780    120.6830   4.7317252730e+01   2.6624839212e+01    0.2829463    0.2177373 -26.33  0.001343822    1.374    0.272
        32 -11.6702    222.5009    107.4759   3.0784536860e+01   1.4295050387e+01    0.4914244    0.3314819  33.37  0.002472812    1.646    0.392
        33 -12.0002    148.4860    110.0267   4.6063606828e+01   3.0198939875e+01    0.5858363    0.3819184 -41.33  0.002546937    1.527    0.345
        34  -9.7899    184.3234    111.3229   3.8530548920e+01   2.1855865558e+01    0.1577673     0.115602   8.98 0.0007047037    1.681    0.405
        35 -10.7949     17.2613    104.1403   8.5519279171e+01   5.2791333566e+01    0.3669798    0.1844872  27.98  0.001832737    2.211    0.548
        36 -10.1209     30.8502    101.7279   8.0465719706e+01   5.2286839358e+01    0.2105537    0.1627043 -31.54  0.001191424    1.515    0.340
        37  -9.9166    113.0055    100.7904   5.2955228307e+01   3.9951523770e+01    0.2384968    0.1826359 -73.07  0.001071355    1.617    0.382
        38  -9.7401    209.3603     93.8300   2.9438560322e+01   1.9212862941e+01    0.2142489    0.1303648 -21.68 0.0008450911    1.706    0.414
        39 -10.4929    178.8551     92.4384   3.4517435434e+01   2.6465929274e+01    0.3389701    0.2958363 -66.05  0.001676838    1.303    0.233
        40 -10.0253     94.6781    111.3494   6.1194010113e+01   4.1074945051e+01    0.1592216    0.1187021  81.33 0.0007048782    1.744    0.427
        41 -11.0613     12.9907     89.9712   8.5150956008e+01   5.6628331755e+01    0.2071674    0.1722555 -74.54  0.001314505    1.011    0.011
        42 -13.1243     15.0413     73.1051   8.1607033899e+01   6.0686437423e+01    0.9278891     0.574324  34.41  0.005107404    1.870    0.465
        43 -12.6021      4.8648     75.9947   8.6314394316e+01   6.0552466411e+01    0.6956091    0.3866352 -83.31  0.003666353    1.627    0.386
        44 -10.7961      2.5176     83.4963   8.8248456648e+01   5.8817716004e+01    0.2584859    0.1961336 -71.68 0.0008914582    1.055    0.052
        45 -11.2606      2.5415     88.2861   8.8812599553e+01   5.7634442749e+01    0.3969677    0.2532996  87.08  0.002272542    1.437    0.304
        46 -10.2768    193.9760     87.0302   3.0206442391e+01   2.3813887864e+01     0.306969    0.2431995 -62.47  0.001080429    1.473    0.321
        47 -10.5414    190.0047     87.0000   3.0901008009e+01   2.4753466950e+01    0.3602266    0.2012299  46.17   0.00151005    1.879    0.468
        48 -12.0541     40.8512     83.3284   7.3187253097e+01   5.5920469569e+01    0.7655873    0.3652185  48.19   0.00318864    2.626    0.619
        49 -12.1920     45.5716     81.2767   7.0839789758e+01   5.5897319914e+01     1.053952    0.4019931 -54.18  0.004174608    2.195    0.544
        50  -9.5327    101.0000     83.9858   5.1650869157e+01   4.6201385901e+01    0.2617002    0.0866724 -45.88 0.0008010802    2.933    0.659
        51  -9.7828    145.3053     81.0692   3.8422944629e+01   3.6687748600e+01    0.2315986    0.2089096 -35.74  0.000923246    1.093    0.085
        52  -9.6658    215.4281     80.1801   2.4922013216e+01   1.9962741825e+01    0.2191932    0.1169767 -41.49 0.0009488845    1.746    0.427
        53 -10.1789    221.0520     77.8545   2.3511226152e+01   1.9056980166e+01    0.3063619    0.1843126 -60.45  0.001181235    2.208    0.547
        54 -10.4484    169.5979     76.2445   3.1629887415e+01   3.1536633140e+01    0.3279194    0.2953371 -85.82  0.001621761    1.233    0.189
        55 -10.2430    207.8130     73.3917   2.4227315488e+01   2.2718254932e+01    0.2075134    0.1310253  46.78  0.000955761    1.722    0.419
        56  -9.8971    170.2345     71.3855   3.0026471178e+01   3.2197754540e+01    0.2208176    0.1512195  71.66 0.0009527489    1.724    0.420
        57 -10.3198     74.8766     69.7960   5.6059234297e+01   5.4354731842e+01    0.3434506    0.2163203  38.40   0.00122652    1.682    0.405
        58 -11.4333    214.4604     66.9950   2.1549253897e+01   2.2116789165e+01    0.3108653    0.2271691 -16.98  0.001312864    1.429    0.300
        59 -10.4443    179.8945     66.5148   2.6765459320e+01   3.0555230139e+01    0.3747349    0.2606956  80.72  0.001664326    1.788    0.441
        60 -10.8627     25.6430     65.0667   7.5239735393e+01   6.1864977058e+01    0.3894002    0.2159927 -67.81  0.001902883    1.644    0.392
        61 -10.5310      4.5114    124.5062   9.1585972029e+01   4.8626895187e+01    0.2364994    0.1319544  64.85  0.001284265    1.707    0.414
        62 -11.3244    209.8614     60.2122   2.0328721596e+01   2.4154487305e+01     0.430965    0.2086126 -38.83  0.001818104    1.846    0.458
        63  -9.7599    219.2938     61.3590   1.9407198948e+01   2.1801569143e+01    0.1425603    0.1070214  12.67 0.0005546464    1.698    0.411
        64  -9.1536    132.3157     63.6947   3.5879952000e+01   4.3113943096e+01    0.1594478    0.1246601 -73.15 0.0007026144    1.624    0.384
        65 -11.5836     10.5438    121.6972   8.9559904305e+01   4.8910719994e+01    0.3458814    0.1251307  46.53  0.001517827    2.743    0.635
        66 -12.3545    198.8627     51.9939   1.9514287128e+01   2.7960324556e+01    0.6547588    0.4814127  49.85  0.003306183    1.458    0.314
        67 -11.9161    214.9013     52.3717   1.7540325832e+01   2.4043329429e+01      0.63026    0.3267803 -17.79  0.002595908    2.281    0.562
        68 -10.3295    165.4258     53.3390   2.5230951054e+01   3.6301342819e+01    0.4499392    0.2457235  42.16  0.001778044    2.060    0.515
        69  -9.8024     35.2814     52.9679   6.7271623940e+01   6.3795854637e+01    0.2026108    0.1610814 -48.52  0.001173785    1.087    0.080
        70 -11.1016     85.3949     48.0556   4.3995909617e+01   5.6833121831e+01    0.4863293    0.3432499  47.68  0.002315535    1.489    0.329
        71  -9.1072     96.6775     47.2889   3.9837487248e+01   5.4537638681e+01    0.1465946    0.1216587 -78.12 0.0007009404    1.605    0.377
        72 -11.9809     81.1273     37.6389   4.1031014478e+01   5.9572886067e+01    0.5609848     0.364146 -42.80  0.002649497    1.600    0.375
        73 -11.5207      3.3287     41.5273   8.0431603907e+01   6.8871099406e+01     0.397475    0.3586194 -86.51  0.002776934    1.266    0.210
        74 -11.0728    181.3810     40.0727   1.8407914441e+01   3.4000999371e+01     0.334562    0.2063148 -59.51  0.001455736    1.843    0.457
        75 -11.5783    240.7208    229.6058   5.2230833272e+01  -4.8915219230e+00    0.2801824    0.1450213  33.63  0.001747847    1.678    0.404
        76 -11.8406     40.0677     29.1179   5.5228665890e+01   6.8246790407e+01    0.5404155    0.2896321 -41.86  0.002283881    1.656    0.396
        77 -11.1074      3.7913    230.1232   9.6817225720e+01   2.6271473039e+01    0.2133717     0.128326  35.10  0.001535503    1.616    0.381
        78  -9.4791     97.2955     36.6781   3.5139546371e+01   5.6164618697e+01    0.1462211    0.1176161 -66.09 0.0004537862    1.617    0.382
        79 -11.0693      5.8062     35.1197   7.7256616505e+01   7.0203768197e+01    0.3118378    0.2259199  48.36  0.001882744    1.839    0.456
        80  -9.8059    198.3223     34.3170   1.4467335926e+01   3.0397778976e+01    0.1440742    0.1071048  30.22 0.0005168224    1.665    0.399
        81 -10.1098    145.9435     28.4531   2.0160421704e+01   4.4889341429e+01    0.4351222    0.2021862 -65.76  0.001224637    4.653    0.785
        82 -10.0661     90.4426     28.3176   3.3520815758e+01   5.8998510620e+01     0.267123    0.2045131   2.18  0.001126637    1.402    0.287
        83  -9.8069     67.2963     28.3255   4.1977681040e+01   6.3889235347e+01    0.1454258    0.1026818   3.67 0.0005181876    1.627    0.385
        84 -11.2441     75.5914     25.0980   3.7100264222e+01   6.2722474743e+01    0.3665873    0.2563544 -10.90  0.001832343    1.517    0.341
        85 -11.2999    178.4338     23.9356   1.3742619580e+01   3.6737137710e+01    0.4159695      0.37723   7.40  0.002343663    1.246    0.197
        86 -11.3328    173.6473     20.8903   1.3372192073e+01   3.8337646044e+01    0.3804676    0.2633147  80.61  0.001474542    1.451    0.311
        87 -10.0095    224.7486     22.6146   8.6163391692e+00   2.5371434326e+01     0.232903    0.1664213 -83.99  0.001293537    1.437    0.304
        88  -9.9931    187.3459     19.2950   1.1263847516e+01   3.4922409548e+01    0.2702799    0.1568377  60.19  0.001257097    1.698    0.411
        89 -10.3562    128.5972     18.3793   1.9505963366e+01   5.0686219027e+01    0.3008465    0.2476383  45.42  0.001372889    1.167    0.143
        90 -11.2818    248.6910    224.5852   5.0155720461e+01  -5.3905431107e+00    0.3990402    0.2182665 -22.35  0.002586617    1.723    0.420
        91  -9.9912     31.5360    227.4666   9.1614618086e+01   2.4049526159e+01    0.1109626    0.0800994  59.53  0.000150383    1.011    0.011
        92  -9.6670     93.9916     16.8281   2.6948150433e+01   5.9665930289e+01    0.2248712    0.1661316 -83.06 0.0007713496    1.954    0.488
        93  -9.9325    247.6037     15.8483   5.2666873370e+00   2.1043815888e+01    0.1939569   0.08604129 -39.41 0.0009493895    1.766    0.434
        94 -10.6127    158.4833    225.4974   6.6312876769e+01   7.2886674448e+00    0.1229901   0.09720332  29.28  0.000163894    1.006    0.006
        95 -10.2521     20.0367     15.3550   6.0047556146e+01   7.3222962640e+01    0.3198035    0.1787555  -8.84  0.001529225    2.274    0.560
        96 -12.8711    206.6462    218.2654   5.6229482723e+01   1.0389803573e+00    0.9318749    0.4843178   8.86  0.004435523    2.688    0.628
        97 -13.2208    183.2903    217.4614   6.0397418560e+01   4.6350118599e+00    0.7044762    0.4357002  -1.77   0.00380429    2.098    0.523
        98 -11.2661     50.2325    218.3683   8.7428007976e+01   2.3646862853e+01    0.3041889    0.1552671  45.96  0.001796278    1.516    0.340
        99 -10.3651     67.5046    217.5030   8.3848952821e+01   2.1707946397e+01    0.1194626   0.09379087  55.51 -3.570281e-05    1.000    0.000
       100 -10.3658    141.1420    206.8252   6.7189919770e+01   1.2884133195e+01    0.1766846    0.1424028  11.65  0.001019982    1.339    0.253
       101 -12.6744    244.3266    200.6450   4.6814528274e+01  -2.2385665442e+00    0.7740151    0.5585771 -16.78  0.005296234    1.276    0.216
       102 -11.5276    247.1087    192.4312   4.4893212792e+01  -1.6763104542e+00    0.4225581    0.3228294  25.77  0.002160943    1.323    0.244
       103 -12.6043    248.3613    185.5954   4.3433423751e+01  -1.0464336962e+00     1.181697    0.4623784 -37.74  0.005528178    2.848    0.649
       104 -10.4847    202.9764    197.0217   5.3344575319e+01   4.3694472978e+00    0.2027013    0.1634001  13.41  0.001121262    1.001    0.001
       105 -10.2242    206.3256    192.3336   5.1892527430e+01   4.4831898654e+00    0.1349811    0.0854227   6.81 -8.100503e-06    1.713    0.416
       106 -11.5378    195.8297    185.5563   5.2626456183e+01   7.1755209681e+00    0.3296618     0.303411 -26.58   0.00214548    1.319    0.242
       107 -10.2891     37.3304    185.4322   8.7831301834e+01   3.1686179909e+01    0.2123488    0.1150868  26.62  0.001128499    2.092    0.522
       108 -10.0528     14.6143    160.2146   9.1419181414e+01   3.9458467705e+01    0.1717659   0.09340167 -70.81 0.0008116048    1.675    0.403
       109 -10.4418    173.3145    158.6712   5.1903323982e+01   1.5603670176e+01    0.1354292    0.1160128  85.39 0.0007044459    1.674    0.403
