#   1 NUMBER                 Running object number                                     
#   2 MAG_AUTO               Kron-like elliptical aperture magnitude                    [mag]
#   3 X_IMAGE                Object position along x                                    [pixel]
#   4 Y_IMAGE                Object position along y                                    [pixel]
#   5 X_WORLD                Barycenter position along world x axis                     [deg]
#   6 Y_WORLD                Barycenter position along world y axis                     [deg]
#   7 A_WORLD                Profile RMS along major axis (world units)                 [deg]
#   8 B_WORLD                Profile RMS along minor axis (world units)                 [deg]
#   9 THETA_WORLD            Position angle (CCW/world-x)                               [deg]
#  10 FWHM_WORLD             FWHM assuming a gaussian core                              [deg]
#  11 ELONGATION             A_IMAGE/B_IMAGE                                           
#  12 ELLIPTICITY            1 - B_IMAGE/A_IMAGE                                       
         1 -11.6039      2.1616     39.2972   1.2682146409e+02   6.6217059579e+01    0.7512308          nan -55.92  0.001909961    9.554    0.895
         2 -12.0814      2.2747      7.8250   1.1602356033e+02   7.1198154999e+01     1.058452    0.1796721 -46.55  0.004151407    4.904    0.796
         3 -13.5423    208.2858     11.6007   6.2962731133e+01   3.1882252224e+01     1.392212     1.020572  39.91  0.007931598    1.753    0.430
         4 -13.0974    193.7444     29.9592   6.9293742685e+01   3.3289689871e+01     1.195076       1.1336 -78.61  0.006808504    1.114    0.102
         5  -9.6307     66.6941    250.0273   1.4187709614e+02   1.5119754744e+01    0.1617519    0.1205914  78.22 0.0004375726    1.101    0.092
         6 -10.9977    138.4636    249.8262   1.2890845752e+02   3.9444432691e+00    0.4128501    0.1315609  43.90   0.00169962    2.538    0.606
         7 -10.3490    126.5527    250.0224   1.3115072187e+02   5.9088314909e+00     0.260743    0.1398194  54.21  0.001359415    1.627    0.385
         8 -11.8781     99.5786    248.0860   1.3588854224e+02   1.0609399041e+01    0.4505571    0.3217779  46.15  0.002863357    1.294    0.227
         9 -10.2808     29.7395    250.2636   1.4798126715e+02   1.9806443776e+01     0.296395    0.2039029  73.57   0.00169186    1.014    0.014
        10 -11.0495     34.0199    249.4019   1.4724587677e+02   1.9457611157e+01    0.4428115    0.2374889  48.77  0.002895573    1.608    0.378
        11 -11.8290     35.2633    244.2894   1.4670524907e+02   2.0254271800e+01    0.5206748    0.3223375  44.97  0.003524852    1.627    0.385
        12 -12.7331     19.0675    245.7281   1.4938505748e+02   2.1850564028e+01     1.000051     0.687759  74.49  0.005768363    1.013    0.013
        13 -12.6295      3.6559    244.9446   1.5170717622e+02   2.3621893134e+01     1.431987    0.5400809 -72.33  0.008584435    2.298    0.565
        14 -13.8375      8.4117    208.6968   1.4884525878e+02   3.0145355692e+01     2.697322    0.8007939 -79.07   0.01120802    2.887    0.654
        15 -15.1540      8.2732    149.3817   1.4397146123e+02   4.2899048548e+01     5.945755     1.918983 -81.01   0.02382582    3.296    0.697
        16 -10.0656    142.1776    230.5895   1.2562623798e+02   6.6392953655e+00    0.1946814    0.1134162  35.16 0.0007473101    1.747    0.428
        17 -11.3657     63.5042    197.1965   1.3729773803e+02   2.6224958305e+01    0.3199873     0.253288 -45.94 0.0007205955    1.699    0.412
        18  -9.5985    192.0993    193.2922   1.0915943710e+02   4.0917310261e+00    0.7159006    0.3419211 -64.22  0.001530143   10.167    0.902
        19 -10.3367     45.9620    248.3965   1.4523588760e+02   1.8172622965e+01    0.3132427    0.1410774  68.00  0.001708255    2.063    0.515
        20 -11.5149     69.1898    189.3711   1.3516047268e+02   2.7170106135e+01    0.2779916    0.2282458 -65.24 0.0004912565    1.273    0.214
        21  -9.4501    156.3184    228.3181   1.2248949814e+02   4.5119353802e+00    0.1290871    0.1016645  11.63  0.000317727    1.658    0.397
        22 -10.6423     78.9144    176.8676   1.3131558487e+02   2.8598162605e+01    0.2534422    0.2195718 -70.63 0.0003714687    1.148    0.129
        23 -12.8717     65.9159    174.6969   1.3396102484e+02   3.0961545085e+01    0.5031047    0.2715025 -46.44  0.001515282    2.299    0.565
        24 -11.6586     86.3419    167.5955   1.2816658040e+02   2.9610432544e+01    0.6674685     0.571318  74.54  0.003882421    1.099    0.090
        25  -9.7670     98.8512    151.5967   1.2229779608e+02   3.1322192904e+01     0.312536    0.2954139  -2.95 0.0008340854    1.290    0.225
        26  -9.0936    101.8700    147.2943   1.2069955063e+02   3.1814940164e+01    0.2336528    0.1787129 -25.45  0.001124772    1.761    0.432
        27 -11.7214     87.3796    150.9064   1.2504886474e+02   3.3375748895e+01    0.2884328     0.245875 -45.78 0.0005860294    1.273    0.214
        28 -12.3391     67.4089    144.0065   1.2889511322e+02   3.7952758429e+01    0.7653754    0.5263578  74.41  0.002946258    1.697    0.411
        29 -12.3792     37.2626    231.0296   1.4542441271e+02   2.2549663682e+01    0.2987154    0.2472949 -89.68 0.0007228851    1.272    0.214
        30  -9.4917    110.2053    136.8111   1.1637798781e+02   3.2776189850e+01    0.3716278    0.2503526 -16.65  0.001092354    2.608    0.617
        31  -8.2547    192.2404    144.0124   9.8660646605e+01   1.3713641127e+01    0.1940171    0.1285917 -41.62 0.0004184777    1.503    0.334
        32 -11.5557     57.7237    131.9571   1.2931865723e+02   4.2047300795e+01    0.7191613    0.2962291 -74.04  0.002483167    3.590    0.721
        33 -14.7005     43.5513    222.4267   1.4363532661e+02   2.3494655944e+01     5.359042      1.40435  40.10  0.007964641    3.427    0.708
        34  -9.1470    107.1196    123.7742   1.1424567768e+02   3.6369501404e+01    0.2066738    0.1928924 -88.97 0.0003257215    1.093    0.085
        35 -10.2304     97.4355    134.1041   1.1913670329e+02   3.5687733289e+01    0.2831736    0.2378389 -34.88 0.0004959317    1.321    0.243
        36  -9.6791    229.5950    229.8115   1.0860755040e+02  -8.5708830504e+00    0.1619913    0.1164763 -44.99 0.0009473315    1.759    0.431
        37 -10.0938    168.0400    113.0541   9.6349180340e+01   2.5675199959e+01    0.3617637    0.2885186 -80.83  0.000849492    1.518    0.341
        38  -8.6988    203.4742    111.5292   8.8606301589e+01   1.7587651862e+01    0.1509904    0.1484148 -34.65 0.0001065856    1.057    0.054
        39  -8.6095    152.5383    212.9951   1.2086407311e+02   8.0177869880e+00    0.1801451    0.1378475 -55.80 5.853138e-05    1.458    0.314
        40 -11.3853    244.5810    247.5173   1.0893739946e+02  -1.3200446762e+01    0.3461698    0.1929948 -12.01  0.001875611    2.179    0.541
        41 -10.0214    163.1545    249.1195   1.2417557933e+02  -1.5918657784e-01    0.1921984    0.1584618  29.89 0.0008102125    1.207    0.172
        42 -11.0357     81.9851    248.8860   1.3911785746e+02   1.3138991971e+01    0.3333058    0.2424259  31.40  0.002075237    1.881    0.468
