#   1 NUMBER                 Running object number                                     
#   2 MAG_AUTO               Kron-like elliptical aperture magnitude                    [mag]
#   3 X_IMAGE                Object position along x                                    [pixel]
#   4 Y_IMAGE                Object position along y                                    [pixel]
#   5 X_WORLD                Barycenter position along world x axis                     [deg]
#   6 Y_WORLD                Barycenter position along world y axis                     [deg]
#   7 A_WORLD                Profile RMS along major axis (world units)                 [deg]
#   8 B_WORLD                Profile RMS along minor axis (world units)                 [deg]
#   9 THETA_WORLD            Position angle (CCW/world-x)                               [deg]
#  10 FWHM_WORLD             FWHM assuming a gaussian core                              [deg]
#  11 ELONGATION             A_IMAGE/B_IMAGE                                           
#  12 ELLIPTICITY            1 - B_IMAGE/A_IMAGE                                       
         1 -11.8778    226.1455     21.3019   3.5427581926e+01   2.6874879407e+01    0.8160804    0.7553627  50.04  0.005628518    1.434    0.302
         2 -12.1458    208.9810     36.2771   4.0568879953e+01   2.8868311521e+01     1.048466    0.7405925 -50.82   0.00595329    1.299    0.230
         3 -10.0314      2.0000     22.5429   9.6666837381e+01   7.1365105270e+01    0.3687029   0.07102539 -51.45   0.00146452    3.657    0.727
         4  -9.7863      1.9004      3.8661   8.8377768226e+01   7.4357974319e+01    0.3871074    0.1067394 -49.63  0.001536814    4.663    0.786
         5 -10.2589    247.6756      2.6684   3.0019820324e+01   2.4461730375e+01    0.4801294    0.2342286  87.74  0.002704773    1.918    0.479
         6 -11.1858     17.1923    216.8051   1.2215501408e+02   2.6149028730e+01    0.3931824    0.3734033  -3.65   0.00176124    1.583    0.368
         7 -11.4941     85.2331    222.1648   1.0831916114e+02   1.6579716246e+01    0.7795338    0.3016397  44.50 0.0005151975    2.221    0.550
         8 -12.0023      3.8100    184.3808   1.2286354672e+02   3.4575179880e+01    0.9058908     0.461355  83.36  0.004899459    1.727    0.421
         9 -14.0056      5.5874    137.0360   1.1851855062e+02   4.5744423556e+01     7.398725     1.380658 -78.17   0.01879373    6.788    0.853
        10  -9.5325     58.9505    230.7458   1.1474475424e+02   1.8407097732e+01    0.2980649     0.166373 -65.59   0.00123808    1.864    0.463
        11 -10.2674     30.6858    218.9869   1.1958600834e+02   2.4265155435e+01    0.3958254    0.1864302  63.60  0.002023503    1.993    0.498
        12 -11.6699     32.1990    204.0505   1.1812484107e+02   2.7376468889e+01    0.5622715    0.3877366 -49.00   0.00132344    1.862    0.463
        13 -10.1158     47.9761    218.4966   1.1596369284e+02   2.2365589618e+01    0.4014992    0.2262209  16.07  0.001846571    3.104    0.678
        14  -9.4409     43.5287    218.5162   1.1689933540e+02   2.2897008261e+01    0.2485257    0.1793222  70.45 0.0006456918    1.171    0.146
        15 -10.9771     42.1552    214.4405   1.1684982260e+02   2.3943341812e+01     1.051293   0.06630739  45.74   0.00291136    6.362    0.843
        16 -11.2657    103.6312    229.3493   1.0517763116e+02   1.2365731007e+01    0.8699582    0.2197754  48.01  0.002723802    4.287    0.767
        17  -8.1115    109.7733    200.7910   9.9944171524e+01   1.7376975837e+01    0.2191951    0.1163697 -71.38 0.0008885367    2.504    0.601
        18 -11.8801    129.7432    230.5546   9.9726674193e+01   8.0434158742e+00    0.9870235    0.3912345  34.92  0.004111361    2.308    0.567
        19 -10.2108     60.1849    177.3170   1.0876915270e+02   3.0327460895e+01     0.458675    0.2790717 -38.15  0.001806709    2.293    0.564
        20 -10.1057     65.6222    171.8319   1.0663622444e+02   3.0948767554e+01    0.3369525    0.2563604 -43.07  0.001060876    1.527    0.345
        21 -13.2089     42.3503    249.3175   1.1941139819e+02   1.6784552952e+01     3.846329    0.9737724  29.33   0.01145274    7.391    0.865
        22 -10.5676     75.0423    160.5730   1.0242113378e+02   3.2422040202e+01     1.040405    0.4286142 -72.32  0.001194183    3.227    0.690
        23 -10.7314     82.5922    156.2141   9.9611786524e+01   3.2377670570e+01    0.7287859    0.4917216 -23.06  0.001861755    2.254    0.556
        24 -11.6503     68.4095    144.4106   1.0152424715e+02   3.7457794303e+01    0.8694627    0.5825257  79.72  0.002738321    1.873    0.466
        25  -8.9710     84.0435    163.2059   1.0042645369e+02   3.0406445432e+01    0.2553892    0.1545958  61.01  0.001091524    1.969    0.492
        26 -11.7611     62.7140    158.2528   1.0541711747e+02   3.4729898009e+01    0.5275576    0.3365129 -43.30  0.001409067    1.786    0.440
        27  -8.6830     31.6554    156.0989   1.1354327968e+02   3.8874108695e+01     0.326814    0.1561979  27.53  0.001517054    2.378    0.579
        28  -9.0492     22.9103    156.1167   1.1585860177e+02   3.9695231792e+01    0.2033907    0.1529093  81.02 0.0007108465    1.217    0.178
        29  -8.4986     97.6943    141.9848   9.2624021749e+01   3.3454202226e+01    0.2442734    0.2360768  73.50  0.001111878    1.044    0.042
        30  -8.1118    100.7174    138.3825   9.0993655560e+01   3.3814169861e+01    0.3284549    0.2068024 -28.13  0.001080668    2.235    0.553
        31 -10.6574     85.4846    140.5141   9.5825614326e+01   3.5870365084e+01    0.3298025    0.2747861 -44.57 0.0006034875    1.218    0.179
        32 -10.4418     59.5366    135.8529   1.0260876840e+02   4.0831751606e+01    0.5827408    0.2267383 -69.97  0.001984819    3.025    0.669
        33  -9.3033    107.4486    131.1284   8.7438282998e+01   3.4361199376e+01    0.4658478    0.3161322  38.79  0.002085385    1.518    0.341
        34  -9.7003     75.5718    136.3562   9.7907216223e+01   3.8462005504e+01    0.3417511    0.2623547  56.46 0.0009358074    1.416    0.294
        35  -9.1173     95.9399    127.1342   8.9855238801e+01   3.7438698064e+01    0.3247653    0.2647344 -19.99 0.0009295153    1.449    0.310
        36 -13.1467      9.8236    207.3834   1.2305468151e+02   2.8894039958e+01     1.028406    0.8600205  65.06  0.003839547    1.176    0.149
        37  -7.7447     67.3413    125.3161   9.8182698099e+01   4.2445877143e+01    0.1527386    0.1081472 -28.55 0.0003978572    1.708    0.415
        38  -7.9965    106.0733    119.5048   8.5028152080e+01   3.7425862004e+01    0.2199158    0.1552735  39.12 0.0004395075    1.463    0.316
        39  -9.7121    149.1192    228.6693   9.5324947590e+01   5.2668077935e+00    0.2136886    0.1915376 -73.43  0.001015781    1.371    0.271
        40  -8.0812     41.4995     91.9377   9.9560540626e+01   5.3821137613e+01    0.2111769    0.1204648 -57.69 0.0005118554    1.541    0.351
        41 -13.9100     40.6072    194.2408   1.1538426736e+02   2.8681510099e+01     6.086588     2.281112  65.58   0.02075254    4.172    0.760
        42 -10.0959     13.5171     60.2099   1.0291054028e+02   6.3344454912e+01    0.2335392    0.1907842 -41.58 0.0006713441    1.036    0.035
        43  -9.2144     77.2161    225.9782   1.1046323094e+02   1.6931328747e+01    0.2403145    0.1583704 -89.94 0.0006782662    1.643    0.391
        44 -11.2779     58.1737    241.8908   1.1583653892e+02   1.6270424955e+01    0.6790591    0.2882279  51.62  0.003335081    1.984    0.496
        45 -11.1975    217.8424     29.3371   3.7999367728e+01   2.7736551937e+01    0.5978467    0.4384066  48.72  0.001131581    1.701    0.412
        46 -12.1856    201.6434     42.7332   4.3024140309e+01   2.9715699368e+01    0.9847705    0.7893454  61.90  0.005581183    1.292    0.226
        47 -13.8506      7.2404    241.1165   1.2533593739e+02   2.2179838314e+01      2.09661     1.360027 -88.31   0.01481398    1.336    0.251
        48  -7.9335     44.0298     60.5250   8.9791273298e+01   6.0455164005e+01    0.1795043    0.1061314  50.79 0.0008100222    2.673    0.626
        49  -8.3470    134.6453     41.2046   5.3673539043e+01   4.6246965601e+01    0.2404791    0.1847832  72.94 0.0007270605    1.361    0.265
        50  -9.1712    177.8995    222.6064   8.8332172551e+01   1.6543394214e+00    0.1966494    0.1891175 -74.51 0.0006088777    1.359    0.264
        51 -10.4475     93.9754    232.3013   1.0758222893e+02   1.3229684345e+01    0.2490972    0.1592356  43.59   0.00111041    1.339    0.253
        52 -11.9224    113.0521    229.2316   1.0313612996e+02   1.0934914386e+01    0.9582083    0.5987479  51.86   0.00507094    1.509    0.337
