#   1 NUMBER                 Running object number                                     
#   2 MAG_AUTO               Kron-like elliptical aperture magnitude                    [mag]
#   3 X_IMAGE                Object position along x                                    [pixel]
#   4 Y_IMAGE                Object position along y                                    [pixel]
#   5 X_WORLD                Barycenter position along world x axis                     [deg]
#   6 Y_WORLD                Barycenter position along world y axis                     [deg]
#   7 A_WORLD                Profile RMS along major axis (world units)                 [deg]
#   8 B_WORLD                Profile RMS along minor axis (world units)                 [deg]
#   9 THETA_WORLD            Position angle (CCW/world-x)                               [deg]
#  10 FWHM_WORLD             FWHM assuming a gaussian core                              [deg]
#  11 ELONGATION             A_IMAGE/B_IMAGE                                           
#  12 ELLIPTICITY            1 - B_IMAGE/A_IMAGE                                       
         1 -14.0152    228.1802      4.9010   3.5021890361e+01   2.7870068620e+01     1.770894      1.02897  53.10   0.00699627    2.042    0.510
         2 -13.8883    184.3811     48.8606   5.1253800280e+01   3.2912016426e+01     1.234359     1.084304 -22.48 0.0008438411    1.240    0.193
         3 -14.0653    195.4842     39.9033   4.7141660436e+01   3.1420895152e+01     1.335696     1.023777 -41.12  0.003355128    1.270    0.213
         4 -14.6151    204.3669     30.4629   4.3510070086e+01   3.0485387684e+01     1.490637     1.292615  29.22  0.001357542    1.443    0.307
         5 -11.6325     61.1960      2.8638   6.2606159732e+01   6.6317819805e+01     0.270809    0.2011933  20.22  0.001743374    1.132    0.116
         6 -11.7905     49.3716      2.4955   6.6832794425e+01   6.8359068084e+01     0.447164   0.09744889  40.09  0.001610936    4.203    0.762
         7 -10.6200    107.2899    210.6634   1.0593156861e+02   1.6224871750e+01    0.3646635    0.1059432  40.15  0.001336525    3.020    0.669
         8 -11.4583    140.4550    249.9801   1.0430993279e+02   3.9794660362e+00    0.4615714    0.2179983  41.85  0.002418738    1.714    0.417
         9 -11.7491    140.4923    244.9888   1.0368574624e+02   4.7636874847e+00    0.2796707    0.2332169 -83.72  0.001556755    1.503    0.335
        10 -11.6006    125.1261    244.2680   1.0652971019e+02   7.2498544005e+00    0.3967604    0.1902105 -55.60  0.001843951    2.481    0.597
        11 -16.1195     71.7141    149.4597   1.0524317973e+02   3.5511077854e+01     13.64201     6.383161  70.96   0.01566835    6.324    0.842
        12 -10.5280    187.9538    173.6307   8.2218786658e+01   9.1490991692e+00     0.449512    0.2768946 -64.84  0.001786154    2.875    0.652
        13 -10.9951     42.0717    179.0564   1.1646538044e+02   3.2202744371e+01    0.2282242    0.2047727  61.09   0.00032076    1.213    0.175
        14 -12.1095     47.0832    172.3988   1.1458669152e+02   3.3169839478e+01    0.5399141    0.4566738 -47.41  0.002286956    1.444    0.307
        15 -18.8018     19.5507    223.3508   1.2452596125e+02   2.5143974252e+01      10.4889     4.851283 -84.59    0.0606904    1.905    0.475
        16  -9.2521    195.4917    172.9884   8.0554217161e+01   7.8394922655e+00    0.2198955    0.1360509 -38.18  0.001035381    1.598    0.374
        17 -11.1261    139.1803    171.1189   9.2411066442e+01   1.9022823592e+01    0.3874081    0.3187684  54.21  0.001033023    1.228    0.185
        18 -10.4544    230.5779    166.7705   7.2604099263e+01   2.5052885028e+00     0.197478    0.1189657 -44.08 0.0009557237    1.742    0.426
        19 -11.2654     52.1980    164.7199   1.1243577614e+02   3.4374813324e+01    0.4183928    0.2172358 -46.65  0.001918325    2.325    0.570
        20 -12.3528     91.5018    153.2801   1.0074770714e+02   3.1590804935e+01    0.6696609     0.464106 -32.78  0.003143532    1.891    0.471
        21 -10.4939    188.0542    152.1967   7.7584853551e+01   1.3239639582e+01    0.2884792    0.1999251 -66.75  0.001246707    2.126    0.530
        22 -11.4614    134.0000    146.5272   8.8586542930e+01   2.5492353848e+01    0.8448768    0.2619703 -52.94  0.002481923    3.597    0.722
        23 -11.2454    133.0000    141.0082   8.7602371341e+01   2.6947486010e+01    0.5594358    0.2515723 -50.55  0.001948935    2.218    0.549
        24  -9.3608    112.4920    150.8575   9.4895114550e+01   2.8573123097e+01    0.2181845    0.1437907 -55.64 0.0005327484    1.485    0.327
        25 -10.4704    174.2915    148.6864   7.9711261947e+01   1.6771629292e+01    0.3538174    0.2784092 -68.98  0.001285565    1.604    0.376
        26 -10.8137    144.0690    145.9281   8.6004796696e+01   2.3605358633e+01    0.3859269    0.2205542 -58.16  0.001535984    2.025    0.506
        27 -11.0647    104.3606    138.9954   9.4556907591e+01   3.2849728290e+01    0.5349538     0.329289 -33.38  0.002222535    2.108    0.526
        28 -12.3037     92.0574    138.7512   9.7814474726e+01   3.5015197368e+01    0.2857272     0.256478 -46.29 0.0004211646    1.144    0.126
        29 -11.6266    112.2771    197.0887   1.0295528051e+02   1.8214940237e+01    0.4048299     0.305745 -11.78  0.002044143    2.098    0.523
        30 -14.9000     50.8786    201.5711   1.1679748356e+02   2.6135438213e+01     1.736813    0.8292948  68.38  0.003100499    2.363    0.577
        31 -11.2337     98.7971    181.1174   1.0360789679e+02   2.3903675699e+01    0.4055062    0.2928616  12.70  0.001974441    2.055    0.513
        32 -11.7347    135.8995    129.0192   8.4056643982e+01   2.9080407062e+01     1.038056    0.2134288 -49.50  0.002414359    5.360    0.813
        33 -10.8795    105.8938    130.7398   9.2333738884e+01   3.4548617997e+01    0.3879849    0.3147381 -65.17   0.00117942    1.233    0.189
        34 -10.9367    113.1628    129.5294   9.0093415029e+01   3.3487386917e+01    0.4054357    0.3242398  18.68  0.001140837    1.511    0.338
        35 -11.8218    119.0189    123.8459   8.7168542824e+01   3.3686817995e+01    0.6628824    0.4116585 -24.42  0.002539942    2.419    0.587
        36 -11.2164    113.3255    206.2642   1.0404740577e+02   1.6146624761e+01    0.3327997    0.2440203  79.62  0.001197594    1.566    0.362
        37 -10.4445    160.7897    127.9360   7.7795761970e+01   2.3994150873e+01    0.4267318    0.3038177 -56.18  0.001912825    1.528    0.345
        38  -9.1217     95.8697    127.8764   9.4451194485e+01   3.7007478586e+01    0.1947667    0.1684288  87.64            0    1.250    0.200
        39 -11.1089    100.2546    125.6240   9.2717561214e+01   3.6783607234e+01    0.2933517    0.2461629 -13.15 0.0005306097    1.457    0.314
        40 -10.1793    108.8148    118.8063   8.8706674504e+01   3.6832456740e+01    0.2372304    0.2268366 -42.00 0.0003922279    1.040    0.038
        41 -11.1222    150.7589    179.4058   9.1361342087e+01   1.5094309231e+01    0.4412131    0.2851996 -72.38  0.001880357    2.361    0.576
        42 -12.6691     17.5936    109.9060   1.1421571836e+02   5.1062332641e+01    0.5977501    0.3367642 -81.36  0.003121781    1.701    0.412
        43  -9.9549    167.8701    112.9116   7.2353154425e+01   2.5549518037e+01    0.3483031    0.2576612 -86.86  0.001485085    1.962    0.490
        44 -12.1639    117.9759    108.9104   8.3628073681e+01   3.7320379428e+01    0.7807106    0.6574342 -70.04  0.003279618    1.314    0.239
        45 -10.3720    205.3075    110.0865   6.4115415939e+01   1.7631153211e+01    0.3287441    0.2244338  45.92   0.00101157    1.574    0.365
        46 -10.4587    134.5389    104.9321   7.8144738601e+01   3.4714346698e+01    0.5673058    0.1501978 -44.68  0.001566315    3.667    0.727
        47 -10.0052    179.3363    209.3108   9.0715098595e+01   4.3119070137e+00    0.1372798   0.09783246   6.01  0.000463975    1.683    0.406
        48  -9.6383     60.7271     97.5958   9.8002268948e+01   4.9637002859e+01    0.1792914    0.1310529  45.79 0.0004783473    1.583    0.368
        49 -11.1656     52.8600     91.0036   9.9006268608e+01   5.2170904828e+01    0.4522372    0.2093684 -65.27  0.001813736    2.448    0.591
        50  -9.8921    133.9850    196.4897   9.8081716347e+01   1.4643893288e+01    0.2015298    0.1869025 -67.66 0.0004877738    1.148    0.129
        51  -8.9155    159.6940     87.3157   6.7102375623e+01   3.2533860971e+01      0.15857    0.1219509 -73.39 0.0005165892    1.626    0.385
        52  -9.9189    157.0583     81.6870   6.6042091129e+01   3.4222661716e+01    0.2157444    0.1987435  47.09 0.0004252691    1.107    0.096
        53  -9.4634    184.5242     76.9916   5.9160695866e+01   2.8419716030e+01    0.2307165    0.1452999 -35.43 0.0005424082    1.547    0.354
        54 -10.1592     62.0483     68.9743   8.9559683966e+01   5.5842767277e+01    0.2344715    0.2005929  38.36 0.0005775216    1.348    0.258
        55 -12.2662    171.0157     60.9649   5.7054940938e+01   3.4392826593e+01    0.7974174    0.3825156 -46.80   0.00309483    2.195    0.544
        56 -10.2464     81.3069    194.7074   1.0949277475e+02   2.3555855857e+01    0.3465444    0.2712847  83.60  0.002046949    1.211    0.174
        57 -10.0685    158.4948    237.5043   9.9233433723e+01   3.1252556860e+00     0.231109    0.1253988 -48.86  0.001218866    2.199    0.545
        58 -10.3275    169.0205    235.8525   9.6966787835e+01   1.7064409357e+00    0.1816037    0.1700812  -1.23 0.0003968139    1.169    0.145
        59 -10.2926    128.0606    194.2016   9.9014952803e+01   1.6143539934e+01    0.3519144    0.1927338 -69.62  0.001459757    2.600    0.615
        60 -11.3554    149.7630     53.3780   5.8907567095e+01   4.0828529392e+01     0.467905     0.311051 -77.98  0.001388139    2.256    0.557
        61 -12.2117    109.4174    201.6736   1.0424621058e+02   1.7723579565e+01    0.5920119    0.3554253  29.32  0.002856215    1.928    0.481
        62 -11.7268    144.1935    178.9657   9.2751587014e+01   1.6413556472e+01    0.5068204     0.327511 -65.03  0.002303939    1.932    0.482
        63  -9.9608    189.6282     15.0768   4.1140460334e+01   3.5837807853e+01    0.2224355    0.1706385 -86.93 0.0006533947    1.231    0.187
        64 -10.0420    188.8389    177.9977   8.2927565507e+01   8.1700764374e+00    0.3712535    0.2706765  78.03  0.001675618    2.415    0.586
