#   1 NUMBER                 Running object number                                     
#   2 MAG_AUTO               Kron-like elliptical aperture magnitude                    [mag]
#   3 X_IMAGE                Object position along x                                    [pixel]
#   4 Y_IMAGE                Object position along y                                    [pixel]
#   5 X_WORLD                Barycenter position along world x axis                     [deg]
#   6 Y_WORLD                Barycenter position along world y axis                     [deg]
#   7 A_WORLD                Profile RMS along major axis (world units)                 [deg]
#   8 B_WORLD                Profile RMS along minor axis (world units)                 [deg]
#   9 THETA_WORLD            Position angle (CCW/world-x)                               [deg]
#  10 FWHM_WORLD             FWHM assuming a gaussian core                              [deg]
#  11 ELONGATION             A_IMAGE/B_IMAGE                                           
#  12 ELLIPTICITY            1 - B_IMAGE/A_IMAGE                                       
         1 -14.8766    159.2420     51.5426   7.6539026082e+01   3.8457038136e+01     1.277753     1.167742 -24.86  0.003558539    1.156    0.135
         2 -15.1122    171.2324     21.8631   6.4921754417e+01   3.9195235465e+01     1.444587    0.9902955 -72.40  0.005580091    1.505    0.335
         3 -14.2886    187.9906     12.8845   6.0336048155e+01   3.5751836027e+01     1.627674     0.553605 -62.62  0.004864986    4.462    0.776
         4 -13.6601    195.3263      5.2989   5.7526303920e+01   3.4639393064e+01    0.8190584    0.3628893 -59.47  0.003474409    2.254    0.556
         5 -11.9460    117.8270    243.6345   1.2658531693e+02   1.0422551407e+01    0.1613925    0.1457503  18.45 0.0004913899    1.259    0.206
         6 -20.4429     76.6006    178.8655   1.2938761606e+02   2.8106365677e+01     14.53047     7.558538 -70.61     0.067945    2.173    0.540
         7  -9.8214    144.3370    235.7727   1.2029384231e+02   7.9804505097e+00    0.2026231     0.157854  -1.58   0.00101312    1.425    0.298
         8 -10.2405     21.2575    181.8921   1.4403368401e+02   3.3741176647e+01    0.2709692    0.1095433  70.00  0.001237475    2.389    0.582
         9 -14.2423    236.2007    174.0603   9.2974661600e+01   3.1873996660e+00     1.007061    0.3282903  32.04  0.004130666    3.357    0.702
        10 -12.6049    193.6509    170.5675   9.9993001287e+01   1.0317134360e+01    0.6089565    0.3310705 -49.80  0.001059593    2.650    0.623
        11 -11.3942    203.6264    174.5882   9.8822871392e+01   8.0696427629e+00    0.3415521     0.198351 -57.12  0.001347082    4.167    0.760
        12 -13.0391    160.8554    165.7536   1.0604451210e+02   1.6866268814e+01    0.4629763    0.3397613  72.51  0.002159734    2.327    0.570
        13 -12.4164    188.1884    153.8507   9.7763106057e+01   1.3973722841e+01    0.7378738    0.3854812  32.46  0.003307957    1.907    0.476
        14 -10.2423    177.9736    156.2529   1.0038671790e+02   1.5434823029e+01    0.1926002    0.1655903  23.13 0.0002887434    1.065    0.061
        15 -11.2578     27.4080    226.5674   1.4448667108e+02   2.4118023605e+01     0.132441   0.09551146  79.16 0.0003097596    1.360    0.265
        16 -12.9150    164.4422    153.1160   1.0272390821e+02   1.8528238561e+01    0.4342286    0.3268479  35.12  0.001446242    1.230    0.187
        17 -11.7740    174.4641    148.9064   9.9614581547e+01   1.7389784610e+01    0.3198082    0.2755802 -54.80  0.001073777    1.438    0.305
        18 -12.6742     10.9030    144.6461   1.4504973603e+02   4.3256059333e+01    0.5412226     0.292338 -48.74  0.002695881    2.265    0.558
        19 -12.4828    152.2142    138.9030   1.0256611802e+02   2.3668434859e+01    0.3413751     0.299264 -66.36  0.001425204    1.383    0.277
        20 -10.8550    167.1286    133.8906   9.7933040322e+01   2.1611792060e+01    0.2214437    0.2035522  64.97 0.0005981533    1.283    0.221
        21 -12.7943    160.4347    127.9855   9.8099141857e+01   2.4139491619e+01     0.471918    0.3677326 -52.83  0.001476762    1.457    0.314
        22 -10.6447      6.4076    224.5890   1.4876611991e+02   2.6411687150e+01    0.1139307   0.07297367  53.68 0.0007946208    1.098    0.090
        23 -12.9751    207.4065    220.8042   1.0596063187e+02   1.3084686708e+00    0.2364806    0.1880277  -9.80 0.0007425282    1.274    0.215
        24 -11.2466    231.2766    113.7094   8.1299216616e+01   1.2329760522e+01    0.2407577    0.2030542  -4.69 0.0008034041    1.121    0.108
        25 -11.1151    167.8510    112.8505   9.2680882761e+01   2.5458405281e+01    0.3575924    0.2727557 -81.51  0.001226345    1.970    0.492
        26 -10.4147    152.0748    239.4877   1.1917003467e+02   6.3999281793e+00     0.204584    0.1259304  14.86  0.001211179    1.618    0.382
        27 -10.9227    205.3712    110.2540   8.4646162962e+01   1.7865062334e+01    0.2823052    0.1936783  41.68 0.0008773179    1.525    0.344
        28 -10.8805     15.0115    217.9724   1.4681428463e+02   2.6894836467e+01    0.1323602   0.07583116  88.12 0.0005813784    1.721    0.419
        29 -11.0390      9.6058    212.0091   1.4780311833e+02   2.8516986780e+01    0.1635695    0.1064275 -88.83 0.0004643546    1.544    0.352
        30 -12.0515     32.6087    104.2289   1.3412936989e+02   5.1966320309e+01    0.4060712    0.2403632  -1.29    0.0018182    2.292    0.564
        31 -13.2663     11.4947    206.0699   1.4722873277e+02   2.9523570341e+01    0.4666683    0.2982596  15.12  0.002898514    1.941    0.485
        32 -10.8545     16.9748    212.7224   1.4623128099e+02   2.7727657725e+01    0.2669833   0.09156366  63.37   0.00112613    2.504    0.601
        33  -8.1552     17.0040    209.2536   1.4611147688e+02   2.8405243382e+01    0.1884073     0.130629  48.87 0.0008782768    1.091    0.084
        34 -12.6447     51.6494     91.8220   1.2425215740e+02   5.3248605394e+01    0.3520583    0.3036489  -5.17 0.0007037693    1.321    0.243
        35 -10.9026     22.9367     83.4559   1.3521069797e+02   5.8243924942e+01    0.3192125    0.1938325 -27.81  0.001320556    1.949    0.487
        36 -16.0179     43.7316    151.1895   1.3572220867e+02   3.8723041102e+01     1.587717     1.034673 -78.44  0.008071908    1.501    0.334
        37 -12.9643    211.2215    238.2602   1.0783769416e+02  -1.1895455299e+00    0.2485703    0.1910281  38.62  0.001494662    1.792    0.442
        38 -10.3910     25.0430    213.4183   1.4449136865e+02   2.6837725613e+01    0.1342956   0.09116381  40.09 0.0002053934    1.208    0.172
        39 -14.4157    148.6570     65.7170   8.3399596543e+01   3.8908125937e+01     1.139217     1.015311  35.68  0.001192966    1.175    0.149
        40 -10.1931    222.9827    198.7197   9.9617468462e+01   1.9200591583e+00     0.144315   0.08826472  27.25 0.0004658356    1.411    0.291
        41 -13.5254    163.6011     42.7211   7.2856008656e+01   3.8593412162e+01     0.522899    0.5017763 -39.09 0.0008607738    1.086    0.079
        42 -12.1531     15.2013    196.1641   1.4607309537e+02   3.1219296065e+01    0.2075384    0.1753044 -78.11 0.0008932253    1.385    0.278
        43 -11.4044     13.5734     59.8244   1.3603161242e+02   6.4950813854e+01    0.2274422    0.2036112  56.97 0.0004227873    1.245    0.197
        44 -10.1936    141.2570    237.3105   1.2110259653e+02   8.1837243273e+00    0.1746369    0.1286363  20.99 0.0002175541    1.161    0.139
        45 -10.5694     36.1186    245.4994   1.4343460444e+02   1.9909647245e+01     0.168593   0.08592688  53.01 0.0003067452    1.448    0.309
        46 -10.5727    157.9815    243.9630   1.1853366908e+02   5.0054539570e+00    0.1827265    0.1465446 -22.97 0.0006650512    1.511    0.338
