#   1 NUMBER                 Running object number                                     
#   2 MAG_AUTO               Kron-like elliptical aperture magnitude                    [mag]
#   3 X_IMAGE                Object position along x                                    [pixel]
#   4 Y_IMAGE                Object position along y                                    [pixel]
#   5 X_WORLD                Barycenter position along world x axis                     [deg]
#   6 Y_WORLD                Barycenter position along world y axis                     [deg]
#   7 A_WORLD                Profile RMS along major axis (world units)                 [deg]
#   8 B_WORLD                Profile RMS along minor axis (world units)                 [deg]
#   9 THETA_WORLD            Position angle (CCW/world-x)                               [deg]
#  10 FWHM_WORLD             FWHM assuming a gaussian core                              [deg]
#  11 ELONGATION             A_IMAGE/B_IMAGE                                           
#  12 ELLIPTICITY            1 - B_IMAGE/A_IMAGE                                       
         1 -14.1410    205.0926      6.7020   5.7216522459e+01   3.3533393820e+01     1.619996     1.208197  81.30   0.01058961    1.112    0.101
         2 -15.0192    187.9174     28.9814   6.4259697876e+01   3.4992063849e+01     1.880421     1.285734  12.48  0.009200167    2.678    0.627
         3 -10.6109     83.3706      6.2301   7.7133669533e+01   6.0508460322e+01    0.1459094    0.1060498 -28.20 0.0004209436    1.601    0.375
         4 -10.0343     66.1395    237.0697   1.3589127092e+02   1.6385153374e+01    0.2087109    0.1361055  79.69  0.001188837    1.467    0.318
         5 -13.1723     67.2290    211.6399   1.3292857937e+02   2.1768274527e+01     14.65787     3.509151  48.39   0.02228437    4.158    0.759
         6 -12.0883     45.3683    215.9140   1.3798195306e+02   2.3716637667e+01    0.5188099    0.1930292  53.70  0.002227391    2.654    0.623
         7 -12.9420    116.4400    211.6851   1.2205199565e+02   1.3955438543e+01    0.8283433    0.4650015 -82.63  0.003036918    2.946    0.661
         8 -11.9546    107.3518    209.5376   1.2376928846e+02   1.5987804617e+01    0.5859804     0.539355  46.98  0.003467312    1.138    0.121
         9 -12.0427    105.7539    201.8041   1.2296308759e+02   1.8009005104e+01    0.5231002    0.3401805  47.97   0.00186131    1.459    0.314
        10 -10.8365    105.2862    197.6706   1.2242689602e+02   1.9040978384e+01     0.209968    0.1827883  55.14 0.0004077344    1.097    0.089
        11 -10.0619      9.9185    214.1722   1.4481377845e+02   2.8046963319e+01    0.1299067   0.07843535  42.30 0.0007994278    1.717    0.417
        12 -14.0522    120.9086    201.3546   1.1939995388e+02   1.5467268242e+01     1.266954    0.7417035 -87.83  0.004725878    3.045    0.672
        13 -13.6887    113.7149    197.7213   1.2047035907e+02   1.7568793471e+01    0.7585528    0.5286106 -70.82  0.003713327    1.540    0.351
        14 -10.1982    164.7341    205.9509   1.1033161543e+02   6.3991280871e+00    0.2712472    0.1806316 -51.44  0.001306145    1.610    0.379
        15 -12.5314     45.0475    203.6082   1.3680676239e+02   2.6541650598e+01    0.2406875    0.1895314  68.89 0.0006276967    1.131    0.116
        16 -10.5921    211.1715    202.7088   1.0001674373e+02  -1.3989580260e+00     0.218414    0.1811321 -46.55 0.0005920417    1.319    0.242
        17 -12.8488    193.6316    194.0386   1.0188659749e+02   3.3874277131e+00    0.9478812    0.5547351 -58.82  0.003844615    2.322    0.569
        18 -11.8426    204.4689    199.4526   1.0072564789e+02   3.7811134010e-01    0.2557471    0.2363349  -2.65   0.00079029    1.005    0.005
        19 -11.6167     77.2744    183.7217   1.2693047068e+02   2.6867670981e+01     1.278474    0.4338126 -68.79  0.004074616    3.703    0.730
        20 -12.9563     71.2812    191.9959   1.2953447144e+02   2.5762106864e+01    0.7110177    0.6086121  64.16  0.003726145    1.114    0.103
        21 -10.2400     81.9494    194.8895   1.2745327607e+02   2.3484258196e+01    0.2714158    0.1904867  34.11  0.001395086    1.575    0.365
        22 -10.3747    180.1469    192.8466   1.0450721419e+02   6.1658077749e+00    0.2217993     0.201473  80.33  0.000910525    1.295    0.228
        23 -11.0862     60.5113    189.6527   1.3172640335e+02   2.7825554347e+01    0.3093084     0.195468 -66.90  0.001062189    1.440    0.306
        24 -19.3405     21.1037    133.4375   1.3395538175e+02   4.5762318888e+01     19.46054     2.719482 -67.73   0.04882447    6.680    0.850
        25 -11.9396    207.4963    182.9978   9.6839454608e+01   2.9596751069e+00     0.397737    0.3141877 -47.95  0.001351292    1.307    0.235
        26 -11.5233    211.1817    179.5031   9.5391629557e+01   2.9507134703e+00    0.5385932    0.3199914 -27.79  0.002112459    1.902    0.474
        27 -10.0343     12.0447    185.7188   1.4212351135e+02   3.4208256445e+01    0.1474094     0.123386 -88.64 0.0002261738    1.112    0.101
        28 -10.9491     99.4512    180.6440   1.2103243160e+02   2.4065760772e+01    0.2534669    0.2493108 -84.61 0.0005481727    1.124    0.111
        29 -15.1618     54.0979    232.3228   1.3779825093e+02   1.9024453902e+01     2.880323     1.507554  69.11   0.01463812    1.953    0.488
        30 -10.4905    193.9164    165.6225   9.5967432359e+01   9.0751992226e+00    0.3669207    0.2464129 -61.46  0.001264298    1.837    0.456
        31 -10.8161    198.2020    176.5648   9.7397899591e+01   5.9938581266e+00    0.3482443    0.2693328  68.39  0.001700411    1.702    0.412
        32 -11.5036    196.3845    171.4778   9.6704938641e+01   7.3801478389e+00    0.4315542    0.3590665 -39.81   0.00128688    1.164    0.141
        33  -9.3711    170.9869    177.0000   1.0332827227e+02   1.1286094614e+01    0.2411821   0.08531335  42.45 0.0003824868    2.819    0.645
        34 -11.3351    141.0184    174.9577   1.0984370045e+02   1.7732348820e+01    0.2335346    0.2271929 -77.68 0.0005002186    1.023    0.022
        35 -11.7517     41.0622    220.1842   1.3925254660e+02   2.3304925392e+01    0.3012767     0.163886  48.81  0.001032303    1.672    0.402
        36 -10.4604    176.9058    235.3301   1.1281787122e+02  -1.3416339252e+00    0.2038642    0.1846417 -61.99 0.0003947139    1.338    0.253
        37 -13.9575    238.0900    165.1949   8.7414703141e+01   7.6400392169e-01    0.8129312      0.68875  15.16  0.002438042    1.292    0.226
        38 -13.8262    242.3176    159.4153   8.5490691196e+01   1.0770563229e+00    0.7732914    0.6490664 -42.67  0.002506768    1.108    0.098
        39 -13.9064    243.4572    148.9577   8.3125466513e+01   2.7890806451e+00    0.8245523    0.6771682 -38.61  0.002336957    1.069    0.064
        40 -11.1511    137.5369    171.3276   1.0995046753e+02   1.9260591879e+01    0.2837589    0.2514831  57.55 0.0009451451    1.128    0.113
        41 -10.8947    177.5533    170.1939   1.0044833890e+02   1.1425809030e+01    0.2992708    0.1466971 -49.75  0.001146158    2.099    0.523
        42 -10.9428    145.9672    168.3029   1.0730239767e+02   1.8280661635e+01     0.220373    0.2006983  45.28 0.0004331645    1.098    0.089
        43 -11.6291     67.6982    196.0403   1.3090020656e+02   2.5315034928e+01    0.4825833    0.2190603  54.25   0.00134561    2.362    0.577
        44 -10.5447     66.6014    233.1270   1.3540404815e+02   1.7147071294e+01    0.1646753     0.153304  79.39 5.447993e-05    1.249    0.199
        45 -10.4649    141.6420    158.2366   1.0621037251e+02   2.1494110649e+01    0.2733817    0.2280441  83.18 0.0006430909    1.377    0.274
        46 -12.3527     98.5309    156.1443   1.1677515279e+02   3.0208186315e+01    0.7415943    0.4768606 -30.37  0.002458029    2.182    0.542
        47 -12.0430     63.0799    155.3356   1.2603361440e+02   3.5865828904e+01    0.4190165    0.3644076  42.23   0.00125416    1.265    0.209
        48 -11.0596    165.4411    154.1100   9.9655879508e+01   1.7467883122e+01    0.3122382    0.2055534  63.13 0.0008548042    1.907    0.476
        49 -10.1052    151.5300    151.0530   1.0222727767e+02   2.1103380167e+01    0.2244524     0.138002 -71.62 0.0008088741    2.497    0.600
        50 -10.6801    134.0000    147.9986   1.0584940438e+02   2.5457215337e+01    0.4407412    0.2215306 -59.24  0.001482364    2.331    0.571
        51 -11.3127    134.0000    143.9928   1.0494133206e+02   2.6399156604e+01     0.916115    0.2995317 -57.30  0.002318568    4.704    0.787
        52 -10.6945    174.7126    149.0840   9.6429945591e+01   1.6599455315e+01    0.2684335    0.2174669  60.57 0.0006378783    1.338    0.253
        53 -10.8054    145.6752    147.3380   1.0280113714e+02   2.3190979812e+01    0.2837142    0.1499273 -56.06 0.0008428034    2.067    0.516
        54 -11.6319    108.9847    140.5705   1.1071399512e+02   3.2130795767e+01    0.5721887    0.3296026 -34.38  0.002227644    2.227    0.551
        55 -12.3704     97.4173    141.1592   1.1399018605e+02   3.4071672208e+01      0.28339    0.2636493 -25.82 0.0004275391    1.174    0.148
        56  -9.6842    129.0391    140.4605   1.0539617519e+02   2.8243494157e+01     0.237992     0.155213  41.80   0.00102214    1.570    0.363
        57 -11.9783    116.1096    130.7085   1.0651791911e+02   3.3120433423e+01    0.6122864    0.4534292  -3.81  0.001625044    1.993    0.498
        58 -10.8421    120.3768    124.7917   1.0393624052e+02   3.3651678673e+01    0.2811763    0.1866686 -32.95 0.0007460965    1.733    0.423
        59 -11.1245    106.0000    130.9958   1.0934686596e+02   3.4977274040e+01     0.387957    0.2842487 -58.36  0.001308476    1.356    0.262
        60 -11.3047    103.7463    127.2606   1.0909544222e+02   3.6277235542e+01    0.3790873    0.2537894 -43.55  0.001009748    1.475    0.322
        61 -11.2802    136.3997    125.4984   9.9920353552e+01   3.0166099404e+01    0.6186358    0.3941056 -41.02  0.002641795    1.597    0.374
        62 -10.4181    161.4027    128.1410   9.4502994521e+01   2.4102292420e+01    0.3133734    0.2146896  88.37  0.001216766    2.316    0.568
        63 -10.2575    125.4941    127.2076   1.0316784275e+02   3.2056912492e+01     0.294715    0.2033641  80.49 0.0009707807    2.232    0.552
        64 -10.5457    110.9967    119.7731   1.0525244481e+02   3.6654879419e+01    0.2502124    0.2145755 -50.22 0.0003465354    1.131    0.116
        65 -11.7795     68.3619    116.1263   1.1684851965e+02   4.4661957212e+01    0.2664348    0.2244448 -28.72 0.0008466369    1.229    0.187
        66 -10.2301    168.0262    112.9810   8.9240326672e+01   2.5829453001e+01    0.3842339    0.2539199 -82.19  0.001429784    2.448    0.591
        67  -9.9080     78.7817    232.2041   1.3284657672e+02   1.5581792868e+01    0.1487512    0.1482774   1.90 0.0009959444    1.369    0.270
        68 -10.3581    205.6435    110.1461   8.1047209556e+01   1.7834351338e+01    0.2706394    0.2166684  48.50  0.000711518    1.347    0.257
        69 -12.2197     66.6590    104.7147   1.1468557228e+02   4.7519138546e+01    0.5657461    0.3694718  -0.18  0.002592059    2.219    0.549
        70  -9.2587    134.5156    102.5216   9.4449832258e+01   3.5574514400e+01    0.1509932    0.1506258 -35.22 9.967622e-05    1.010    0.010
        71 -12.3247    172.5213     71.5637   7.7569467075e+01   3.2561650260e+01    0.4850323    0.3147474 -86.93 0.0008801223    2.161    0.537
        72  -9.1144     73.4863     73.4967   1.0388140906e+02   5.3010756001e+01    0.1357333    0.1222046 -14.25 0.0008105145    1.009    0.009
        73  -9.6541     61.7787     71.4157   1.0722440825e+02   5.5131015286e+01    0.1728821    0.1204094  14.98 0.0004426485    1.548    0.354
        74 -10.5205    172.0912    241.3890   1.1477206273e+02  -1.5844781249e+00     0.405041    0.2663078 -86.81  0.001687378    3.588    0.721
        75 -11.6610     85.2747    236.1338   1.3196397409e+02   1.3786018315e+01    0.3764221    0.2020491 -72.93 0.0003638929    2.021    0.505
        76 -13.5545    173.1046     44.7332   7.0413350251e+01   3.6486266896e+01    0.5900376    0.5611066 -49.86 0.0007619261    1.168    0.144
