#   1 NUMBER                 Running object number                                     
#   2 MAG_AUTO               Kron-like elliptical aperture magnitude                    [mag]
#   3 X_IMAGE                Object position along x                                    [pixel]
#   4 Y_IMAGE                Object position along y                                    [pixel]
#   5 X_WORLD                Barycenter position along world x axis                     [deg]
#   6 Y_WORLD                Barycenter position along world y axis                     [deg]
#   7 A_WORLD                Profile RMS along major axis (world units)                 [deg]
#   8 B_WORLD                Profile RMS along minor axis (world units)                 [deg]
#   9 THETA_WORLD            Position angle (CCW/world-x)                               [deg]
#  10 FWHM_WORLD             FWHM assuming a gaussian core                              [deg]
#  11 ELONGATION             A_IMAGE/B_IMAGE                                           
#  12 ELLIPTICITY            1 - B_IMAGE/A_IMAGE                                       
         1 -12.6805     46.2550     26.0274   2.5629059240e+02  -5.4310021638e+01   0.06292298   0.03858761   6.07   0.00225998    1.728    0.421
         2 -10.9871    131.9472     17.3303   2.5731360725e+02  -5.7339237503e+01   0.02497589   0.02274719 -71.48 0.0003277025    1.095    0.087
         3 -12.5528     66.8155     16.2416   2.5605912336e+02  -5.5111674638e+01   0.03762656   0.03003857  19.45 0.0004551394    1.245    0.197
         4 -11.0006     90.5744     11.7854   2.5620145261e+02  -5.5972428040e+01   0.02506008   0.01727959  -5.49 0.0003868488    1.576    0.366
         5 -11.5223     84.6214      9.5946   2.5596282211e+02  -5.5788616117e+01   0.04591096   0.02167479 -34.61  0.001234865    2.482    0.597
         6 -11.0893     92.1211      8.3058   2.5601442126e+02  -5.6059337909e+01   0.02547737   0.02371571 -57.43 0.0007031045    1.066    0.062
         7 -13.1766    215.2375      2.7069   2.5805989270e+02  -6.0343177891e+01   0.03773508   0.03637799  53.19 0.0005728353    1.053    0.050
         8 -10.7420     87.8397      4.3640   2.5569732632e+02  -5.5949395016e+01   0.02625223    0.0168905  86.76 0.0006529339    1.711    0.416
         9 -10.6124    129.0181      1.0000   2.5621780089e+02  -5.7401178243e+01   0.02971201   0.01031923 -73.93 0.0005713829    2.871    0.652
        10 -10.5036     93.6815    242.6845   2.6955804997e+02  -5.3068368134e+01   0.01902851   0.01365458  62.58 0.0007038901    1.653    0.395
        11 -13.8166    246.4376    249.7173   2.7465202647e+02  -5.7709319307e+01   0.04739108   0.03896732 -64.89   0.00108338    1.239    0.193
        12 -11.7481    236.9791    250.6057   2.7437551370e+02  -5.7404896075e+01   0.02668357   0.01738535 -59.33 0.0003406105    1.533    0.348
        13 -11.5805    198.7275    249.3928   2.7303555799e+02  -5.6251824553e+01    0.0473262   0.02382586 -40.51  0.001485953    2.293    0.564
        14 -12.3283    139.8376    248.5530   2.7117679165e+02  -5.4430403366e+01   0.06125088   0.02874369  25.02  0.001465317    2.250    0.556
        15 -11.2833    124.9763    249.5029   2.7079588280e+02  -5.3947225064e+01   0.03475061   0.02331542  43.72 0.0007289145    1.535    0.349
        16 -11.2171    106.4788    250.7002   2.7033497871e+02  -5.3344265638e+01   0.02870348   0.01637482 -62.83 0.0009935711    1.759    0.431
        17 -11.7122     84.7395    250.6590   2.6973453825e+02  -5.2657299389e+01    0.0322465   0.01733349 -67.09 0.0006694779    1.969    0.492
        18 -10.9074     77.2900    250.4829   2.6952483218e+02  -5.2423957146e+01   0.02553239   0.01597508 -48.00 0.0009258869    1.588    0.370
        19 -13.3469     57.4525    221.7871   2.6750638342e+02  -5.2233393843e+01   0.08891436   0.06375946  27.39  0.003414106    1.384    0.278
        20 -11.7783     55.9698    249.5329   2.6891428625e+02  -5.1761680663e+01   0.04568306   0.02520533  42.90 0.0009918767    1.881    0.468
        21 -11.6386     60.0668    249.0224   2.6899435867e+02  -5.1899949126e+01   0.02914194   0.02551438 -66.30 0.0003384039    1.152    0.132
        22 -12.8320     62.7138    240.3586   2.6861375339e+02  -5.2118980977e+01    0.1051655   0.06160191  51.59  0.003625165    1.979    0.495
        23 -13.0544     45.5809    200.9132   2.6610943966e+02  -5.2156221333e+01   0.07899369   0.04939799 -84.51  0.002769666    1.950    0.487
        24 -11.8191     58.7947    234.3694   2.6820050872e+02  -5.2085866904e+01   0.03738996   0.02839769 -56.59 0.0009149387    1.291    0.226
        25 -13.7271     57.5524    229.0284   2.6788945508e+02  -5.2127387744e+01     0.131659   0.07606747 -35.59  0.004482375    2.012    0.503
        26 -14.1152     65.4595    216.2282   2.6741403345e+02  -5.2574621095e+01    0.1562976   0.05266244 -48.00  0.003169801    3.001    0.667
        27 -14.1652     73.1353    231.8848   2.6844036999e+02  -5.2582951022e+01    0.1545219   0.07323126  23.18  0.004918609    2.192    0.544
        28 -13.2711     57.4552    207.5262   2.6675078378e+02  -5.2445168664e+01    0.1140516   0.06077103 -56.33  0.002837344    1.792    0.442
        29 -13.7876     69.5181    247.3393   2.6915482312e+02  -5.2226845156e+01   0.09839308   0.07362712  41.80   0.00397882    1.359    0.264
        30 -11.8956     64.2181    245.7866   2.6893509673e+02  -5.2082561497e+01   0.04149695   0.03013632  68.61 0.0004851971    1.674    0.403
        31 -11.8047     43.8381    249.6654   2.6860965778e+02  -5.1373519711e+01   0.03977476   0.02626342  14.21  0.001073465    1.656    0.396
        32 -15.0033     13.2095    165.8477   2.6350093182e+02  -5.1580038934e+01    0.2821838    0.1316362 -43.49  0.007229671    2.301    0.565
        33 -14.6159     46.2447    226.6436   2.6748072142e+02  -5.1800148155e+01    0.1262034    0.1009575  10.01  0.003649954    1.315    0.240
        34 -14.7321     45.2055    220.0169   2.6710854747e+02  -5.1865303148e+01    0.2129359    0.1288359 -81.47  0.007233039    2.020    0.505
        35 -14.7619     35.8816    248.5066   2.6834934229e+02  -5.1137792938e+01    0.1460282   0.09671116 -34.43  0.003983914    1.677    0.404
        36 -15.8077     10.9220    187.5169   2.6459746537e+02  -5.1214259252e+01    0.2830586    0.1725146 -56.57  0.008412059    1.584    0.369
        37 -13.6226     11.7317    195.6069   2.6503952839e+02  -5.1129492041e+01   0.07384465   0.04621112 -73.17  0.001211074    1.701    0.412
        38 -16.6601     21.4000    215.2057   2.6628358766e+02  -5.1166787712e+01    0.5435641    0.2633856 -21.87   0.01407582    3.762    0.734
        39 -14.6423      2.1459    226.0293   2.6638822131e+02  -5.0389461390e+01   0.09686375   0.04573996  20.36  0.002813615    2.223    0.550
        40 -15.5243      2.4685    217.2211   2.6594608862e+02  -5.0525707523e+01    0.2181839   0.06305838  21.26  0.005288602    3.797    0.737
        41 -15.9650     15.0065    227.1778   2.6674915237e+02  -5.0787140510e+01    0.2015863    0.1189608 -23.16  0.006683142    2.245    0.555
        42 -15.7071      5.4274    249.0939   2.6763080751e+02  -5.0157242988e+01    0.3417386   0.07741894 -67.42  0.006698722    5.887    0.830
        43 -16.2150     11.2751    240.4508   2.6733587868e+02  -5.0472498951e+01    0.1894894    0.1104027 -64.07  0.006575093    1.714    0.416
        44 -15.7760      4.7380    236.7685   2.6699379012e+02  -5.0317075524e+01    0.1695519   0.06497751  40.78  0.004909227    2.659    0.624
        45 -11.3773    198.6030    240.8927   2.7255796070e+02  -5.6397539121e+01   0.03935532   0.02475224 -30.46 0.0009863479    1.982    0.496
        46 -11.2009    187.1347    241.4699   2.7222643098e+02  -5.6030803994e+01   0.02660456   0.01775899 -60.47 0.0004131419    1.491    0.329
        47 -12.3232    108.3463    240.1194   2.6982476660e+02  -5.3574932434e+01   0.04744423    0.0295492 -71.86  0.001168068    1.768    0.434
        48 -12.3757    103.4297    236.6894   2.6950582720e+02  -5.3473813435e+01   0.04752212   0.03541815   1.92  0.001241422    1.541    0.351
        49 -11.1074     80.1084    237.0793   2.6889758526e+02  -5.2724970072e+01   0.03820772   0.02282453  81.31  0.001194409    2.581    0.613
        50 -11.0898    210.5614    235.7323   2.7265300395e+02  -5.6859186294e+01   0.02468673   0.01785839  13.66 0.0009412022    1.558    0.358
        51 -10.3151     88.4429    236.5052   2.6908941204e+02  -5.2999687418e+01   0.01801415   0.01751162 -22.76 0.0001070417    1.028    0.027
        52 -12.2704    148.9259    237.6028   2.7084965999e+02  -5.4899269399e+01   0.06087397   0.03775005   5.94  0.002074159    2.109    0.526
        53 -11.5420    222.9916    232.2256   2.7286060395e+02  -5.7306191241e+01   0.03085475   0.02583231  26.65 0.0003985054    1.208    0.172
        54 -11.7476    195.1315    229.9620   2.7183314932e+02  -5.6478946743e+01   0.05968369   0.03143578   9.88  0.001745778    2.876    0.652
        55 -11.3416    182.2702    232.1476   2.7155461303e+02  -5.6039022841e+01   0.03637044   0.02167977 -35.46  0.001237583    1.983    0.496
        56 -12.1013    178.2771    228.3922   2.7122133791e+02  -5.5977417220e+01   0.03620606   0.02592299  53.24 0.0009398637    1.537    0.349
        57 -11.6437    182.2385    225.4073   2.7117503548e+02  -5.6152324087e+01    0.0315369   0.03125238  51.47  0.000784039    1.019    0.019
        58 -12.7341    231.9511    226.9296   2.7285368868e+02  -5.7677187976e+01   0.05526047   0.03859238  73.44  0.002018557    1.887    0.470
        59 -11.7109    120.9733    227.3896   2.6949019956e+02  -5.4180656236e+01   0.03517407   0.02354123  44.33 0.0005842326    1.546    0.353
        60 -12.0912     78.4990    228.0114   2.6837548834e+02  -5.2814410057e+01   0.03807614   0.02749569 -33.79  0.001055445    1.504    0.335
        61 -12.4710     81.5070    225.4739   2.6831932415e+02  -5.2949898760e+01   0.04349244   0.03281052  51.86  0.000983248    1.425    0.298
        62 -13.0327     81.5862    221.9731   2.6813461461e+02  -5.3006253563e+01   0.06002655   0.04044849 -44.67  0.002285417    1.507    0.337
        63 -12.8002     77.1653    218.9545   2.6785853604e+02  -5.2910317285e+01   0.04733838   0.03502228 -53.51  0.001035559    1.324    0.245
        64 -11.7425    129.2048    225.9279   2.6964163795e+02  -5.4466058559e+01   0.03665708   0.02329768  46.35  0.001250085    1.666    0.400
        65 -12.3897    116.4414    225.7004   2.6927239214e+02  -5.4063230482e+01   0.03198151   0.02625204   5.25  0.000849283    1.312    0.238
        66 -11.3807     91.7218    224.7697   2.6855139945e+02  -5.3288010858e+01   0.03224724   0.02152391  28.98 0.0006496671    1.483    0.326
        67 -11.9026    212.0825    223.5457   2.7200770803e+02  -5.7118968629e+01   0.03734137    0.0266748  32.25 0.0003279616    1.391    0.281
        68 -12.1879    160.2190    222.8372   2.7036716281e+02  -5.5500547080e+01   0.05182746   0.03601444 -54.40  0.001360539    1.407    0.289
        69 -12.0631    245.6634    221.7349   2.7301338073e+02  -5.8193296607e+01   0.04502425    0.0280115  55.21  0.001577355    1.917    0.478
        70 -11.8517    193.5482    221.2007   2.7128665499e+02  -5.6578877971e+01    0.0458027   0.02225659  31.65  0.001491626    2.006    0.502
        71 -12.7923    119.0011    213.4908   2.6867555515e+02  -5.4337759730e+01   0.06398418   0.02631157 -47.37  0.001887353    2.479    0.597
        72 -12.9663    124.1271    221.7366   2.6926972749e+02  -5.4371424327e+01   0.05748548   0.03815075 -43.15  0.002161009    1.555    0.357
        73 -11.4153    121.7016    217.3022   2.6895927164e+02  -5.4364274220e+01   0.03108155   0.02146363 -44.33 0.0005952838    1.475    0.322
        74 -13.5342    174.2598    220.1245   2.7063431407e+02  -5.5989393316e+01   0.04645554    0.0376108  13.94 0.0007215333    1.307    0.235
        75 -12.3340     95.5504    219.6461   2.6837765135e+02  -5.3490133105e+01   0.06696194   0.04137718   4.74  0.001744924    2.032    0.508
        76 -12.7426    142.3282    205.0487   2.6885461933e+02  -5.5217881192e+01   0.05732047   0.04630154 -88.55  0.000623657    1.380    0.276
        77 -12.3504    145.7905    201.7558   2.6876689131e+02  -5.5380769642e+01   0.04527074   0.03605958 -15.00  0.001036356    1.414    0.293
        78 -13.1845    146.1040    216.1463   2.6958274414e+02  -5.5161451884e+01   0.09052645   0.05517944 -22.05  0.002997939    2.264    0.558
        79 -12.7107    140.5650    213.8633   2.6929752314e+02  -5.5021500541e+01   0.05611739   0.05232244  42.82  0.002519567    1.084    0.078
        80 -12.5305    129.8943    216.6369   2.6915053103e+02  -5.4636623864e+01   0.03159153   0.02426151  39.40 0.0005184921    1.307    0.235
        81 -11.1492    115.5383    217.4989   2.6880048311e+02  -5.4164010177e+01   0.01785265   0.01782048   6.35 0.0001004703    1.011    0.011
        82 -12.8475    108.1349    215.0726   2.6846667948e+02  -5.3964700563e+01   0.05363133   0.03223305   1.07  0.001700397    2.239    0.553
        83 -11.3559    225.9518    216.2305   2.7203491044e+02  -5.7678271615e+01    0.0269574   0.02351701 -34.63 0.0003339963    1.187    0.157
        84 -10.6417    207.0706    215.9968   2.7141341944e+02  -5.7091754784e+01   0.02117367   0.02103802 -40.21 0.0003949069    1.001    0.001
        85 -10.7180    161.8497    215.8431   2.7002341919e+02  -5.5667006557e+01   0.02444906   0.02069309 -21.98  0.001022384    1.276    0.216
        86 -13.2949    160.3072    207.3279   2.6949776188e+02  -5.5756079579e+01   0.08383473   0.06098919 -23.44  0.002596896    1.611    0.379
        87 -11.3747    156.4076    213.2486   2.6971833198e+02  -5.5536252453e+01   0.05825016   0.03534638  -8.68   0.00187052    2.444    0.591
        88 -12.6343     83.8436    214.6266   2.6779943829e+02  -5.3190959146e+01     0.108167   0.03092963 -59.63  0.002825471    3.110    0.678
        89 -11.9754    247.6416    213.0565   2.7257006217e+02  -5.8408139013e+01   0.03005415    0.0244896 -43.87 0.0004723872    1.243    0.196
        90 -13.3529    123.4116    209.8121   2.6859374123e+02  -5.4536712522e+01   0.05554284   0.03767232  -7.77 0.0003530896    1.868    0.465
        91 -11.3833     97.7787    212.5827   2.6805426456e+02  -5.3670524132e+01   0.06138754   0.02977206   3.25  0.001605104    3.599    0.722
        92 -11.2031    209.4915    211.5253   2.7123154101e+02  -5.7243751819e+01   0.01810835   0.01759038 -29.28 0.0002079798    1.035    0.034
        93 -11.0142    170.7604    210.4960   2.6998460322e+02  -5.6037286852e+01   0.03556336   0.02177244 -23.95 0.0008621201    2.216    0.549
        94 -14.4634     10.1642    215.9857   2.6606065175e+02  -5.0792184177e+01    0.1060646   0.04442946 -55.34  0.003185628    2.220    0.549
        95 -11.6889    187.2124    211.5399   2.7053947973e+02  -5.6541368573e+01   0.03131871   0.02507629  27.79 0.0003019602    1.252    0.201
        96 -13.4607    228.7084    206.0271   2.7152694952e+02  -5.7940228812e+01   0.07379709   0.06303373  -5.66  0.002610053    1.287    0.223
        97 -12.1954    181.0780    207.5947   2.7012749527e+02  -5.6412291268e+01   0.05683425   0.02920987 -59.90  0.001901499    1.898    0.473
        98 -11.9874    104.0104    206.9667   2.6791299842e+02  -5.3957118228e+01   0.05399658    0.0425635 -34.71  0.002212101    1.335    0.251
        99 -12.2090    116.6262    205.7371   2.6818344640e+02  -5.4382087700e+01   0.03315449   0.02426394   9.63  0.001158802    1.500    0.333
       100 -12.4333    111.5079    203.9124   2.6794493770e+02  -5.4245397775e+01   0.03577229   0.03215117 -26.85 0.0005510842    1.147    0.128
       101 -11.6678    238.9555    204.4780   2.7177130460e+02  -5.8287341662e+01   0.02747528   0.01777247 -60.29  0.000510043    1.538    0.350
       102 -12.2208     84.6972    199.4588   2.6699997497e+02  -5.3446468338e+01    0.1002433   0.04796446 -19.07  0.002364097    4.543    0.780
       103 -11.0884     81.2035    200.0337   2.6694235022e+02  -5.3324765498e+01   0.02446949   0.02333841  14.50  0.001098131    1.052    0.049
       104 -12.3937     62.1860    177.2209   2.6523053465e+02  -5.3034482863e+01    0.0638261    0.0302489 -67.74  0.002026741    2.155    0.536
       105 -11.9653     75.9838    186.1880   2.6605619934e+02  -5.3357655663e+01     0.128214   0.07588791  15.08  0.004499323    1.838    0.456
       106  99.0000     65.4576    183.6871   2.6566203109e+02  -5.3050078207e+01   0.08436731   0.06660719 -22.98  0.003449543    1.381    0.276
       107 -11.7606     75.3591    180.1620   2.6571020295e+02  -5.3423740569e+01   0.04839913   0.02506004  17.79  0.001322273    2.076    0.518
       108 -12.6213     91.0569    199.9494   2.6718986969e+02  -5.3645048538e+01   0.09310604   0.03399998  42.66  0.002560729    2.913    0.657
       109 -13.0804     93.2191    193.3448   2.6688313305e+02  -5.3813440352e+01    0.1069286   0.05608456 -54.58  0.003638134    1.824    0.452
       110 -11.4171     91.3473    189.2102   2.6660750562e+02  -5.3813699441e+01    0.0361296   0.02740305  15.78 0.0008041338    1.366    0.268
       111 -11.1753    154.2348    216.0557   2.6981258019e+02  -5.5421635729e+01   0.04991398   0.02554867  11.13  0.001479982    2.704    0.630
       112 -12.4332     50.9770    203.8885   2.6639822635e+02  -5.2288379156e+01   0.05420764   0.03109575 -60.07  0.001059545    1.687    0.407
       113 -11.1562    166.9906    202.2954   2.6940644565e+02  -5.6050226650e+01   0.02568837   0.02306165 -59.56 0.0004114836    1.107    0.096
       114 -11.8071    212.5309    200.1578   2.7066384337e+02  -5.7530876501e+01   0.03534246    0.0264146 -31.45 0.0007194387    1.484    0.326
       115 -12.2061    135.9514    199.5749   2.6836898453e+02  -5.5099066070e+01   0.06515811   0.03408753 -14.73  0.001722148    3.627    0.724
       116 -11.8763    138.3100    197.2892   2.6830567223e+02  -5.5210460677e+01   0.02980174   0.02455197  68.30 0.0004538135    1.348    0.258
       117 -12.2515    121.0110    201.2776   2.6805490052e+02  -5.4591975805e+01   0.02620321   0.02381675 -55.36 0.0005841361    1.090    0.082
       118 -12.4270    182.2919    198.5003   2.6964037464e+02  -5.6599278132e+01   0.06199817   0.03865913  71.80  0.001553383    2.292    0.564
       119 -12.1153    176.6165    198.8059   2.6948935193e+02  -5.6413476371e+01   0.04306461   0.02911407   5.90  0.001147687    1.771    0.435
       120 -12.6296    173.0937    195.5285   2.6919669625e+02  -5.6353670286e+01   0.04998556     0.031441 -45.16  0.001034007    1.626    0.385
       121 -12.8666    110.4176    196.2671   2.6749282032e+02  -5.4326632890e+01   0.04477068   0.03327986  44.85 0.0004961348    1.384    0.278
       122 -12.1480    115.7184    196.6710   2.6765621600e+02  -5.4491781240e+01   0.04200619   0.02111501  25.38 0.0006697768    1.989    0.497
       123 -12.9275    201.9245    196.2228   2.7010281266e+02  -5.7260508347e+01   0.04318269   0.03587404  43.85 0.0005670974    1.221    0.181
       124 -12.7996    191.6893    194.4136   2.6968501987e+02  -5.6964833891e+01   0.05993108   0.04660288 -62.43  0.002455016    1.283    0.221
       125 -11.1131    153.5190    195.5413   2.6863310355e+02  -5.5726474497e+01   0.01813794   0.01757973 -31.76   0.00016366    1.032    0.031
       126 -12.7303    122.4538    196.4961   2.6782732127e+02  -5.4711869818e+01   0.04261656   0.03366841 -41.99  0.001486749    1.288    0.223
       127 -12.5019    133.4798    190.4309   2.6778550230e+02  -5.5160562563e+01   0.04078692   0.03129176  72.39  0.001611843    1.519    0.342
       128 -13.8250    109.5338    186.7727   2.6694080710e+02  -5.4440473653e+01     0.083285   0.05095683   6.89  0.002885113    1.966    0.491
       129 -12.3155     50.8589    189.6977   2.6563632654e+02  -5.2488233139e+01   0.04719437   0.03829265  83.23 0.0008672961    1.375    0.273
       130 -10.7413    167.7047    189.3427   2.6868289056e+02  -5.6279317894e+01   0.01925791   0.01361519 -25.24  0.000423921    1.663    0.399
       131 -11.2628     97.0819    188.5075   2.6671513465e+02  -5.4010395773e+01   0.03032766   0.02294365  34.28  0.000740458    1.310    0.237
       132 -12.3774     94.4192    182.2690   2.6630122079e+02  -5.4015250896e+01   0.07888994   0.03543172  13.45  0.002256766    2.811    0.644
       133 -10.9499    174.5064    188.5144   2.6883194874e+02  -5.6510556566e+01   0.01799655   0.01779719  65.28 2.634985e-05    1.025    0.024
       134 -12.7249    132.4067    185.6378   2.6748480980e+02  -5.5198893026e+01   0.03580308   0.03089884 -52.27 0.0002731671    1.146    0.127
       135 -12.8952    127.5175    186.4702   2.6740012024e+02  -5.5028029955e+01   0.03804053   0.03476246 -26.78  0.001300694    1.121    0.108
       136 -13.3879    123.4798    186.0000   2.6726545916e+02  -5.4904341132e+01   0.05396523   0.03386983 -79.57  0.001906709    1.859    0.462
       137 -10.8858     43.4770    186.8452   2.6530830632e+02  -5.2287540620e+01   0.02615916   0.01786811  21.88 0.0006902771    1.470    0.320
       138 -11.1131     28.9452    173.4956   2.6425801116e+02  -5.1995552523e+01   0.02711249   0.02479146  18.56 0.0004690826    1.093    0.085
       139 -10.9884     40.2760    184.6980   2.6511826800e+02  -5.2212961438e+01   0.02706251   0.02394763 -64.40 0.0004965236    1.129    0.115
       140 -11.8544     30.8065    176.6339   2.6446829524e+02  -5.2014004688e+01   0.03702204   0.03014881 -36.65 0.0009058383    1.262    0.208
       141 -11.9910     36.5132    186.0188   2.6510139113e+02  -5.2071548453e+01   0.03802814   0.03094384 -77.70 0.0009403845    1.287    0.223
       142 -12.4053     33.4910    184.4698   2.6494873746e+02  -5.1994243202e+01   0.04611911   0.02705324  30.51  0.001609344    1.651    0.394
       143 -12.0885     39.0267    181.4957   2.6491747773e+02  -5.2216585535e+01   0.04419152    0.0313752 -72.49  0.001718345    1.462    0.316
       144 -12.7911     36.8670    178.0927   2.6468492754e+02  -5.2192788293e+01   0.06269593   0.04307252 -79.41  0.001788155    1.597    0.374
       145 -12.2682    248.2014    185.3674   2.7092684759e+02  -5.8903273162e+01   0.05206581   0.03265463  74.50  0.001711105    2.352    0.575
       146 -12.6610    157.5930    184.9445   2.6814069999e+02  -5.6022908213e+01   0.05849193   0.02955168  49.92  0.001828517    2.332    0.571
       147 -11.0063    164.0239    185.0086   2.6832664407e+02  -5.6228991473e+01   0.02858642   0.02473375 -28.23 0.0004513728    1.211    0.174
       148 -11.5588    167.1936    183.4026   2.6832395700e+02  -5.6356043258e+01   0.02967742   0.02567707  55.88   0.00121015    1.213    0.176
       149 -12.2200    142.0797    181.5742   2.6751625180e+02  -5.5573643409e+01   0.03965792   0.02599502  26.57 0.0008555394    1.517    0.341
       150 -11.6359     88.7989    181.0289   2.6609087869e+02  -5.3850037182e+01   0.05839912   0.03397486 -19.73   0.00186867    2.383    0.580
       151 -12.0638     49.1641    183.0436   2.6523770537e+02  -5.2526711269e+01    0.0428299   0.02655565 -70.81  0.001156309    1.678    0.404
       152 -11.2877    232.9521    181.3467   2.7018825607e+02  -5.8489259717e+01   0.02897272   0.02482967  -2.06 0.0004308438    1.265    0.209
       153 -12.1559    144.8383    196.1358   2.6842231607e+02  -5.5438339198e+01   0.02578618   0.02100649  56.22 0.0004306998    1.316    0.240
       154 -13.9586    117.1652    179.2053   2.6671500360e+02  -5.4800743387e+01   0.08406453   0.04743784 -42.33  0.002566324    1.889    0.471
       155 -11.4643    221.7284    180.5394   2.6978495897e+02  -5.8146469580e+01   0.02577842   0.01630031 -49.37 0.0009362039    1.570    0.363
       156 -11.0730    198.0599    180.2761   2.6904426932e+02  -5.7395912401e+01    0.0246917   0.02337169 -50.50 0.0002458658    1.050    0.048
       157 -12.4061    247.5658    176.0963   2.7033864193e+02  -5.9038532121e+01    0.0638008   0.03797328  50.81  0.001379699    1.897    0.473
       158 -12.3144    242.6576    175.2278   2.7012635663e+02  -5.8897670136e+01   0.03487453   0.03174729 -31.91 0.0006018757    1.127    0.113
       159 -13.0182    137.5617    177.0015   2.6713144992e+02  -5.5496302837e+01   0.06173759   0.03810818 -13.16 0.0003305944    2.212    0.548
       160 -12.7363    122.3029    167.8086   2.6620101670e+02  -5.5135554334e+01   0.05857093   0.02951995 -73.52  0.001321602    2.250    0.556
       161 -12.6640    127.4831    166.9727   2.6628811414e+02  -5.5316878936e+01   0.04394335   0.02858567  19.83   0.00123117    1.582    0.368
       162 -12.9631    130.7824    169.3807   2.6651313110e+02  -5.5389158344e+01   0.05144159   0.03431218 -71.81  0.001607051    1.572    0.364
       163 -13.2544    126.8252    176.4567   2.6681332768e+02  -5.5155660520e+01   0.05254037   0.03926093 -75.77   0.00125721    1.420    0.296
       164 -13.1272    125.7764    172.1040   2.6653731351e+02  -5.5185914428e+01   0.05028362   0.04036643  54.38 0.0004329935    1.326    0.246
       165 -12.1582    154.0170    174.9974   2.6746530454e+02  -5.6060062672e+01   0.03507981   0.02191214  41.40 0.0008077953    1.619    0.382
       166 -12.8449    149.6288    176.0396   2.6740468488e+02  -5.5902103755e+01   0.04965658   0.03001965 -46.74 0.0009129558    1.671    0.402
       167 -12.9030    144.4359    172.4609   2.6705596749e+02  -5.5787610776e+01   0.05884217   0.03258296 -32.80  0.001480956    2.259    0.557
       168 -10.8386     53.1722    177.3413   2.6502343112e+02  -5.2737560548e+01   0.02649871   0.01522619 -54.04 0.0001631777    1.679    0.404
       169 -11.9957    224.2624    175.8203   2.6957892656e+02  -5.8303947753e+01   0.03861644   0.02679644 -79.03  0.001445953    1.646    0.393
       170 -12.5998    106.4268    175.9641   2.6625439067e+02  -5.4498566435e+01    0.0402737   0.02662611 -65.33 0.0008366914    1.511    0.338
       171 -11.7474    173.2146    173.5768   2.6792139955e+02  -5.6702548410e+01   0.03219138    0.0248795  23.71 0.0004287479    1.303    0.233
       172 -12.8018     99.9527    171.1098   2.6581711257e+02  -5.4357342431e+01    0.0396871   0.03240215  89.74 0.0003328944    1.341    0.254
       173 -13.3827     90.4746    171.8120   2.6561983213e+02  -5.4037179868e+01   0.05779446   0.03746808  35.99 0.0007316004    1.520    0.342
       174 -12.1432     95.0376    172.0027   2.6574404105e+02  -5.4183766634e+01   0.03775423   0.02786338 -67.30 0.0007497095    1.364    0.267
       175 -12.9537     79.2455    173.0431   2.6541226087e+02  -5.3652034049e+01    0.0475811   0.03349988 -36.31  0.001667214    1.519    0.342
       176 -11.3373    191.1620    171.8372   2.6833749787e+02  -5.7307981350e+01   0.02542867   0.02124551  62.66 0.0004598083    1.298    0.229
       177 -10.9339     43.8130    172.6464   2.6455086536e+02  -5.2495422142e+01   0.02573575   0.01558086 -54.41 0.0003748638    1.598    0.374
       178 -12.0063    163.8234    170.8267   2.6749472477e+02  -5.6441060550e+01    0.0349988   0.02550358 -64.18   0.00065761    1.369    0.270
       179 -12.1117    160.3146    168.9688   2.6728815986e+02  -5.6355539211e+01    0.0320169   0.02775094  14.09 0.0005540323    1.181    0.153
       180 -12.4382    156.9379    165.6382   2.6699986667e+02  -5.6296053289e+01   0.03485063   0.03300067 -48.55  0.001565543    1.049    0.047
       181 -13.0465    152.8128    170.1918   2.6715274996e+02  -5.6093689816e+01   0.04223387   0.03686088  -3.55  0.001155723    1.212    0.175
       182 -12.8268    152.4822    166.0161   2.6690014860e+02  -5.6145548843e+01     0.039149   0.03628007  28.52 0.0007606272    1.079    0.073
       183 -12.2756     57.6268    164.7399   2.6443919007e+02  -5.3057747576e+01   0.04812309   0.03018421 -22.64  0.001670318    1.969    0.492
       184 -11.7121     61.4420    170.8915   2.6486636484e+02  -5.3098410941e+01   0.05062947   0.02543965 -65.51  0.001667698    1.969    0.492
       185 -13.3413     52.9582    167.8327   2.6450027506e+02  -5.2861853472e+01   0.09036364   0.04207074 -50.82  0.002416811    2.084    0.520
       186 -10.8005      2.2232    171.1991   2.6354731838e+02  -5.1147874357e+01   0.02488177   0.02019517 -27.02 0.0004694431    1.300    0.231
       187 -11.6861    236.7946    170.6233   2.6965623978e+02  -5.8787185345e+01   0.02667701   0.01575187 -50.83  0.000512313    1.666    0.400
       188 -11.2654    197.9183    170.2829   2.6844376716e+02  -5.7549606720e+01   0.02588923   0.02359301 -72.05 0.0005341067    1.114    0.103
       189 -12.1729     40.3893    168.3395   2.6423912456e+02  -5.2441586247e+01   0.03766751   0.03698953 -80.61  0.001668584    1.033    0.032
       190 -14.6548     83.4890    159.0450   2.6473441637e+02  -5.3987329104e+01   0.08605085   0.06997945  36.04  0.003611775    1.225    0.184
       191 -13.1417     84.1192    167.8618   2.6524304805e+02  -5.3884910058e+01   0.04957582   0.02870222   9.98  0.001677845    1.994    0.498
       192 -12.3997     95.6980    159.0584   2.6503163001e+02  -5.4388761873e+01   0.03957959   0.03069892  71.10 0.0009159655    1.463    0.317
       193 -13.6157     91.7237    163.6112   2.6519097229e+02  -5.4194291702e+01   0.06745285   0.03754674  24.36   0.00234236    1.780    0.438
       194 -12.9999     87.7432    164.4971   2.6514329843e+02  -5.4051152669e+01   0.04791349   0.03159119  28.33  0.001809192    1.488    0.328
       195 -13.3494     84.7172    144.6408   2.6395075102e+02  -5.4224795965e+01   0.06385466   0.03893786  88.73  0.001275308    2.075    0.518
       196 -13.2134     76.6766    154.8652   2.6433769458e+02  -5.3820354279e+01   0.05146265   0.02937194 -52.17 0.0003928075    1.703    0.413
       197 -12.3178     72.0016    166.8467   2.6489418976e+02  -5.3501336954e+01   0.03174617    0.0257311  22.59 0.0004414034    1.233    0.189
       198 -12.2991    199.8922    165.5656   2.6821860262e+02  -5.7686915668e+01   0.04601551   0.02582267 -40.49  0.001273661    1.968    0.492
       199 -12.8127    111.4397    164.0373   2.6570693960e+02  -5.4834790497e+01   0.05819445   0.03096592  45.83  0.001335201    2.017    0.504
       200 -12.4732    103.4888    165.1343   2.6556873815e+02  -5.4558625824e+01   0.03575734   0.02617497 -64.60  0.001411588    1.358    0.264
       201 -11.2054    212.2537    164.0025   2.6849271387e+02  -5.8108919394e+01   0.02479639   0.02322474  19.47 0.0002251261    1.073    0.068
       202 -10.9969    205.3253    164.3210   2.6830454241e+02  -5.7881214201e+01    0.0193986    0.0135795  61.67 0.0007046954    1.681    0.405
       203 -13.2748     67.4947    159.7964   2.6439662443e+02  -5.3450274224e+01   0.07125679   0.03794505  77.90  0.002050143    3.017    0.669
       204 -12.8542     41.3071    161.8379   2.6390662545e+02  -5.2559467916e+01    0.0685645   0.03070266 -39.29  0.001999537    2.662    0.624
       205 -12.0928     47.1685    161.8297   2.6403900648e+02  -5.2752807572e+01    0.0373354   0.02977885 -69.11 0.0009986978    1.265    0.209
       206 -11.4417    229.6846    161.9036   2.6889669366e+02  -5.8700940589e+01   0.02519358   0.02340447   4.89 0.0004834411    1.104    0.094
       207 -12.5063    170.0443    160.0110   2.6703007504e+02  -5.6806369676e+01   0.03672067   0.03208502 -10.39  0.001545909    1.215    0.177
       208 -14.4115     17.9514    154.9714   2.6302034359e+02  -5.1878784140e+01    0.1713595   0.08014796  55.92  0.003844723    2.919    0.657
       209 -13.8510    120.2672    157.9253   2.6558147272e+02  -5.5211559794e+01   0.07312642   0.04899894 -66.28  0.002776311    1.494    0.331
       210 -15.0680     36.7834    197.7557   2.6573220299e+02  -5.1915316882e+01    0.2292683    0.1300446  14.40  0.005440367    1.940    0.485
       211 -11.9242    105.4223    158.8326   2.6525920301e+02  -5.4711475489e+01    0.0393496   0.02498151 -37.97 0.0007095549    1.711    0.415
       212 -14.3392     83.3168    150.3278   2.6423957736e+02  -5.4101401816e+01   0.09844599   0.04970209 -75.32 0.0009242957    2.237    0.553
       213 -12.0760    145.9351    157.6580   2.6623483924e+02  -5.6055652011e+01    0.0321341   0.02605313   9.20 0.0002791643    1.296    0.229
       214 -13.3580     31.6847    156.5594   2.6340504130e+02  -5.2312003073e+01    0.0594154   0.04939111   0.11  0.002509191    1.263    0.208
       215 -12.1002    112.8849    156.5103   2.6531324423e+02  -5.4989404620e+01   0.03081167   0.02482327 -23.50  0.001258618    1.342    0.255
       216 -11.9387    190.4118    155.3119   2.6732371550e+02  -5.7538359690e+01   0.03501325   0.02644966   2.88 0.0006697602    1.480    0.324
       217 -11.0689    141.7974    155.8111   2.6601710316e+02  -5.5947276409e+01   0.02578636   0.02067171 -30.27 0.0004374215    1.328    0.247
       218 -14.0681     63.4875    153.3764   2.6394680952e+02  -5.3405178026e+01   0.07580961   0.04038687  27.67  0.002598723    1.810    0.448
       219 -11.5631      1.7702    152.7213   2.6255694236e+02  -5.1372388310e+01   0.06265963   0.02644207   5.38  0.001625444    3.480    0.713
       220 -11.8354    212.4984    153.9980   2.6788836093e+02  -5.8272812372e+01   0.02817397    0.0179884  24.59 0.0008288709    1.577    0.366
       221 -11.9934     25.2466    153.7954   2.6311436295e+02  -5.2135356910e+01   0.03255507   0.02744764 -49.94 0.0004476134    1.176    0.150
       222 -12.5041     12.7233    151.1888   2.6270512488e+02  -5.1754571311e+01   0.06932878   0.04078782  26.70  0.002497577    1.648    0.393
       223 -12.9576     57.6237    143.9226   2.6328705265e+02  -5.3336927397e+01   0.05373861    0.0303199  54.06 0.0004006009    2.082    0.520
       224 -12.1252     51.3052    152.0519   2.6359558434e+02  -5.3020234466e+01   0.03824846   0.03486453  -2.85 0.0007090113    1.122    0.109
       225 -12.5447     53.6989    149.3247   2.6349879255e+02  -5.3135603734e+01   0.03497476   0.02949922   8.76 0.0007327737    1.217    0.178
       226 -11.4144    224.9949    151.9918   2.6813976599e+02  -5.8706644627e+01   0.02245372   0.02125379  23.52 0.0003969057    1.057    0.054
       227 -12.5413    172.2398    150.9887   2.6655251350e+02  -5.7012314949e+01   0.04497285   0.02578253  19.85  0.001553328    1.824    0.452
       228 -12.2995     69.4068    150.6689   2.6393269761e+02  -5.3637221512e+01   0.03470226   0.01818465  14.64  0.001028822    2.088    0.521
       229 -12.0464      5.2988    149.9205   2.6248084292e+02  -5.1524864960e+01   0.03525099   0.02884783 -18.83 0.0008986938    1.301    0.231
       230 -12.7246    133.1668    150.6412   2.6548992153e+02  -5.5738801157e+01     0.053034   0.02563777  10.92  0.001572298    2.605    0.616
       231 -12.5811    109.0501    149.1391   2.6479439490e+02  -5.4966689835e+01   0.04139825   0.03944908 -26.58 0.0009258827    1.057    0.054
       232 -12.8223     27.3171    148.6299   2.6287867537e+02  -5.2270936292e+01   0.05984597   0.04706519  12.36  0.001818689    1.302    0.232
       233 -11.9487     32.4455    147.7753   2.6294313114e+02  -5.2451950754e+01   0.03275761   0.03111693  67.62 0.0005667162    1.085    0.078
       234 -11.4466    146.8978    148.7091   2.6573410066e+02  -5.6216965555e+01   0.03054997   0.02400284  39.80 0.0003507132    1.277    0.217
       235 -12.1512     31.2068    167.4703   2.6398485139e+02  -5.2151156976e+01   0.03290134   0.03016271 -31.33 0.0002453756    1.102    0.093
       236 -11.2391     37.1241    149.1799   2.6312213858e+02  -5.2588695531e+01   0.02621802   0.02067031 -35.42  0.000526806    1.318    0.241
       237 -13.3636     51.3591    142.4639   2.6306593372e+02  -5.3148246398e+01   0.08131301   0.03201094 -68.91  0.001717209    2.584    0.613
       238 -12.5716     40.6443    146.8356   2.6307081254e+02  -5.2735902276e+01   0.04569787   0.02589026  15.87  0.001372782    1.851    0.460
       239 -12.5452     43.5181    145.4790   2.6305936380e+02  -5.2848851312e+01   0.03827223   0.02890124  56.84  0.001218291    1.437    0.304
       240 -11.6323      8.4806    146.6886   2.6237375482e+02  -5.1671340709e+01   0.03318851   0.01828323  11.83   0.00110559    1.983    0.496
       241 -13.1853    120.0581    144.5077   2.6479991344e+02  -5.5393980142e+01    0.0528242    0.0362702 -58.43 0.0003580656    1.419    0.295
       242 -12.4669     91.5755    145.6787   2.6417225365e+02  -5.4437547785e+01   0.03382268   0.01928125 -45.79  0.001102739    1.790    0.441
       243 -11.3673    229.0117    145.1156   2.6783275281e+02  -5.8942705026e+01   0.02669673   0.02614927 -50.79 0.0003452404    1.017    0.017
       244 -12.1495     43.9967    152.0616   2.6343221189e+02  -5.2778368965e+01   0.02660391    0.0262538  28.51  0.001217682    1.018    0.018
       245 -11.1242    157.0986    144.5782   2.6575891940e+02  -5.6610879258e+01   0.03940385   0.01919879 -25.61  0.000944479    3.390    0.705
       246 -13.2893     95.4878    140.3748   2.6396232352e+02  -5.4638879887e+01   0.06648273   0.04282802  68.21  0.002344249    1.935    0.483
       247 -12.6098    103.5112    144.8488   2.6441206898e+02  -5.4843256105e+01   0.05886343   0.03564605 -47.75 0.0009969436    1.653    0.395
       248 -12.0633    100.6856    141.3201   2.6414092374e+02  -5.4798076339e+01   0.03657128   0.02867251 -58.47   0.00082715    1.254    0.202
       249 -12.4251    187.3559    143.2135   2.6650259095e+02  -5.7620213215e+01   0.03212008   0.03038377 -47.88 0.0002702134    1.052    0.049
       250 -13.2142     19.5997    141.9160   2.6234885787e+02  -5.2100846137e+01   0.06432667   0.03444968 -61.24  0.001216596    1.787    0.440
       251 -12.6772     12.2757    142.1985   2.6221069112e+02  -5.1854024290e+01   0.05013113   0.03711893 -38.88  0.001995853    1.397    0.284
       252 -11.0510    194.9861    143.5479   2.6673819536e+02  -5.7863848476e+01   0.02723265   0.01775289 -63.83  0.000418837    1.523    0.343
       253 -12.3289     70.3158    143.1579   2.6353241878e+02  -5.3767755279e+01   0.03064949   0.02494811 -84.13 0.0002932902    1.304    0.233
       254 -10.6878    224.0025    142.5293   2.6752027298e+02  -5.8820672281e+01   0.02626455     0.017936 -65.18  0.000186807    1.471    0.320
       255 -11.7761    178.0859    142.1493   2.6618062598e+02  -5.7333202613e+01   0.03300765   0.02562134 -49.43 0.0008353536    1.279    0.218
       256 -10.9702    166.5569    142.4389   2.6588415989e+02  -5.6951729957e+01   0.01792131   0.01770283 -32.08 8.585909e-05    1.007    0.007
       257 -12.0665     41.2776    139.8846   2.6270155301e+02  -5.2846925594e+01   0.03110296   0.01800604  47.78 0.0007630325    1.860    0.462
       258 -12.1363     51.0144    137.7022   2.6279347560e+02  -5.3198615921e+01   0.03745385   0.02500138  27.70 0.0002846083    1.465    0.317
       259 -14.3219     57.9147    134.4996   2.6276677870e+02  -5.3469421521e+01    0.1094177   0.04710726 -55.90  0.001674573    2.162    0.537
       260 -11.1087    212.4861    137.9762   2.6689662615e+02  -5.8516276938e+01   0.02679444   0.01797079  23.79 0.0003859706    1.498    0.333
       261 -13.4596    118.2871    136.2089   2.6427235395e+02  -5.5450039305e+01   0.04331913   0.04222733 -87.20 0.0006144057    1.041    0.040
       262 -10.9651    109.4966    137.5179   2.6413405314e+02  -5.5141330695e+01   0.01833954   0.01749306  58.09 0.0002355593    1.072    0.067
       263 -12.9409     89.5003    135.8203   2.6356010345e+02  -5.4501523188e+01   0.06266059    0.0246022 -57.84  0.001306428    2.328    0.570
       264 -12.7434     44.2965    134.5437   2.6247117150e+02  -5.3015746606e+01   0.06737601   0.03210494 -35.04  0.001669625    2.628    0.620
       265 -10.9216     27.0054    136.0012   2.6218206303e+02  -5.2421827093e+01   0.03127808   0.02011198 -33.59  0.001126599    1.721    0.419
       266 -12.9790     13.2139    134.6048   2.6181833850e+02  -5.1980249603e+01   0.05270711   0.03916401 -50.03  0.001682392    1.333    0.250
       267 -13.2438     19.0817    131.4081   2.6176506007e+02  -5.2215404762e+01   0.07652971   0.04404227  65.44  0.002510652    2.247    0.555
       268 -12.3662     36.8390    135.1171   2.6234240772e+02  -5.2760260138e+01   0.02888524   0.02426366  52.31 0.0004584599    1.237    0.192
       269 -13.0099     36.0440    131.4091   2.6212044396e+02  -5.2780668966e+01   0.07027929   0.03657449 -82.16  0.002225116    2.313    0.568
       270 -12.0093     35.4990    127.5329   2.6189420503e+02  -5.2811107709e+01   0.03583674   0.02373904  12.01 0.0008837534    1.582    0.368
       271 -11.1975    209.8087    133.8913   2.6656443826e+02  -5.8490052949e+01   0.02551331   0.02089592 -30.87 0.0005414941    1.292    0.226
       272 -11.6255    128.3609    133.7975   2.6437988665e+02  -5.5816265912e+01   0.02583421   0.01597048  33.74 0.0003043464    1.577    0.366
       273 -13.1789    103.2976    134.0726   2.6378527463e+02  -5.4982557867e+01    0.0747401   0.02950748 -73.78  0.002049433    2.957    0.662
       274 -11.4885     74.3024    134.3076   2.6312352172e+02  -5.4016807786e+01   0.01912458   0.01330784  57.11 0.0003972517    1.601    0.375
       275 -11.6577    230.0807    130.7097   2.6695620403e+02  -5.9196686267e+01   0.02981228   0.02570618  19.17 0.0004938349    1.172    0.146
       276 -11.7408      7.8544    131.1627   2.6152183696e+02  -5.1844247198e+01   0.02692331   0.02408676 -36.53 0.0002751056    1.128    0.113
       277 -10.8132    199.5348    130.4982   2.6606125647e+02  -5.8204624288e+01   0.01810992   0.01770894  55.96 6.238429e-05    1.036    0.035
       278 -11.9473     94.2420    129.3997   2.6330160320e+02  -5.4744135623e+01    0.0371678   0.01980225  33.86   0.00126115    1.806    0.446
       279 -13.1297     47.4249    129.8128   2.6227530804e+02  -5.3180116621e+01    0.0711952   0.02812766 -58.40  0.002144861    2.312    0.567
       280 -11.0681     64.5279    127.5291   2.6252036344e+02  -5.3779277522e+01   0.02630881   0.01762946   2.06 2.070765e-06    1.677    0.404
       281 -12.9855     63.9079    121.7091   2.6217685633e+02  -5.3832670342e+01    0.0651779   0.02316018  27.92  0.001868188    2.552    0.608
       282 -14.0455     58.5990    125.7223   2.6228810976e+02  -5.3604612414e+01   0.06563152   0.05946879 -75.55  0.001959608    1.119    0.107
       283 -12.6196     53.1804    127.1022   2.6224797823e+02  -5.3406364078e+01   0.04362898   0.02492784  55.72  0.001026374    2.069    0.517
       284 -12.4471    130.4560    128.5817   2.6412363143e+02  -5.5956945411e+01    0.0325094   0.03076847 -24.28 0.0003430942    1.068    0.064
       285 -11.7986    121.4383    127.9937   2.6386747109e+02  -5.5666017092e+01   0.03842068   0.02330468  -6.21  0.001283931    2.109    0.526
       286 -13.0024     83.5303    127.4711   2.6294367777e+02  -5.4413065180e+01   0.04471441   0.02977328  36.60 0.0009679788    1.483    0.326
       287 -12.7899     80.4893    127.5067   2.6287652905e+02  -5.4311343960e+01   0.03863581   0.02728347 -35.04 0.0008229206    1.516    0.340
       288 -12.7257     26.5991    124.9874   2.6156769049e+02  -5.2545613143e+01   0.05092248   0.03575427 -13.70  0.001929429    1.624    0.384
       289 -11.5447    169.6595    125.9126   2.6496537484e+02  -5.7289359073e+01   0.02919049   0.02499614 -87.03 0.0002732178    1.236    0.191
       290 -12.6817     75.0000    125.0324   2.6261135123e+02  -5.4160421483e+01   0.04612531   0.02750141  14.65  0.001381111    1.764    0.433
       291 -14.5313     76.5182    119.6669   2.6233814511e+02  -5.4279747025e+01    0.1051851   0.05966249 -63.54 0.0007472047    1.707    0.414
       292 -12.3249    186.2235    124.2369   2.6530561177e+02  -5.7858291757e+01   0.04209912   0.03033631  37.07 0.0009844447    1.377    0.274
       293 -11.0293    189.4290    121.5127   2.6522362879e+02  -5.8002371795e+01   0.01801313   0.01767753  43.06 2.514037e-05    1.027    0.026
       294 -14.1258      9.3515    117.4083   2.6080205061e+02  -5.2060973240e+01    0.1110401   0.03925171  19.46  0.003078914    2.824    0.646
       295 -13.0083     14.8417    118.9168   2.6099417121e+02  -5.2226592621e+01    0.1415696   0.04388993  45.00  0.003447871    3.766    0.734
       296 -13.1049     20.9287    122.8664   2.6133438489e+02  -5.2382212112e+01    0.0452102   0.03641994 -77.41 0.0005862016    1.279    0.218
       297 -12.8154     22.5216    118.4478   2.6112317454e+02  -5.2489238977e+01   0.03688656   0.02774168 -31.08 0.0008331971    1.415    0.293
       298 -11.7022     24.2723    115.0191   2.6096892572e+02  -5.2589285699e+01    0.0407024    0.0274612  23.05 0.0003148068    1.459    0.315
       299 -11.8328      5.1554    123.3110   2.6104091746e+02  -5.1849766997e+01   0.03875822   0.02553708   2.15  0.001423504    1.684    0.406
       300 -12.5372    195.0149    122.6197   2.6544517469e+02  -5.8170207826e+01   0.03339136    0.0319152 -60.12 0.0002093239    1.043    0.041
       301 -13.2295    105.8535    121.4272   2.6310961888e+02  -5.5235408850e+01   0.06780456   0.03571082 -55.22  0.002307222    1.813    0.448
       302 -12.1005    100.4412    119.5132   2.6287173424e+02  -5.5080061888e+01   0.03136194   0.02655613  -1.32 0.0005835567    1.238    0.192
       303 -11.6161    224.0947    120.3540   2.6612156089e+02  -5.9155267356e+01   0.02585963   0.02254882 -57.59 0.0005502612    1.136    0.120
       304 -10.9207     35.8797    119.1231   2.6143465247e+02  -5.2927954693e+01   0.02859598   0.02343164 -35.38 0.0005006539    1.256    0.204
       305 -11.4802     94.6314    117.4367   2.6261720482e+02  -5.4913116037e+01    0.0370848   0.02276492  26.63  0.001345303    1.588    0.370
       306 -11.8418    241.4948    115.9779   2.6634895136e+02  -5.9786889381e+01     0.033578   0.02609174 -61.71   0.00136559    1.275    0.216
       307 -13.4097     82.9204    112.6439   2.6207557709e+02  -5.4582791511e+01   0.08440377   0.02860516  26.45  0.002365591    2.682    0.627
       308 -10.3634     29.5300    116.5032   2.6115809469e+02  -5.2747423457e+01   0.01789695   0.01779788  16.91 4.976676e-05    1.009    0.009
       309 -10.2850    221.2991    115.2979   2.6571827022e+02  -5.9137257098e+01   0.01884153   0.01351331  59.44 0.0002198476    1.575    0.365
       310 -10.7003    196.5490    115.5038   2.6504179499e+02  -5.8321594684e+01   0.01794393   0.01784694   9.14 0.0002449056    1.007    0.007
       311 -12.5401     67.7749    114.1339   2.6182932198e+02  -5.4057171684e+01   0.03985726   0.02199952  14.69  0.001344356    1.910    0.476
       312 -13.2412    108.6852    111.3597   2.6258379709e+02  -5.5460704346e+01   0.03814099   0.03427244 -38.50 0.0005540388    1.122    0.108
       313 -12.2536     58.6046    114.0795   2.6162901649e+02  -5.3750807282e+01   0.03279236   0.02631896 -80.43 0.0004098703    1.297    0.229
       314 -11.3256    120.9464    113.1508   2.6297690908e+02  -5.5846756444e+01   0.02920072   0.02334966 -33.23 0.0005566347    1.308    0.236
       315 -12.1333    116.5699    112.8235   2.6285419219e+02  -5.5705029222e+01   0.03258752   0.02550476 -67.88 0.0005733656    1.277    0.217
       316 -12.8659     12.5120    111.2873   2.6052836837e+02  -5.2239672790e+01   0.05513591   0.02722041  39.48   0.00180604    2.006    0.502
       317 -11.1002    171.5377    112.5028   2.6419067021e+02  -5.7537232718e+01   0.01815414   0.01768349  54.76 0.0001353694    1.041    0.039
       318 -12.1878     90.5145    110.7391   2.6213409772e+02  -5.4860990554e+01   0.03218934   0.03090878 -63.10 0.0003888702    1.039    0.038
       319 -11.7895     52.9445    110.3764   2.6129900646e+02  -5.3606700521e+01   0.03845808   0.02609957 -80.98 0.0008387096    1.584    0.369
       320 -11.3374    218.4860    110.4307   2.6532694518e+02  -5.9114729342e+01   0.01830116   0.01736602 -34.98 -0.0001661113    1.058    0.055
       321 -11.3429    210.1610    108.6942   2.6498397331e+02  -5.8865581995e+01   0.02941533   0.02503006   1.00 0.0003607236    1.236    0.191
       322 -12.6380     62.9241    112.7945   2.6164825142e+02  -5.3911404264e+01   0.05339147   0.02730178  16.44  0.001745724    2.035    0.509
       323 -10.8734    237.0580    108.2763   2.6571816888e+02  -5.9754291125e+01   0.02546289   0.02317811 -64.28 0.0004461379    1.098    0.089
       324 -13.0999      2.8157    106.8833   2.6009802392e+02  -5.1965992186e+01   0.05497879   0.03817603  31.24  0.001654242    1.406    0.289
       325 -11.6345    159.0307    106.4949   2.6350185739e+02  -5.7203194869e+01    0.0266432   0.02552679   8.63 0.0005294028    1.048    0.046
       326 -10.6088    139.6550    107.3140   2.6307469043e+02  -5.6547054420e+01   0.02002981   0.01297792 -33.93 0.0007047296    1.712    0.416
       327 -11.2560     92.9852    105.6734   2.6189328180e+02  -5.5007520429e+01   0.02636402   0.02329036 -65.82 0.0007954812    1.128    0.113
       328 -11.2879     73.3114    106.3512   2.6150184913e+02  -5.4339316673e+01   0.02000813   0.01290138  54.49 0.0007045193    1.722    0.419
       329 -13.0496     10.6697    104.8015   2.6013492081e+02  -5.2253991365e+01   0.05073674   0.04026862  39.06  0.001172792    1.259    0.206
       330 -12.2495     63.2815    104.3868   2.6117496685e+02  -5.4026697507e+01   0.03543454   0.02016945  32.59 0.0008422846    1.693    0.409
       331 -12.5740    162.4219     99.2727   2.6314057572e+02  -5.7411773338e+01   0.03796533   0.02311844 -29.91 0.0009570418    1.938    0.484
       332 -11.6616    154.0030    101.0435   2.6304191383e+02  -5.7107790969e+01   0.04777914   0.02686995  20.66  0.001650618    1.790    0.441
       333 -13.5470     77.7740     92.2250   2.6077706164e+02  -5.4661202442e+01    0.0731364   0.03716916 -49.57  0.001974801    1.942    0.485
       334 -12.4639     76.8160     97.1812   2.6104560547e+02  -5.4569197715e+01   0.03623067   0.03096054  49.27  0.000727283    1.199    0.166
       335 -11.4085     57.1236     97.4854   2.6065091055e+02  -5.3902786181e+01   0.05623989   0.03213522 -54.25  0.001146141    1.690    0.408
       336 -10.9586    210.5875    101.4746   2.6453364886e+02  -5.8980351804e+01   0.01794518   0.01762264  -4.32 0.0002035452    1.019    0.018
       337 -11.3388     84.8741    100.9070   2.6143609883e+02  -5.4794569817e+01   0.02773877   0.02382338  56.92 0.0003686832    1.214    0.176
       338 -11.5493     26.0320     98.7978   2.6010051086e+02  -5.2840566442e+01   0.04564641   0.02703227 -28.60  0.001557095    1.980    0.495
       339 -12.2589      8.4686     98.5525   2.5974755579e+02  -5.2252206416e+01   0.06614894    0.0433517  84.50  0.001961032    1.777    0.437
       340 -11.9354    168.7835     99.2255   2.6329666374e+02  -5.7624361282e+01   0.02583213   0.02075709  55.66 0.0007435572    1.319    0.242
       341 -12.1662     94.1957     98.9560   2.6152561032e+02  -5.5131736986e+01   0.05236818   0.02671861 -55.03  0.001751739    1.867    0.464
       342 -11.4613     32.4289     98.2834   2.6019765611e+02  -5.3061924934e+01   0.04065684   0.02723438  59.03  0.001503573    1.674    0.403
       343 -11.4768    178.7549     95.7191   2.6332929204e+02  -5.8002809114e+01   0.02920705   0.01550518   4.32  0.000878176    2.382    0.580
       344 -11.6978     66.2587     94.5953   2.6067357560e+02  -5.4244892398e+01   0.02552754   0.01760257 -87.27 0.0009480556    1.603    0.376
       345 -12.2693    105.0926     97.0630   2.6165527804e+02  -5.5521182120e+01   0.04269089    0.0237892  31.42  0.001336518    1.724    0.420
       346 -10.6383     89.9432     94.0000   2.6114108319e+02  -5.5049543752e+01   0.03000146   0.01034731 -69.72 0.0007959769    2.898    0.655
       347 -12.8608     55.5471    101.4389   2.6084456783e+02  -5.3802426352e+01   0.03366538   0.03145875  44.56 0.0005206136    1.080    0.074
       348 -10.3328    226.2839     92.6967   2.6439572306e+02  -5.9619721089e+01   0.01880968   0.01340356 -29.74 0.0002213016    1.557    0.358
       349 -10.9275    243.8725     90.6685   2.6475562475e+02  -6.0227521420e+01   0.02519054    0.0230087 -58.71  0.000533212    1.088    0.081
       350 -11.8940    189.4357     90.8717   2.6329554274e+02  -5.8422558293e+01   0.04821843   0.02497758  87.71  0.001402084    2.827    0.646
       351 -11.0078     41.4633     91.5437   2.5999542646e+02  -5.3444913836e+01   0.03102307   0.01482731 -56.50 0.0005330482    1.971    0.493
       352 -10.7343     28.3344     90.3290   2.5966979264e+02  -5.3015932417e+01   0.01999607   0.01285449  55.60 0.0007051979    1.724    0.420
       353 -12.0744    126.0291     86.4543   2.6148903845e+02  -5.6356273934e+01   0.06229834    0.0302333  28.44  0.001554794    1.952    0.488
       354 -11.2882      3.1634     87.8513   2.5905618253e+02  -5.2194371507e+01   0.03740503   0.02388733  13.06 0.0009468535    1.605    0.377
       355 -11.1580    171.4676     88.4369   2.6268833826e+02  -5.7855055979e+01   0.01793694   0.01777818  74.40  0.000108679    1.020    0.020
       356 -12.6823    149.8026     84.9983   2.6194993137e+02  -5.7173255911e+01   0.07695772   0.02534398  25.44  0.002118006    2.776    0.640
       357 -10.4812     39.0025     88.0621   2.5974905827e+02  -5.3402052175e+01   0.02065505   0.02026074 -62.78            0    1.020    0.020
       358 -12.5298     68.8929     86.6703   2.6026841395e+02  -5.4427569291e+01     0.030767   0.02390563  32.32 0.0002590034    1.271    0.213
       359 -12.6596     54.7743     85.7404   2.5992838699e+02  -5.3961554322e+01   0.06509176   0.05006135  79.20  0.002382209    1.431    0.301
       360 -11.4895     10.3452     87.1579   2.5915081385e+02  -5.2444558734e+01    0.0692508   0.02455231 -71.94  0.001908139    2.864    0.651
       361 -10.7127    141.3964     85.7723   2.6180059959e+02  -5.6881302678e+01   0.02548121   0.01623783  33.09 0.0005036336    1.531    0.347
       362 -10.6445    100.5129     86.4626   2.6092351783e+02  -5.5496896480e+01   0.01803536   0.01777316  58.88 4.356646e-05    1.026    0.025
       363 -12.8145     62.9975     83.3173   2.5995355195e+02  -5.4267525090e+01   0.07988492   0.03067538  51.97  0.002043562    3.491    0.714
       364 -12.1631    161.9512     83.7885   2.6216425317e+02  -5.7596036343e+01    0.0281728   0.02406069  61.84 0.0004595341    1.236    0.191
       365 -11.0543    134.0450     84.1513   2.6153123539e+02  -5.6654356739e+01   0.02805392   0.02390628  73.01 0.0009177584    1.253    0.202
       366 -10.4995    232.0167     82.9679   2.6391297092e+02  -5.9941969659e+01   0.02147344   0.02076308  15.71 0.0003339717    1.034    0.033
       367 -11.3243    112.4187     83.0519   2.6097903794e+02  -5.5939484630e+01   0.04090588   0.02228693 -63.65 0.0009712019    1.763    0.433
       368 -12.4240     79.0429    101.7326   2.6135793980e+02  -5.4588551926e+01   0.04153574   0.03398606 -31.01   0.00101192    1.274    0.215
       369 -11.4314    215.9568     80.2444   2.6330061533e+02  -5.9445553646e+01   0.03094133   0.02551764  22.33 0.0003583434    1.210    0.174
       370 -14.2600      6.9810     77.7768   2.5856614619e+02  -5.2434494706e+01   0.06743734   0.05798426  75.86   0.00238224    1.226    0.184
       371 -11.2462     10.2781     71.4132   2.5826968257e+02  -5.2615189218e+01   0.04954465   0.02521083 -80.93  0.001590632    2.176    0.540
       372 -11.9438    224.8211     80.0193   2.6352236553e+02  -5.9743040516e+01   0.02914401   0.02558954 -65.75 0.0003385331    1.137    0.120
       373 -11.6231    208.2560     78.8335   2.6300633181e+02  -5.9207765262e+01   0.04681634   0.02263432  51.14  0.001005922    2.465    0.594
       374 -10.4413    108.2965     80.3040   2.6072346639e+02  -5.5833481594e+01   0.01912963   0.01319611  55.55 0.0002873462    1.582    0.368
       375 -12.5101    114.1616     76.5966   2.6062696043e+02  -5.6075822783e+01   0.07099634   0.03806196  47.40  0.002328695    2.007    0.502
       376 -11.6113     88.5271     79.0241   2.6022597732e+02  -5.5180718682e+01    0.0285989   0.02484553 -69.97 0.0007701291    1.151    0.131
       377 -10.8343     52.1754     79.3771   2.5951010767e+02  -5.3946692374e+01   0.02601301   0.01578236 -57.61 0.0005338507    1.588    0.370
       378 -12.0695    161.2849     77.3872   2.6174660185e+02  -5.7654139038e+01   0.03431104   0.02071069  35.39  0.001143002    1.619    0.382
       379 -11.3317     75.2296     75.9958   2.5977331590e+02  -5.4765928401e+01   0.02472374   0.01507861  18.42 0.0008770864    1.641    0.391
       380 -11.3043     85.9527     75.1021   2.5993984110e+02  -5.5139332653e+01   0.03066485   0.02022708  55.54 0.0008539216    1.668    0.401
       381 -12.2371    106.1999     72.9981   2.6023804429e+02  -5.5849199746e+01   0.05391105   0.02992945 -44.40  0.001487055    1.858    0.462
       382 -11.4488     53.0747     73.6076   2.5919427014e+02  -5.4042346673e+01   0.05721928   0.02249685 -57.44  0.001715476    2.321    0.569
       383 -12.4137      3.0056     72.2747   2.5818781991e+02  -5.2359394108e+01   0.04206071   0.02920801  39.58  0.001420609    1.435    0.303
       384 -11.4249     71.1814     69.6115   2.5931652200e+02  -5.4701449045e+01   0.04143921   0.02111203  56.29  0.000614501    2.386    0.581
       385 -11.5315    132.9699     70.3046   2.6065527185e+02  -5.6786335366e+01   0.02865335   0.02521625  20.07 0.0003273712    1.136    0.119
       386 -11.1343     61.3197     71.3268   2.5922253512e+02  -5.4347570949e+01   0.01983376   0.01290744  54.79 0.0006775481    1.682    0.405
       387 -10.9698    189.0811     70.3197   2.6196822594e+02  -5.8675814629e+01   0.02585474   0.02258635 -61.41 0.0004431583    1.133    0.118
       388 -10.8958    176.9853     85.7749   2.6265721927e+02  -5.8073873712e+01   0.02404309   0.01501699 -68.81 0.0004204864    1.604    0.377
       389 -12.2123     54.7001     68.2427   2.5891446113e+02  -5.4157338989e+01   0.03374598    0.0283043  75.71 0.0002638634    1.266    0.210
       390 -11.2570    154.7355     68.1984   2.6101559050e+02  -5.7546527294e+01    0.0386676   0.02199051 -55.39  0.001046047    1.689    0.408
       391 -12.9644    100.5626     57.6631   2.5919320759e+02  -5.5833918715e+01   0.04809055   0.03382148  22.50 0.0006201123    1.403    0.287
       392 -10.2976     42.3063     68.2406   2.5867851107e+02  -5.3736528335e+01   0.01813963   0.01325344  61.67 0.0001718913    1.493    0.330
       393 -11.0444     60.1617     66.8345   2.5893775008e+02  -5.4358431716e+01   0.02521432   0.02050794  51.77 0.0004139127    1.271    0.213
       394 -11.4942    164.8818     65.6083   2.6108658604e+02  -5.7920106372e+01   0.04625735   0.02244367  12.27  0.001436114    2.279    0.561
       395 -10.9423     67.9564     65.2810   2.5899825075e+02  -5.4640474813e+01   0.02505866   0.02291182 -73.96 0.0002967703    1.099    0.090
       396 -10.7237    188.6514     64.2803   2.6156673537e+02  -5.8736659063e+01   0.01969853   0.01284112 -37.29 0.0003803098    1.644    0.392
       397 -11.6931     92.0676     63.8196   2.5939183092e+02  -5.5475883861e+01   0.02925989   0.02595913   7.41 0.0003440716    1.142    0.124
       398 -10.7547     39.3598     64.5006   2.5840814328e+02  -5.3677223473e+01   0.01789591   0.01713391  18.00 -0.0001616543    1.042    0.041
       399 -11.7880     10.0082     63.0193   2.5779313178e+02  -5.2695491119e+01   0.03617884   0.03020607 -89.04 0.0003330249    1.247    0.198
       400 -11.6079     12.7736     59.9515   2.5766871358e+02  -5.2821756223e+01   0.04622204   0.03399164 -21.31  0.001388354    1.475    0.322
       401 -11.3977    124.0249     62.1695   2.5995836779e+02  -5.6579231651e+01   0.03514226   0.02219754 -48.55 0.0009230146    1.575    0.365
       402 -12.0139    109.3860     59.8055   2.5950469039e+02  -5.6109587651e+01   0.04287262   0.02877217  22.46  0.001626254    1.469    0.319
       403 -12.9689    112.3252     53.0522   2.5915235383e+02  -5.6285674791e+01   0.07654788   0.03186752  50.86  0.002127429    2.923    0.658
       404 -12.5252     41.5813     59.2545   2.5814665227e+02  -5.3809326120e+01   0.04509962   0.03853801  17.35   0.00155792    1.168    0.144
       405 -11.8564     18.8703     49.1537   2.5716181107e+02  -5.3141295766e+01   0.03978935   0.02485267  32.22 0.0007009548    1.552    0.355
       406 -12.7853     23.9485     55.8080   2.5763036894e+02  -5.3245475720e+01   0.06005132   0.03982905  -5.39  0.001812281    1.677    0.404
       407 -12.2752     19.8961     53.0202   2.5740008162e+02  -5.3136452399e+01   0.03765553   0.03004394  -8.79 0.0004009738    1.322    0.244
       408 -11.7316    198.8309     57.3966   2.6136508198e+02  -5.9163695793e+01   0.03682098   0.02590324  66.31  0.001385265    1.627    0.385
       409 -12.7120     36.5407     54.9215   2.5780459309e+02  -5.3683739013e+01   0.06942058   0.03734415  36.38  0.001819226    1.806    0.446
       410 -12.4918    193.2620     56.3293   2.6116011947e+02  -5.8989265558e+01   0.04287696   0.03118034  54.78  0.001668549    1.479    0.324
       411 -10.3527     54.6636     57.2779   2.5827464333e+02  -5.4275957294e+01   0.01952191   0.01273027 -38.76 0.0004782872    1.612    0.380
       412 -11.8084    100.3398     64.3946   2.5959585435e+02  -5.5750179209e+01   0.05000672   0.02260647  37.03  0.001075141    2.134    0.531
       413 -11.7431    205.1709     54.4724   2.6132727313e+02  -5.9412752411e+01   0.03067995   0.02505199  20.42 0.0002762518    1.223    0.182
       414 -12.6251    120.7441     52.4356   2.5928845756e+02  -5.6578989868e+01   0.03825263   0.03146924  10.32 0.0006464053    1.237    0.191
       415 -11.8103    130.7209     51.1255   2.5941642517e+02  -5.6933027722e+01   0.03699281   0.02169959  67.19 0.0008034215    2.107    0.525
       416 -11.6999    107.0368     51.3253   2.5893875482e+02  -5.6124898117e+01   0.02580371   0.02285367 -65.46 0.0003773164    1.121    0.108
       417 -11.9515     99.9992     50.4607   2.5874456680e+02  -5.5894715709e+01   0.03749011   0.02513766 -15.38  0.001373915    1.699    0.411
       418 -13.0869     30.4050     50.3048   2.5742909370e+02  -5.3522852334e+01    0.0452352   0.03650982 -53.83  0.000815749    1.225    0.184
       419 -12.0160    174.0213     49.0690   2.6023656626e+02  -5.8426028386e+01   0.04091473   0.02627129  10.64  0.001011407    1.640    0.390
       420 -11.3337    162.4546     50.0046   2.6003554405e+02  -5.8023259041e+01   0.02703698    0.0178022  19.88 0.0002983878    1.513    0.339
       421 -10.6435    152.0000     49.9835   2.5980267676e+02  -5.7668890360e+01   0.02907564   0.01036614  18.68 0.0005132974    2.810    0.644
       422 -11.7241     41.7970     46.9702   2.5743844230e+02  -5.3946183542e+01   0.03195587   0.02633687 -69.10 0.0006111756    1.207    0.171
       423 -10.3856    236.3283     46.2489   2.6155469126e+02  -6.0560146567e+01   0.01847619   0.01342685  63.86 0.0002059216    1.545    0.353
       424 -11.5568     95.8681     44.8076   2.5831927523e+02  -5.5815373881e+01   0.02877891   0.02403338  54.69  0.000714127    1.240    0.193
       425 -11.5381    197.0280     44.2415   2.6045404751e+02  -5.9261031399e+01   0.02542622   0.02365819 -63.94 0.0003733518    1.069    0.065
       426 -10.9992    189.9796     43.2289   2.6022238602e+02  -5.9034515635e+01   0.02493125    0.0233218 -64.26 0.0002873079    1.064    0.060
       427 -12.1649    158.3840     41.4128   2.5939496646e+02  -5.7983366084e+01   0.03434412   0.02949829 -32.86 0.0002175354    1.191    0.160
       428 -12.5783    123.7228     39.6620   2.5855660817e+02  -5.6821863553e+01   0.03307069   0.03275587  39.69 0.0004134835    1.016    0.015
       429 -12.4545    119.0956     39.0684   2.5842629987e+02  -5.6670350914e+01   0.05026462   0.04232583  30.79  0.002115145    1.179    0.152
       430 -13.5810     27.8749     37.3346   2.5663764613e+02  -5.3568397240e+01   0.05742234   0.03747913  34.79 0.0006095433    1.499    0.333
       431 -13.3133     30.8857     31.8532   2.5637125510e+02  -5.3725825154e+01   0.04641495   0.04248696  62.66  0.001991317    1.117    0.105
       432 -11.1054    205.8531     38.6699   2.6029151280e+02  -5.9624783665e+01   0.02886347   0.02213105  72.18 0.0007173966    1.443    0.307
       433 -11.4828     80.1908     35.8939   2.5748124699e+02  -5.5373743575e+01   0.03769071   0.02477562  -5.11 0.0009616006    1.695    0.410
       434 -12.0690      9.1803     36.7807   2.5629358535e+02  -5.2934497639e+01   0.03325192   0.02286206 -57.39   0.00128085    1.420    0.296
       435 -12.2124    158.3702     34.5257   2.5895186777e+02  -5.8059807407e+01   0.05729268   0.02557378  41.31  0.001032821    2.262    0.558
       436 -11.6287     53.0996     34.2440   2.5689336908e+02  -5.4462936854e+01   0.03162612   0.02647201   4.40  0.001332714    1.220    0.180
       437 -11.8355    106.7813     32.4644   2.5777491063e+02  -5.6319762244e+01   0.03344171   0.02581348  10.82 0.0007257645    1.319    0.242
       438 -10.5364     64.3106     32.2783   2.5697551905e+02  -5.4866906685e+01    0.0189667   0.01306856  56.50 0.0002198748    1.561    0.359
       439 -12.1157     46.5839     31.3289   2.5660812912e+02  -5.4268923290e+01   0.03251571   0.02539119  -7.76 0.0006000872    1.354    0.261
       440 -11.9956    114.7341    247.0201   2.7037166921e+02  -5.3665090320e+01   0.05675644   0.02187352  31.52  0.001671934    2.466    0.594
       441 -11.3633    141.9912     30.9925   2.5838286165e+02  -5.7539549663e+01   0.02886366   0.02002176  54.17            0    1.544    0.352
       442 -10.9269    136.8322     31.1370   2.5828673006e+02  -5.7361721595e+01   0.02640261   0.02077239  55.16 0.0005394467    1.333    0.250
       443 -11.3855     96.8274     31.1494   2.5750416342e+02  -5.5992643956e+01   0.02555438   0.02044912  58.41 0.0003284125    1.312    0.238
       444 -11.3225      2.1492     30.8579   2.5584315371e+02  -5.2751520522e+01   0.02588082   0.02025129  51.64 0.0003580336    1.315    0.240
       445 -11.1568     67.4697     29.2589   2.5685152828e+02  -5.5005687001e+01   0.02471059   0.01735872  -6.50 0.0006959864    1.550    0.355
       446 -11.0835    195.8233     27.7602   2.5932994758e+02  -5.9409703898e+01   0.03368628   0.01534843  55.01 0.0009518028    2.794    0.642
       447 -12.4550     84.5159     24.3349   2.5686056580e+02  -5.5640076757e+01   0.03911603   0.02718028 -39.98 0.0008155361    1.484    0.326
       448 -12.3247     34.0907     40.7095   2.5693951092e+02  -5.3747046364e+01   0.04440853    0.0237949 -68.64  0.001196933    1.813    0.448
       449 -12.1949     66.0555     23.2869   2.5646895852e+02  -5.5016705425e+01   0.02560957    0.0233431 -63.29 0.0003392727    1.089    0.082
       450 -11.4715     61.9583     21.1484   2.5626987656e+02  -5.4896982684e+01   0.03341691   0.01714604 -44.39  0.001088319    2.011    0.503
       451 -11.2102     92.6317     18.3471   2.5664140832e+02  -5.5978695249e+01   0.02939473   0.01928318 -34.40 0.0006374659    1.629    0.386
       452 -11.7102     80.5235     18.1891   2.5641542250e+02  -5.5564064915e+01   0.03391653   0.02581697 -75.79 0.0006634289    1.321    0.243
       453 -10.4491    149.7260     17.2993   2.5766204749e+02  -5.7949203750e+01   0.01883591   0.01306176 -33.61 0.0002016829    1.532    0.347
       454 -11.0844    214.8852    247.1675   2.7343865268e+02  -5.6790011612e+01   0.02706064   0.02394061 -21.50 0.0003753186    1.209    0.173
       455 -10.4042    103.6775     14.6175   2.5661162507e+02  -5.6395441598e+01   0.02080533    0.0122147  51.66 0.0007018971    1.840    0.456
       456 -12.7370     53.3853    242.9517   2.6850804109e+02  -5.1781274199e+01   0.08159164   0.04114119  61.34  0.002265521    3.262    0.693
       457 -10.7506     74.6888     13.7018   2.5604116136e+02  -5.5407097705e+01   0.01935633   0.01291098  54.44 0.0002099056    1.600    0.375
       458 -10.9701    162.5402    246.0599   2.7171960372e+02  -5.5184156355e+01   0.02913206   0.02330231 -60.22 0.0005778571    1.242    0.195
       459 -11.6516    120.3209    244.3534   2.7038740028e+02  -5.3885213800e+01   0.04703522   0.01856009 -69.72  0.001236704    3.249    0.692
       460 -11.6409     78.0941    243.3193   2.6917211853e+02  -5.2562843769e+01   0.03025979   0.02391766  44.68  0.000674961    1.301    0.231
       461 -11.5651    142.8061    242.7084   2.7094785150e+02  -5.4621456168e+01   0.03778525   0.02316476 -43.47  0.001354229    1.697    0.411
       462 -11.2922    126.2535    241.8275   2.7042077172e+02  -5.4114052126e+01    0.0272966    0.0241771 -20.44 0.0006023414    1.190    0.160
