#   1 NUMBER                 Running object number                                     
#   2 MAG_AUTO               Kron-like elliptical aperture magnitude                    [mag]
#   3 X_IMAGE                Object position along x                                    [pixel]
#   4 Y_IMAGE                Object position along y                                    [pixel]
#   5 X_WORLD                Barycenter position along world x axis                     [deg]
#   6 Y_WORLD                Barycenter position along world y axis                     [deg]
#   7 A_WORLD                Profile RMS along major axis (world units)                 [deg]
#   8 B_WORLD                Profile RMS along minor axis (world units)                 [deg]
#   9 THETA_WORLD            Position angle (CCW/world-x)                               [deg]
#  10 FWHM_WORLD             FWHM assuming a gaussian core                              [deg]
#  11 ELONGATION             A_IMAGE/B_IMAGE                                           
#  12 ELLIPTICITY            1 - B_IMAGE/A_IMAGE                                       
         1 -12.5187    175.5299     21.0039   5.1614180979e+01   3.8130553944e+01    0.6388004    0.4951229 -49.48  0.003334349    1.309    0.236
         2 -13.6207    145.3040      3.6199   4.9314376768e+01   4.7742006515e+01    0.9613255    0.6845672  69.70  0.004854717    1.374    0.272
         3 -10.7918    170.2120      7.5893   4.7696197474e+01   4.0803739991e+01    0.2028021     0.122316  58.08 0.0003357922    1.614    0.380
         4 -10.2043    250.0000      4.0039   4.0364116884e+01   2.2077118411e+01     0.207928   0.06120562 -21.02 0.0008062731    2.969    0.663
         5 -11.4486      4.0518      3.2492   1.0301894113e+02   7.6517181383e+01    0.3370216    0.2083914  -5.45   0.00199473    1.853    0.460
         6 -12.9558    138.1672      4.4761   5.0669910819e+01   4.9566147088e+01    0.6082497    0.5501915   7.28  0.002587618    1.123    0.110
         7  -9.5817    123.8597    205.8580   1.0660458074e+02   1.8684339358e+01    0.1585895    0.1314295  32.49  0.001126298    1.092    0.084
         8 -11.8516    248.6660    248.5031   9.1111773367e+01  -2.7715087859e+00    0.2586293    0.2051935   3.28  0.002330604    1.423    0.297
         9 -18.8712     66.3315    226.3618   1.1953336903e+02   2.2848970387e+01     3.597224     2.552743  48.20   0.01718314    1.062    0.059
        10 -10.7363    187.6835    231.8607   9.8342619068e+01   6.3636580105e+00    0.1986549    0.1595678 -25.26 0.0009329046    1.531    0.347
        11  -8.6744    139.2452    199.2237   1.0275818336e+02   1.7450813176e+01     0.104645   0.07961239  17.59            0    1.374    0.272
        12  -9.6683    133.2369    198.5387   1.0384557311e+02   1.8445395374e+01    0.1840566    0.1356713 -29.62 0.0006635015    1.718    0.418
        13  -9.6163    150.4609    231.7537   1.0470892335e+02   1.1414597877e+01    0.1683381    0.1096332 -56.81  0.001133763    2.269    0.559
        14  -9.5747    235.4591    195.2305   8.5128996440e+01   3.6142031193e+00    0.1384102   0.09736825 -29.75 0.0009421184    1.682    0.405
        15 -11.2831    127.6400    229.6544   1.0855129148e+02   1.4750545199e+01     0.476049    0.1872136  38.97  0.002600974    1.916    0.478
        16 -10.4136    223.2901    187.9341   8.5825120827e+01   6.1373947601e+00    0.3015295    0.1681847 -14.60 0.0008461365    1.876    0.467
        17 -10.5276    158.5051    228.5179   1.0291598818e+02   1.0717717646e+01    0.1687656    0.1096707 -43.34 0.0008417055    1.993    0.498
        18 -10.1839    187.6888    177.3581   9.0124816480e+01   1.2977394241e+01    0.2781852    0.1810254  31.17  0.001224966    1.330    0.248
        19  -9.8576    192.5601    176.9914   8.9175880199e+01   1.2235145698e+01    0.1934228    0.1404898  24.60 0.0003325463    1.179    0.152
        20 -10.3461      5.8347    228.0605   1.3045740337e+02   2.8529311439e+01    0.1639437    0.1115578  39.25 0.0007781945    1.349    0.259
        21 -10.2439    126.8387    220.7375   1.0774394865e+02   1.6087580101e+01    0.2769742    0.1394616 -60.76  0.001034846    2.846    0.649
        22 -10.5697     33.6298    166.5267   1.2199807299e+02   3.7127794230e+01    0.2042685    0.1951427 -32.38  0.001446132    1.416    0.294
        23 -12.7454     36.3033    157.6713   1.2066410954e+02   3.8689048114e+01     0.691655    0.3035003 -75.20  0.002950248    2.169    0.539
        24 -12.2039     42.5739    147.7872   1.1819700276e+02   4.0147421180e+01    0.4923539     0.367404   3.72  0.002051719    1.940    0.484
        25  -9.7765    121.4918    165.5177   1.0154444503e+02   2.5774532387e+01    0.2102383    0.1724427  54.46  0.000198256    1.201    0.167
        26  -9.0046    118.7067    163.3048   1.0181569273e+02   2.6624233642e+01     0.182813    0.1175291  51.79  0.000230706    1.552    0.356
        27  -9.7829    126.6320    239.1198   1.0968516260e+02   1.3634446835e+01    0.1314171    0.1109224  35.03 0.0003470449    1.135    0.119
        28 -10.4858    166.0197    218.6385   1.0034785358e+02   1.0889377485e+01    0.1746772    0.1558587  -7.26 0.0005007524    1.285    0.222
        29 -10.4329    107.6957    153.2615   1.0273911326e+02   3.0286738914e+01    0.2823085    0.2026405  42.96 0.0008704872    1.282    0.220
        30 -11.7498     97.2042    146.2355   1.0413136823e+02   3.3337164834e+01    0.2927871    0.2672136   8.53 0.0006635473    1.270    0.213
        31 -10.1607    109.9517    148.9320   1.0147917725e+02   3.0773974135e+01    0.2012429     0.186868  50.32 0.0005028744    1.003    0.002
        32 -14.4515     40.0264    248.6471   1.2538347099e+02   2.2285635321e+01    0.4812022     0.243221  32.72  0.002915057    1.756    0.431
        33 -13.3185     68.0416    144.1502   1.1121350993e+02   3.7937080299e+01     0.786341    0.4776396  65.00  0.004067911    1.827    0.453
        34 -12.6083     74.6403    140.3807   1.0896109597e+02   3.7868781899e+01    0.5252562    0.3924395 -78.80  0.002461884    1.365    0.267
        35 -13.2144     66.7900    134.3094   1.1015003473e+02   4.0248219340e+01    0.8567185    0.6347439  86.34  0.003059017    1.400    0.286
        36 -11.7466     60.2630    130.8812   1.1143578557e+02   4.1846361306e+01    0.3368397    0.3026207   9.45 0.0009518868    1.371    0.271
        37 -10.5691    107.3010    133.8962   9.9416273140e+01   3.4241142006e+01    0.2351483    0.2002944  46.39 0.0003953881    1.126    0.112
        38 -11.6309    249.5031    126.0542   6.9734626212e+01   9.0638516134e+00    0.3395087      0.10577 -27.39  0.001382402    2.804    0.643
        39 -10.8140     76.2176    126.7028   1.0635295491e+02   4.0646312831e+01    0.4604653    0.2007504  38.17 0.0008835918    2.225    0.551
        40 -10.1967     94.4858    125.2003   1.0108392070e+02   3.8191246912e+01    0.2431623    0.1859761  41.34 0.0005150722    1.287    0.223
        41 -10.0715     27.0339    146.6839   1.2204787161e+02   4.1913115294e+01    0.2233455    0.1549124 -73.97 0.0008883979    1.352    0.260
        42  -9.2193    109.5575    122.5608   9.6556158403e+01   3.6200462454e+01    0.1360987    0.1335503  24.05 0.0007084409    1.050    0.047
        43 -12.3969    249.2607    109.0077   6.6001874846e+01   1.1086862870e+01    0.4376597    0.2428285 -11.29  0.002217735    1.800    0.445
        44 -10.8268     64.0766    109.3670   1.0678837340e+02   4.6268955980e+01    0.6339635    0.2227902  33.80  0.002445763    2.938    0.660
        45  -9.4074    213.7207    105.9655   7.0475589722e+01   1.8182199565e+01    0.1843603    0.1586584  -9.86 0.0003998784    1.034    0.033
        46 -11.2663    248.1411     92.8561   6.2417695082e+01   1.3182606805e+01    0.3269673    0.1392439  32.01  0.001288209    3.350    0.701
        47  -9.7966    116.7759     66.9742   7.9529002419e+01   4.6102959214e+01     0.209389    0.1898583  -8.07  0.000280426    1.134    0.118
        48 -10.0253    151.6520     63.6784   7.0007897387e+01   3.8538285015e+01    0.2776592    0.2627652 -68.70 0.0007140603    1.159    0.137
        49 -11.5234    164.1335     48.5930   6.2609237019e+01   3.7707706022e+01    0.8241693    0.4116891 -22.30  0.003233544    2.103    0.524
        50  -9.0309    172.0006     50.0199   6.1712630509e+01   3.5539481827e+01     0.167238    0.1615189 -10.47 0.0009254128    1.008    0.008
        51 -10.9654    167.9600     41.4042   5.9559272151e+01   3.7701819551e+01    0.3849011    0.2913404   4.52 0.0007707641    1.491    0.329
        52 -12.7744     11.5548    206.6405   1.2875484268e+02   3.1594760005e+01    0.4745992    0.3318819  26.44  0.002420828    1.660    0.398
        53  -9.8223     15.1271     17.8667   1.0231582912e+02   7.2657988519e+01    0.1698511    0.1190562 -34.41            0    1.265    0.210
        54  -9.6957    150.7497    249.4345   1.0657731848e+02   9.2791478097e+00    0.1442991   0.07511298  30.18 0.0003044571    1.547    0.354
        55 -10.0962    128.1746    245.8083   1.1005810974e+02   1.2590289498e+01    0.1491988    0.1295366  44.01 0.0005999962    1.206    0.171
        56 -10.5275    115.0828    250.0383   1.1268529443e+02   1.3695537344e+01    0.1498748     0.123565  33.92 0.0005256374    1.171    0.146
        57 -10.8779    135.7414    238.2580   1.0799970382e+02   1.2560327945e+01    0.2633155     0.241039  16.44  0.001099347    1.263    0.208
