#   1 NUMBER                 Running object number                                     
#   2 MAG_AUTO               Kron-like elliptical aperture magnitude                    [mag]
#   3 X_IMAGE                Object position along x                                    [pixel]
#   4 Y_IMAGE                Object position along y                                    [pixel]
#   5 X_WORLD                Barycenter position along world x axis                     [deg]
#   6 Y_WORLD                Barycenter position along world y axis                     [deg]
#   7 A_WORLD                Profile RMS along major axis (world units)                 [deg]
#   8 B_WORLD                Profile RMS along minor axis (world units)                 [deg]
#   9 THETA_WORLD            Position angle (CCW/world-x)                               [deg]
#  10 FWHM_WORLD             FWHM assuming a gaussian core                              [deg]
#  11 ELONGATION             A_IMAGE/B_IMAGE                                           
#  12 ELLIPTICITY            1 - B_IMAGE/A_IMAGE                                       
         1  -8.6970    111.5795     33.9365   7.8219958640e+01   5.2734014821e+01    0.4216921    0.1925113 -21.90  0.001449674    2.609    0.617
         2  -7.7836     19.6171     21.7732   1.0730495194e+02   6.9020298822e+01    0.1544084   0.09480903 -54.48 0.0004622503    1.587    0.370
         3  -8.3037     29.9934     16.0318   9.9978221134e+01   6.9028277169e+01    0.1628072     0.142537 -64.39 0.0007841141    1.710    0.415
         4  -7.7776     83.4455     11.2106   7.6706277297e+01   6.1565218577e+01    0.1761616      0.11393 -35.28 0.0006605719    1.634    0.388
         5  -8.6723     55.7247     10.0835   8.5926450984e+01   6.6566433123e+01    0.1823927     0.174286 -43.17 0.0007019593    1.487    0.328
         6  -7.8832     47.4708     10.2155   8.9374453882e+01   6.7765552932e+01    0.1625286    0.1029745 -40.62  0.000931597    1.664    0.399
         7  -7.8094      7.6112     15.7978   1.1086466136e+02   7.0993443546e+01    0.1477644   0.09061148 -58.25 0.0004178402    1.625    0.384
         8  -8.2899     90.8486      9.1284   7.3539307117e+01   6.0317474020e+01    0.1922952    0.1775661 -39.78  0.000602624    1.319    0.242
         9  -7.8597    101.3740      8.1727   7.0250529331e+01   5.8183768172e+01    0.1804507    0.1161877 -32.34 0.0003900134    1.630    0.386
        10  -8.5231     33.5132      5.0704   9.3010340058e+01   7.0318996673e+01    0.2812532    0.1663996 -51.87  0.001480367    2.645    0.622
        11  -8.5102     79.0078      3.7652   7.4556491859e+01   6.3259089568e+01    0.2722524    0.1547928 -32.57  0.001100703    1.812    0.448
        12  -7.6012     44.7787      3.5588   8.7115784174e+01   6.9047175785e+01     0.139342    0.1126349  39.82 0.0005026876    1.559    0.358
        13  -8.4247     62.1800      1.5803   7.9140883295e+01   6.6563835337e+01    0.1650896    0.1478028  42.75 0.0005632489    1.399    0.285
        14  -7.8106    115.4928      2.4519   6.4475949350e+01   5.5530313345e+01    0.1341873    0.1227742  34.43 0.0008082812    1.044    0.042
        15  -9.0247    120.2624    245.6740   1.2158873089e+02   1.0974729469e+01    0.3061535    0.1730158  71.33  0.001500077    2.351    0.575
        16  -8.4049     94.0423    249.7430   1.2632719725e+02   1.4092286476e+01    0.2330912    0.1126254  67.05  0.001303248    2.374    0.579
        17  -7.2087     86.3180    250.6781   1.2766115472e+02   1.4992227981e+01    0.1116786   0.06027627  63.93  0.000704324    1.666    0.400
        18  -8.5045     67.8973    245.5510   1.3026805646e+02   1.8160294034e+01    0.2601532    0.1196445  74.05  0.001457529    2.537    0.606
        19  -8.7532    139.5150    244.5516   1.1819786271e+02   8.2531675668e+00    0.1673795    0.1063313 -74.05 0.0007827758    2.350    0.575
        20  -9.7571     10.5634    245.3079   1.3911001840e+02   2.4574509225e+01    0.3669739    0.1204888  65.76  0.002169368    2.464    0.594
        21  -8.2523     50.4183    244.6849   1.3300482593e+02   2.0415630175e+01    0.1897156   0.07395861  87.55 0.0009545367    3.430    0.708
        22  -8.7212    201.9677    243.0647   1.0741522086e+02  -1.2338166968e+00    0.2126441    0.1628522 -45.97  0.001230275    1.852    0.460
        23  -8.6401    169.1697    243.5065   1.1300999346e+02   3.8092250468e+00    0.1978495    0.1525644  62.30 0.0006174954    1.496    0.332
        24  -8.5897     78.0093    243.6387   1.2848031679e+02   1.7165453574e+01    0.2542115    0.1027266  63.42   0.00128937    2.744    0.636
        25  -9.2770    248.5041    242.3305   9.9767546210e+01  -8.0292696621e+00     0.208951    0.1749952 -18.65 0.0007279656    1.535    0.348
        26  -9.6468    247.9121    234.9752   9.8733701183e+01  -7.2450934281e+00    0.3792865    0.1930907  35.62  0.001991109    1.559    0.358
        27  -9.3021    246.6345    229.7414   9.8114189773e+01  -6.5436910676e+00     0.323806    0.1848147 -29.16  0.001240503    1.960    0.490
        28  -8.9409    194.0798    239.6709   1.0827385972e+02   3.8010756260e-01    0.1777193     0.161684 -61.05 0.0007744026    1.601    0.375
        29  -9.4027    183.2251    240.5152   1.1023062420e+02   1.9804434569e+00    0.3735227     0.202666  57.81  0.001759778    2.523    0.604
        30  -9.5024    160.3488    240.5040   1.1415243780e+02   5.5793869353e+00    0.2879094    0.2054185 -88.89  0.001297932    2.322    0.569
        31  -8.0919     88.1971    242.1983   1.2667563612e+02   1.6035170452e+01    0.1488908   0.09802558  70.82 0.0006181864    1.383    0.277
        32  -8.0852    214.5029    240.9803   1.0504298321e+02  -2.9189100232e+00    0.1460001    0.1072344 -22.06   0.00103267    1.592    0.372
        33  -8.4761    209.1193    238.6787   1.0560712778e+02  -1.8423391593e+00     0.172122    0.1344027 -53.65 0.0009056715    2.035    0.509
        34  -8.7850    135.9902    239.1199   1.1820704684e+02   9.5576488542e+00    0.2225997     0.123362  56.01  0.001256129    1.692    0.409
        35  -8.6108    129.0206    238.9750   1.1940002791e+02   1.0641860458e+01      0.18231    0.1129131  63.77 0.0007178648    1.700    0.412
        36  -8.9338    231.0071    237.1019   1.0177016653e+02  -4.9903624397e+00    0.2209911    0.1984591  78.79  0.001197705    2.048    0.512
        37  -7.8868    189.4453    237.2764   1.0873359427e+02   1.3957506335e+00    0.1270534    0.1138352 -57.29 0.0007979606    1.573    0.364
        38  -9.0790    216.6705    235.3571   1.0386621513e+02  -2.6359753054e+00    0.2449342    0.1759006  56.08  0.001450416    1.901    0.474
        39  -9.4602    213.8172    231.7748   1.0381096267e+02  -1.7928181198e+00    0.2785254    0.2258786 -56.26  0.001108406    2.006    0.502
        40  -9.2675    203.2200    234.4375   1.0599027840e+02  -4.3858333729e-01    0.2835973    0.1924948 -52.23  0.001273331    2.301    0.565
        41  -9.6990    175.8132    233.5136   1.1057514509e+02   4.0431557859e+00    0.3830736    0.2346464 -60.52  0.002174627    2.672    0.626
        42  -8.3842    170.3154    236.0147   1.1186170320e+02   4.5955829272e+00    0.1475088    0.1353949  40.56 0.0004567241    1.185    0.156
        43  -9.3558    109.1017    234.6372   1.2241771508e+02   1.4268474402e+01    0.4079693    0.1709292  54.59  0.001185326    2.190    0.543
        44  -7.8501    153.0183    235.5090   1.1481629475e+02   7.4135401034e+00     0.167603   0.08046645  57.07 0.0008097152    2.477    0.596
        45  -8.3811    122.9601    234.2914   1.1995588676e+02   1.2258202369e+01    0.2137971    0.1260913  80.81 0.0009903887    2.628    0.619
        46  -8.5081     99.4893    234.4296   1.2406971028e+02   1.5687889054e+01    0.2492145    0.1255556  66.93  0.001174769    2.329    0.571
        47  -8.6429     78.9521    234.6430   1.2761745190e+02   1.8476699342e+01    0.2291729    0.1229583  73.16 0.0009565568    1.981    0.495
        48  -9.2279     68.3475    232.3746   1.2923927388e+02   2.0227166191e+01    0.4087035    0.1683162  70.17  0.001929886    3.272    0.694
        49  -8.6252    194.7397    232.4987   1.0715916231e+02   1.1373065927e+00    0.2204324    0.1579166 -42.10    0.0010585    1.804    0.446
        50  -9.4541    186.4967    230.9413   1.0836278943e+02   2.6542672060e+00    0.3249804    0.2346296  87.18  0.001429847    2.887    0.654
        51  -9.1989    141.6336    231.0693   1.1628912024e+02   9.8493906681e+00    0.5839041    0.2279659  58.28  0.002135177    4.498    0.778
        52  -8.2683    132.7357    232.9196   1.1808197667e+02   1.0967108513e+01    0.1790178    0.1171095  74.48  0.001063966    1.963    0.491
        53  -8.1690    153.5022    242.0285   1.1551412513e+02   6.4450565188e+00    0.1370052    0.1152431 -57.10 0.0006514648    1.543    0.352
        54  -8.4528     92.3948    231.7226   1.2505327128e+02   1.7122247007e+01    0.2386039    0.1174725  70.60 0.0009317696    2.611    0.617
        55  -8.8124    236.1386    230.8875   9.9984829630e+01  -5.1112347396e+00    0.1839246    0.1583278  13.78 0.0005758321    1.238    0.193
        56  -8.8351      1.6978    230.8801   1.3988325650e+02   2.7750078839e+01    0.1852369    0.0848442  74.83 0.0008910405    1.662    0.398
        57  -8.9523    151.5000    229.0101   1.1427859330e+02   8.5773455024e+00    0.2380185    0.1669779  75.69  0.001202325    1.961    0.490
        58  -9.4955    148.8318    224.7042   1.1421118643e+02   9.6389032421e+00    0.3311172    0.2306903  87.41  0.001434753    2.186    0.543
        59  -8.2222    229.8284    229.0098   1.0072436258e+02  -3.9593957957e+00      0.14593    0.1322095 -59.13 0.0006272232    1.873    0.466
        60  -8.8142    162.5440    228.4894   1.1224301524e+02   6.8664022473e+00    0.3059875    0.1627398  57.11  0.001286985    2.192    0.544
        61  -8.8142    128.0653    227.5082   1.1829774524e+02   1.2514814739e+01    0.2688528    0.1566329  62.53  0.001370778    1.856    0.461
        62  -8.2581    120.0619    228.0263   1.1979154616e+02   1.3666652091e+01    0.1842714    0.1171282  66.78 0.0009263005    1.666    0.400
        63  -9.2213    225.4163    221.6516   1.0029628205e+02  -2.4594328242e+00    0.2058092    0.1806027  -8.22 0.0006714191    1.292    0.226
        64  -8.1835     49.3720    226.9085   1.3205254383e+02   2.3470220984e+01    0.2207405    0.1059675  74.42   0.00115658    2.056    0.514
        65  -8.7519    206.1409    225.8520   1.0422388986e+02   1.1752562754e-01    0.1728289    0.1589976 -38.32 0.0007496536    1.465    0.317
        66  -8.4057    199.9802    226.0862   1.0532080523e+02   1.0828180204e+00     0.181899    0.1528963 -21.43   0.00104553    1.390    0.280
        67  -8.8407     94.3205    224.5432   1.2404244141e+02   1.8033083512e+01    0.3487051    0.1701411  68.07  0.001747431    2.573    0.611
        68  -8.0862     39.1259    225.5735   1.3368003435e+02   2.4870021812e+01    0.2704901   0.08344275  64.68  0.001152024    3.972    0.748
        69  -8.9480    216.6013    223.4999   1.0207602788e+02  -1.2770780173e+00    0.2708534    0.1853942 -44.49  0.001116693    2.030    0.507
        70  -8.9204    180.4745    224.1047   1.0845067376e+02   4.5300152703e+00    0.2185876    0.2014315  81.77 0.0007345844    1.422    0.297
        71  -8.6437    173.2744    223.5638   1.0965704843e+02   5.7927795569e+00    0.2299808    0.1742934  68.65 0.0008242317    1.726    0.421
        72  -7.9865    113.8239    224.3316   1.2051143502e+02   1.5204143953e+01    0.1573019    0.1239888  67.91 0.0005864775    1.166    0.143
        73  -8.7807    104.7155    223.4929   1.2206920115e+02   1.6702086578e+01    0.2821142     0.171859  83.42  0.001629835    2.065    0.516
        74  -7.4426    233.2994    223.6857   9.9311130127e+01  -3.9125927915e+00   0.09911271   0.08908048  50.98 0.0004394611    1.609    0.379
        75  -9.3140    192.5933    221.5899   1.0593792778e+02   2.8609476625e+00    0.2767523    0.2227688  79.34  0.001039058    1.973    0.493
        76  -8.4351    140.7355    222.9857   1.1546334413e+02   1.1206437328e+01    0.1819203    0.1240108  77.41  0.001051086    1.983    0.496
        77  -7.6627     59.3846    223.6870   1.3011894840e+02   2.2821268986e+01    0.1212915   0.05956664  63.96 0.0007019605    1.817    0.450
        78  -8.8295    238.9314    221.3647   9.8010915964e+01  -4.5226538560e+00     0.208497    0.1521337 -30.94 0.0007497749    1.649    0.394
        79  -9.1978    160.0974    221.1070   1.1169286697e+02   8.3230078286e+00    0.4773394     0.209378  56.18  0.002038531    3.015    0.668
        80  -8.8364     82.8547    220.7450   1.2573977916e+02   2.0277920242e+01    0.3352432    0.1603233  72.55  0.001312304    2.795    0.642
        81  -8.1662     73.4253    221.2910   1.2747017863e+02   2.1448722492e+01    0.2583731    0.1111946  63.27  0.001297644    2.486    0.598
        82  -9.5665      6.5252    221.0410   1.3874266799e+02   2.8972993731e+01    0.2969709   0.09471701  73.13   0.00150599    3.126    0.680
        83  -9.2626    120.5664    219.2413   1.1870857298e+02   1.4998362742e+01    0.4383551    0.2359761  69.40  0.001726422    2.677    0.626
        84  -7.9702     27.5064    221.5172   1.3536942816e+02   2.6826312283e+01    0.1039274     0.074145  70.80 0.0001771939    1.015    0.015
        85  -8.2976    202.8161    220.1483   1.0392634389e+02   1.3608573866e+00    0.1716799    0.1484879  44.82 0.0005912031    1.283    0.221
        86  -8.7260    248.9032    218.2991   9.5887916278e+01  -5.7023970161e+00    0.3059844     0.208767  63.99  0.001564801    3.543    0.718
        87  -8.3217    209.9303    218.9993   1.0251186001e+02   3.3879889043e-01    0.1801032     0.157601 -24.01 0.0005572199    1.366    0.268
        88  -9.3727    132.9387    216.1463   1.1604139851e+02   1.3539440109e+01    0.4257537    0.2534599  78.25  0.002063932    2.824    0.646
        89  -7.9648    112.1876    217.7665   1.2008656935e+02   1.6534010024e+01     0.202482     0.104737  69.10 0.0009470569    2.759    0.638
        90  -9.0524     51.6320    217.3237   1.3099771851e+02   2.4874361541e+01    0.2343867     0.124004  80.61 0.0009045663    1.846    0.458
        91  -8.5105    142.9190    216.5267   1.1423499139e+02   1.1853368802e+01    0.2083281    0.1607218  89.14 0.0008244343    1.642    0.391
        92  -8.2861     61.6934    217.1006   1.2920758664e+02   2.3687869146e+01    0.1776677    0.1072099  76.55 0.0008565704    1.520    0.342
        93  -8.7435    232.6613    214.2522   9.7873803820e+01  -2.7567526008e+00    0.3513339    0.2055373 -23.47  0.001543941    1.845    0.458
        94  -8.0310     18.5090    215.9774   1.3656160198e+02   2.8713529559e+01    0.1509342   0.08002332 -85.94  0.001035593    1.602    0.376
        95  -8.6099    185.6511    214.4276   1.0609043943e+02   4.9825819488e+00    0.2080755    0.1775241  81.72 0.0008624865    1.660    0.398
        96  -8.3399    154.4529    215.1217   1.1190621587e+02   1.0157525982e+01    0.1916379    0.1466973  59.29 0.0007115275    1.315    0.240
        97  -8.8308     93.4943    214.3033   1.2317497842e+02   1.9902075230e+01    0.3404351    0.1542014  63.06  0.001340595    2.643    0.622
        98  -9.5315     73.2341    212.1089   1.2670060981e+02   2.3094552718e+01    0.5662214     0.207167  62.27  0.002306827    3.716    0.731
        99  -8.1921    224.9501    212.9711   9.8959272273e+01  -1.3734080221e+00    0.1642148    0.1482547  68.74  0.001119514    1.715    0.417
       100  -9.3258    213.7639    212.2172   1.0075615399e+02   5.4973987048e-01    0.2822804    0.2216288  59.13  0.001513904    1.733    0.423
       101  -8.9257    161.7279    212.5463   1.1019262959e+02   9.3224393226e+00    0.2123346    0.1836032  76.33 0.0007167902    1.374    0.272
       102  -8.9714    204.4626    210.9047   1.0217164001e+02   2.2719655220e+00    0.2405335    0.2072908 -66.99 0.0007462875    1.772    0.436
       103  -9.4789    175.5553    210.0814   1.0726742242e+02   7.3244144075e+00    0.3673941    0.2667622  77.09  0.001464749    2.186    0.543
       104  -8.0262      8.9520    212.4754   1.3796747106e+02   3.0249428363e+01    0.1492922   0.04523402  55.47 0.0008089149    2.480    0.597
       105  -8.5363    192.4185    210.6359   1.0427877204e+02   4.3525713314e+00    0.1966792    0.1204065 -45.36 0.0007786246    2.046    0.511
       106  -8.9058    148.0919    210.5958   1.1246707812e+02   1.1930848790e+01    0.2471711    0.1771957  77.29   0.00131262    1.854    0.461
       107  -8.9941    116.3542    210.4400   1.1845521858e+02   1.7131333964e+01    0.3108377    0.1907302  73.17  0.001110864    2.024    0.506
       108  -8.8345     85.8317    209.7397   1.2413870840e+02   2.1801502387e+01    0.3192807    0.1685187  76.99  0.001377272    2.442    0.591
       109  -8.2635     32.7350    211.1416   1.3387158788e+02   2.8118686833e+01     0.198095   0.07078654  65.15 0.0009618302    2.871    0.652
       110  -8.9257    236.6495    208.6892   9.6266458905e+01  -2.7485919930e+00    0.2532211    0.2206855  73.13  0.001208661    1.999    0.500
       111  -8.7199    169.3175    216.1700   1.0931789894e+02   7.5006880994e+00    0.2664376    0.1920208  88.91  0.001025852    2.386    0.581
       112  -9.3029    246.3546    207.3507   9.4434917886e+01  -4.1241213934e+00    0.2311336     0.183239 -12.48 0.0005397341    1.265    0.210
       113  -8.1778    156.2536    208.0131   1.1056104114e+02   1.0954338281e+01    0.1886951    0.1377321  84.17  0.001054525    1.999    0.500
       114  -8.2421    126.2248    208.2081   1.1629876685e+02   1.5939248442e+01    0.1683969    0.1273361  71.33 0.0005743939    1.373    0.272
       115  -9.2796     99.5417    206.3802   1.2118498162e+02   2.0418990002e+01    0.3746518    0.2105082  78.97  0.001669504    2.429    0.588
       116  -8.7145      5.5081    207.9718   1.3832761271e+02   3.1370056549e+01    0.1483534   0.07643791 -87.73  0.001021614    1.564    0.360
       117  -8.4117     56.8180    205.7474   1.2916897259e+02   2.6350849164e+01    0.2750332    0.1192436  63.53  0.001405948    2.344    0.573
       118  -8.1446     11.4855    206.5420   1.3725560642e+02   3.1081432666e+01    0.1036734   0.07304674  74.20 0.0004011154    1.006    0.006
       119  -9.4574    194.9567    203.6953   1.0269426467e+02   4.8762797342e+00    0.3499976    0.2904225 -38.08  0.001341806    1.433    0.302
       120  -9.2123    192.4908    197.3924   1.0208908595e+02   6.2091421006e+00    0.3674922    0.3038785 -43.65  0.001432249    1.458    0.314
       121  -8.9734    183.9082    204.1733   1.0479847946e+02   6.7369618487e+00    0.2873293    0.2009757  66.36 0.0009082802    2.036    0.509
       122  -8.7298    131.5419    204.1619   1.1474427003e+02   1.5757318479e+01    0.3042215     0.185915  70.52  0.001256594    2.192    0.544
       123  -8.4215    109.0375    204.8571   1.1918342076e+02   1.9247339972e+01    0.2076114    0.1437111 -87.77 0.0007981453    1.658    0.397
       124  -7.7264     92.3866    205.1482   1.2241782443e+02   2.1695206969e+01    0.1599124    0.1016878 -86.21 0.0006308297    1.746    0.427
       125  -7.8460     25.3161    204.9936   1.3478570224e+02   3.0017828185e+01    0.1750961   0.05895117  80.54 0.0007042285    4.216    0.763
       126  -9.3774    250.1071    202.1219   9.2904031575e+01  -4.1205350646e+00    0.3339454    0.1615261 -28.98  0.001212335    2.115    0.527
       127  -8.0445    237.8761    204.1345   9.5271915482e+01  -2.4130725382e+00    0.1709076    0.1150749  19.40  0.000423396    1.310    0.236
       128  -8.0725    218.2327    204.6210   9.8705520764e+01   7.6235235946e-01    0.1756026   0.09655365  33.21 0.0004225639    1.583    0.368
       129  -9.6538    163.8344    203.1293   1.0839649942e+02   1.0409777330e+01    0.3668653    0.2258588  59.93  0.001039508    1.934    0.483
       130  -8.5916    210.9641    202.1778   9.9563388258e+01   2.3140145084e+00    0.1903448    0.1760145 -78.70  0.000575283    1.605    0.377
       131  -8.1311     48.6363    202.7650   1.3043609103e+02   2.7886292361e+01    0.2480611    0.1049964  80.23  0.001146191    3.082    0.676
       132  -8.6166    139.2957    208.1490   1.1379683810e+02   1.3800110310e+01    0.2355389    0.1660936  71.98 0.0007743599    1.697    0.411
       133  -9.1640    243.0249    200.8706   9.3840234284e+01  -2.8566078474e+00    0.2454055     0.166321 -29.49 0.0007516204    1.594    0.373
       134  -7.8833    222.4332    201.9521   9.7515407263e+01   3.9490494898e-01    0.1515483    0.1069156 -57.71 0.0007072089    2.547    0.607
       135  -8.8518    140.4518    201.1068   1.1259220178e+02   1.4780555995e+01    0.3139595    0.2044493  78.29  0.001072672    2.298    0.565
       136  -8.5125     80.0922    201.4408   1.2438543974e+02   2.4121972715e+01     0.266274    0.1423195  70.35  0.001397854    2.093    0.522
       137  -8.3264     73.3392    202.2127   1.2575492535e+02   2.4895378336e+01    0.1584628   0.09511644 -85.48 0.0005434303    1.713    0.416
       138  -8.3289      9.9751    202.4948   1.3730743845e+02   3.1961556758e+01     0.143122   0.08405297  45.80 0.0008999518    1.581    0.367
       139  -9.5701    149.5962    198.7906   1.1047431922e+02   1.3595839044e+01    0.3825872    0.2561434  84.97  0.001338091    2.461    0.594
       140  -9.1436    236.8236    198.6440   9.4475461914e+01  -1.5864687213e+00    0.2507598    0.2024455 -30.36  0.001135971    1.458    0.314
       141  -8.9796    123.9097    199.2903   1.1557591378e+02   1.7863308087e+01    0.2754389    0.1869125  78.76  0.001265104    1.832    0.454
       142  -9.2858    113.0295    198.5612   1.1762371364e+02   1.9752156667e+01    0.4132772     0.223823  70.68  0.001734595    2.700    0.630
       143  -9.2299     88.6648    198.5977   1.2241957530e+02   2.3443349837e+01    0.3470823     0.197185  76.93  0.001610602    2.135    0.532
       144  -8.4782    176.9253    199.1517   1.0528924569e+02   8.7169787112e+00    0.1889671    0.1609193  57.14 0.0005884269    1.266    0.210
       145  -8.0890    202.1701    197.7191   1.0037274664e+02   4.4493626045e+00    0.1897863    0.1444281  51.21 0.0004648499    1.426    0.299
       146  -9.1467     61.4725    196.8530   1.2751873111e+02   2.7450006241e+01    0.4028249    0.2106668  84.80  0.002126462    2.121    0.529
       147  -8.5474     12.7571    197.2819   1.3654743332e+02   3.2673778898e+01    0.2557061     0.102364  83.31  0.001399346    2.344    0.573
       148  -8.4655    133.0419    196.1214   1.1333323540e+02   1.6899166986e+01    0.2377578    0.1740726 -77.60 0.0007863804    1.673    0.402
       149  -8.6198    215.8306    195.7983   9.7587796235e+01   2.3226376899e+00    0.2116057    0.1706609 -42.66 0.0007793453    1.570    0.363
       150  -8.7376    224.4300    194.2903   9.5809776525e+01   1.0381616548e+00    0.2526368    0.1882886 -45.42  0.001018577    1.791    0.442
       151  -8.8861    185.2950    194.9320   1.0301158756e+02   7.8603300341e+00    0.2247274    0.1974369  53.24 0.0006580883    1.234    0.190
       152  -9.0690    160.8854    194.3574   1.0758931322e+02   1.2337953193e+01    0.3002426    0.2165053  74.30 0.0008938694    1.912    0.477
       153  -8.9691     43.5890    193.4361   1.3064024200e+02   3.0245040761e+01    0.3395092    0.1625333  72.29  0.001835292    2.136    0.532
       154  -9.0825    245.5675    193.4166   9.2071411257e+01  -2.3850309194e+00    0.2092993    0.2033916  49.14 0.0007982276    1.543    0.352
       155  -8.0623    230.9885    194.3260   9.4685732307e+01  -8.1514540653e-02    0.1736554    0.1393293  24.85 0.0005902048    1.073    0.068
       156  -8.7399     76.8600    193.9368   1.2423440269e+02   2.5988971953e+01    0.1983409    0.1422581  88.37 0.0005082156    1.316    0.240
       157  -7.9718    198.9794    191.9973   9.9955915595e+01   5.8315545049e+00     0.180923    0.1573171  77.31 0.0004937099    1.611    0.379
       158  -7.9693    179.0164    191.6988   1.0365096967e+02   9.4918609038e+00    0.1806291    0.1495281  37.66 0.0004473875    1.050    0.047
       159  -8.4048    172.3044    191.8121   1.0495870360e+02   1.0693141570e+01    0.2068848    0.1594296 -49.00 0.0008761525    1.524    0.344
       160  -9.1150    139.5362    190.6652   1.1123326203e+02   1.6745073974e+01    0.3139443    0.2159587  75.08   0.00118921    1.902    0.474
       161  -7.4132    205.3085    191.6957   9.8743773755e+01   4.7402087699e+00    0.1171407    0.1016534  71.87 0.0002934152    1.607    0.378
       162 -10.4611     92.1400    188.7932   1.2058784104e+02   2.4802914627e+01    0.8493568    0.2575262  51.11  0.003220134    3.376    0.704
       163  -8.5800      6.4385    191.2507   1.3734141883e+02   3.4380558039e+01    0.1505259   0.07340593  84.23 0.0009491109    1.666    0.400
       164  -8.9241    129.3002    188.6981   1.1300397122e+02   1.8866059054e+01    0.2877155    0.1944447  77.71  0.001003074    1.925    0.481
       165  -9.9535    120.8851    186.8613   1.1445254429e+02   2.0627639441e+01    0.5121342    0.2739874 -73.84  0.002261425    2.835    0.647
       166  -8.9461    249.1757    186.3444   9.0161019771e+01  -2.1219635950e+00    0.3631125    0.1963467 -27.59  0.001809355    1.829    0.453
       167  -8.2726    237.2138    188.4946   9.2553406793e+01  -3.9598366660e-01    0.2173974    0.1579098 -21.83  0.000662321    1.377    0.274
       168  -8.9536    216.5135    188.0806   9.6069529693e+01   3.2484437267e+00    0.2307569    0.2115117 -43.94 0.0007330095    1.416    0.294
       169  -7.5061    210.3242    189.6756   9.7471027334e+01   4.1288759235e+00    0.1184581     0.103219  77.08 0.0003386285    1.687    0.407
       170  -9.2375    155.9086    187.4266   1.0744575269e+02   1.4395781224e+01    0.3177556    0.2195089 -68.42  0.001004942    1.978    0.494
       171  -8.6966    148.4405    189.0164   1.0919330140e+02   1.5463763705e+01    0.2254011    0.1838624 -88.67 0.0009189774    1.493    0.330
       172  -8.8477     34.2256    188.2836   1.3202074399e+02   3.2274282975e+01    0.2889905    0.1417268  76.86   0.00096566    1.987    0.497
       173  -7.6779    242.7144    188.3460   9.1603331450e+01  -1.2995995023e+00    0.1071244    0.1003878 -58.41 0.0007019597    1.649    0.393
       174  -8.7787    191.4175    187.5076   1.0056620023e+02   7.8715774556e+00    0.2519559    0.2196574 -89.97  0.001257801    1.605    0.377
       175  -9.0982     54.6668    186.8772   1.2792317518e+02   3.0234767597e+01    0.3709419    0.1790739  74.03  0.001565934    2.395    0.583
       176  -8.1414    230.2493    187.2412   9.3507104783e+01   9.5456734075e-01    0.1529074    0.1511218   5.41  0.000945989    1.389    0.280
       177  -8.8529    164.8257    186.3645   1.0549982524e+02   1.2949216850e+01    0.2615494    0.1862438 -65.22 0.0009599308    1.894    0.472
       178  -9.2730    109.5301    186.2323   1.1669698710e+02   2.2607996168e+01    0.3341961    0.2179133  74.14  0.001008298    1.790    0.441
       179  -8.7257    182.7859    184.9962   1.0176047963e+02   9.8536782953e+00    0.2793515    0.1839224 -44.43 0.0009732128    1.739    0.425
       180  -8.6472    210.1461    184.3339   9.6520578999e+01   4.9168692879e+00    0.2135269    0.1824216 -30.82 0.0005158872    1.309    0.236
       181  -8.6486    202.9494    184.6869   9.7903559309e+01   6.1780786331e+00     0.243931    0.2000258 -75.97  0.001012497    1.932    0.482
       182  -9.2451     66.8601    184.5746   1.2524889573e+02   2.9161587179e+01    0.3583355    0.1836426  59.06  0.001244324    1.868    0.465
       183  -8.3849    224.1277    183.6691   9.3899493155e+01   2.5006083435e+00    0.1956166    0.1679698 -27.80 0.0005141486    1.308    0.236
       184  -9.1319    174.2247    183.0695   1.0308009527e+02   1.1756634654e+01    0.3949766    0.2077574 -46.20  0.001392929    2.175    0.540
       185  -7.9452      1.8133    183.7866   1.3778063774e+02   3.6202469222e+01    0.1504444   0.08660788  66.73  0.001053678    1.365    0.268
       186  -9.1772    241.4111    182.0322   9.0624541295e+01  -2.8826186516e-01    0.3494395    0.2438549 -58.87  0.001760061    2.838    0.648
       187  -7.9483    196.8620    183.3403   9.8787580760e+01   7.4996748895e+00    0.1694641    0.1655856 -15.63  0.000698882    1.207    0.171
       188  -8.9139     44.5241    182.4286   1.2953431012e+02   3.2308943402e+01    0.3306842    0.1654142  68.58  0.001423839    1.997    0.499
       189  -8.5466     19.3812    183.1457   1.3447933205e+02   3.4771832252e+01    0.1616458     0.079014  87.57 0.0009499114    1.784    0.440
       190  -9.3266    147.5082    180.7471   1.0803683148e+02   1.7094150073e+01    0.3193116     0.245588  88.07  0.001048776    1.680    0.405
       191  -7.9903     83.1827    182.2150   1.2163129287e+02   2.7402679012e+01    0.1784873    0.1238036  73.47  0.000522796    1.394    0.283
       192  -7.5297    235.2917    181.6632   9.1587020368e+01   8.1055603546e-01    0.1114818     0.103626 -69.04   0.00055941    1.642    0.391
       193  -9.5839     25.4514    178.6833   1.3299622010e+02   3.5073923027e+01    0.5833142    0.2087041  79.64  0.002329074    4.074    0.755
       194  -8.5612    137.8896    179.5514   1.0982210131e+02   1.9047370206e+01    0.3278929    0.2048192  68.70  0.001125846    2.151    0.535
       195  -8.7716    204.9977    178.1020   9.6290038160e+01   6.7753212397e+00    0.2657448    0.1861099 -26.20   0.00077796    1.527    0.345
       196  -9.3208    191.5852    178.4749   9.8882713830e+01   9.2354331199e+00    0.2965167    0.2231266  61.35 0.0006554937    1.629    0.386
       197  -8.1119    169.2911    178.7758   1.0329087505e+02   1.3397631044e+01     0.191636      0.16617 -83.70 0.0006368044    1.448    0.310
       198  -9.1119     36.0320    176.8411   1.3075117323e+02   3.4366760753e+01    0.4804163    0.1833298  80.43  0.001866697    4.123    0.757
       199  -9.6745    248.4571    176.6411   8.8412817696e+01  -8.0020053191e-01    0.3839781    0.2714105 -44.23  0.002140467    1.885    0.469
       200  -8.7104    250.5244    172.9028   8.7339079115e+01  -6.7707941469e-01    0.2383254    0.1600782 -30.38 0.0005069681    1.502    0.334
       201  -8.5470    129.1887    177.5900   1.1132339984e+02   2.0955182831e+01     0.265678    0.1897676  84.92 0.0008277625    1.787    0.440
       202  -8.4227     98.0256    177.7652   1.1794346179e+02   2.6080970908e+01     0.187644    0.1485122  11.94 0.0008326392    1.913    0.477
       203  -9.2424     89.1582    177.0898   1.1973525849e+02   2.7561824127e+01      0.30422    0.1845883  80.40 0.0008903838    1.995    0.499
       204  -8.5702    231.1323    176.8452   9.1368585782e+01   2.1816965784e+00    0.2074816    0.1662997 -34.11 0.0006729257    1.410    0.291
       205  -8.3421    217.5008    177.1680   9.3831365957e+01   4.5993540012e+00    0.1933125    0.1786651  54.43 0.0005956909    1.353    0.261
       206  -9.2549    183.0218    176.3960   1.0014675765e+02   1.1191598392e+01    0.2714928    0.2539189  61.72 0.0004783314    1.209    0.173
       207  -9.5542    104.4797    175.0067   1.1617997482e+02   2.5615238819e+01    0.5050119    0.2587182  67.15   0.00208061    2.906    0.656
       208 -10.0815     57.2262    173.2209   1.2604127943e+02   3.2689648699e+01    0.7464195     0.320131  80.13  0.002752822    4.289    0.767
       209  -8.6537     13.0221    176.8078   1.3527710487e+02   3.6609891779e+01    0.2443753    0.1019109  65.74   0.00132959    2.239    0.553
       210  -7.9678    211.5356    176.4935   9.4779813335e+01   5.7969519074e+00    0.1326302    0.1166924  20.06 0.0003109624    1.029    0.028
       211  -9.4081    158.8829    175.1493   1.0474344230e+02   1.5987758645e+01    0.3921127    0.2602613  72.60  0.001325669    2.271    0.560
       212 -10.8150     75.9293    170.3052   1.2170531741e+02   3.0853086062e+01     1.070821    0.4048217 -76.56  0.003749665    4.314    0.768
       213  -7.7742    241.4563    174.4624   8.9144648002e+01   6.8167242345e-01    0.1288318    0.1080948   9.20 0.0001557645    1.012    0.012
       214  -8.2283    224.4970    174.0925   9.1986617272e+01   3.7558141886e+00     0.185304    0.1240792 -31.37 0.0007284727    1.542    0.352
       215  -9.4225    175.9551    172.4158   1.0079412872e+02   1.3206947653e+01    0.3129544    0.2491307 -57.02 0.0009559664    1.515    0.340
       216  -8.7325    198.0778    170.2775   9.6073032869e+01   9.2875687220e+00    0.2553487     0.172721  30.51   0.00080795    1.432    0.302
       217  -8.7941    142.8746    172.6235   1.0761983725e+02   1.9432558579e+01    0.2484738     0.177503 -74.48 0.0007154661    1.815    0.449
       218  -8.5371    134.7803    171.5583   1.0915058120e+02   2.1110834779e+01    0.2919236    0.1847839 -59.43  0.001098212    1.776    0.437
       219  -9.5692    121.3507    170.3607   1.1183426398e+02   2.3723327159e+01     0.366136    0.2498165 -77.49  0.001036302    1.790    0.441
       220  -9.2149     45.1203    171.0237   1.2835972389e+02   3.4568905466e+01    0.3478998    0.1719189  89.00  0.001316192    2.153    0.535
       221  -8.9258    230.3663    170.3657   9.0220478737e+01   3.2075771230e+00    0.2145461    0.1977698   3.48 0.0006842078    1.154    0.134
       222  -8.4363    205.7848    170.4452   9.4656756974e+01   7.7843512517e+00     0.243877    0.1705369 -51.79 0.0008124298    1.873    0.466
       223  -8.4551    237.1346    169.6669   8.8919030518e+01   2.0829365059e+00    0.2082594    0.1673745 -32.00 0.0006531776    1.360    0.265
       224  -9.1648    167.0618    168.7630   1.0189975986e+02   1.5556586142e+01    0.2978178    0.2355134 -87.04 0.0008735865    1.750    0.429
       225  -8.6892    149.7391    169.5222   1.0562986779e+02   1.8731871840e+01    0.2589687    0.1979157 -85.32 0.0007754791    1.731    0.422
       226  -8.3544    244.6321    169.1759   8.7562755885e+01   8.2148709313e-01    0.1870027    0.1516842 -32.95 0.0006092599    1.387    0.279
       227  -8.8803    111.7378    167.4800   1.1346774519e+02   2.5940375471e+01    0.3650254    0.2231975  80.79  0.001351983    2.431    0.589
       228  -8.5128     88.6033    168.7236   1.1873360716e+02   2.9357478446e+01    0.2772014    0.1705684  84.99 0.0009898482    1.988    0.497
       229  -8.3846    218.8991    168.2127   9.1812144216e+01   5.6343309151e+00     0.187153    0.1793864  26.74 0.0006466721    1.213    0.176
       230  -7.7808    211.4836    168.4966   9.3215563078e+01   6.9942889844e+00    0.1323794    0.1226401  23.35 0.0001084044    1.113    0.102
       231  -8.9033    191.9603    166.6885   9.6537501212e+01   1.1050020822e+01    0.2414314    0.1993729 -47.10 0.0006298763    1.393    0.282
       232  -8.6156    184.9788    166.5251   9.7869657186e+01   1.2444704883e+01    0.2518349    0.1875903 -56.67 0.0005990339    1.693    0.409
       233 -10.0602     95.1121    163.1706   1.1649216234e+02   2.9521913579e+01    0.7826306    0.3939071  75.51  0.002675118    4.354    0.770
       234  -8.9565     20.6382    166.3696   1.3302592163e+02   3.8036993317e+01    0.3284816    0.1259838  61.60  0.001209578    2.693    0.629
       235 -10.0116    136.8424    164.5585   1.0749133201e+02   2.2084783212e+01    0.6052655    0.2897244  58.38  0.002336887    2.770    0.639
       236  -7.8490    250.6549    165.1965   8.5770799840e+01   2.9225337776e-01    0.1795603    0.1075315 -18.01 0.0007835221    1.648    0.393
       237 -10.1152    245.4857    161.9729   8.5956022675e+01   1.6288501783e+00    0.5364054    0.2879196 -38.14  0.002331714    1.981    0.495
       238  -8.4640    233.8849    164.9244   8.8512811774e+01   3.3225289255e+00    0.2206466    0.1702219 -33.12 0.0007554806    1.380    0.275
       239  -8.6563    159.4019    164.3450   1.0264521586e+02   1.7837277324e+01    0.2745498    0.2182791  81.17 0.0007376049    1.609    0.378
       240  -9.2520     33.6582    163.4386   1.3006075384e+02   3.7383760156e+01    0.5364489    0.1751557  56.74  0.002246122    3.479    0.713
       241  -8.0733    240.0529    164.2872   8.7335329149e+01   2.2899235176e+00    0.1787602     0.154664  18.57 0.0005054395    1.089    0.082
       242  -8.4846    212.9918    163.5197   9.1930732166e+01   7.4581546833e+00    0.2349667    0.1849686 -48.07 0.0007260278    1.552    0.356
       243  -8.3309    204.7091    162.9677   9.3354150714e+01   9.1513507472e+00    0.1895698    0.1645031 -19.97 0.0004153847    1.172    0.147
       244  -9.0809     60.5048    160.9629   1.2394531928e+02   3.4862295504e+01    0.3669357    0.2247493 -73.34  0.001545233    1.494    0.331
       245  -9.2459      3.4485    162.4840   1.3623590779e+02   4.0298542256e+01    0.3321289    0.1353045  58.51  0.001782724    2.240    0.554
       246  -8.9068    151.6650    161.1431   1.0367044939e+02   1.9933548583e+01    0.2930124    0.2236491 -82.54 0.0008836513    1.743    0.426
       247  -7.6761    222.2722    161.6634   8.9871777225e+01   5.9582602372e+00    0.1229963     0.108214 -65.72  0.000194614    1.602    0.376
       248  -9.0872    177.5277    160.6331   9.8185110697e+01   1.4926729625e+01    0.2971662    0.2406242  81.83  0.001049147    1.668    0.400
       249  -8.7845    227.3263    159.0206   8.8429234994e+01   5.3853083335e+00    0.2586468    0.1921081 -47.57 0.0007976082    1.685    0.406
       250  -8.5280    128.1802    159.2862   1.0844868163e+02   2.4718342040e+01    0.2677442    0.1933092  74.20 0.0006428977    1.664    0.399
       251  -9.8736    105.8205    157.7936   1.1322677808e+02   2.8925712272e+01      0.51286    0.3535521  89.31  0.001430624    1.757    0.431
       252  -9.7446    250.1696    157.7706   8.4320987891e+01   1.3574939018e+00    0.3220033    0.1705789 -28.33 0.0007578708    1.788    0.441
       253  -8.3491    236.9739    158.9651   8.6754971337e+01   3.5872116563e+00    0.1869782    0.1660902 -64.57 0.0005851306    1.631    0.387
       254  -9.2081    167.7075    157.5817   9.9586903840e+01   1.7433904761e+01    0.3429618    0.2543669 -72.56  0.001101424    1.890    0.471
       255  -8.6127    196.7059    157.9028   9.3832429866e+01   1.1548876660e+01    0.2394091    0.1914751 -55.98 0.0006969532    1.562    0.360
       256  -8.5263    187.9939    157.7667   9.5505826325e+01   1.3321244253e+01    0.2420335    0.2001248 -35.82 0.0006152136    1.278    0.218
       257  -8.3424     79.5066    158.6368   1.1935798635e+02   3.2814611227e+01    0.2073701    0.1164371  39.96 0.0007418914    1.801    0.445
       258  -9.8412    215.7407    154.9745   8.9645489996e+01   8.2298980705e+00    0.4546517    0.3273574  68.67  0.001242528    2.093    0.522
       259  -8.9794    157.5979    156.0222   1.0140574031e+02   1.9737446754e+01    0.2887466    0.2261045 -88.67 0.0009881163    1.706    0.414
       260  -9.5507    119.5401    155.3975   1.0969414708e+02   2.7065640097e+01    0.4171033    0.2695735 -82.90  0.001633742    2.183    0.542
       261  -8.5707    144.9141    155.3049   1.0400837567e+02   2.2361937318e+01    0.3481788    0.2174526  66.77  0.001027263    2.184    0.542
       262  -8.3857     94.6579    155.8139   1.1546389979e+02   3.1148114562e+01     0.304308    0.1874335  22.86  0.001400908    2.471    0.595
       263  -9.4404     81.5670    154.6609   1.1831157658e+02   3.3373453502e+01    0.4491204    0.2610204  76.66  0.001502546    2.266    0.559
       264  -9.1901     49.7608    155.3101   1.2568936121e+02   3.7370488116e+01    0.3745454    0.1806401  66.87  0.001682477    2.491    0.599
       265  -8.9641    242.7886    154.8669   8.4919894436e+01   3.0868702034e+00    0.1847781    0.1553978 -11.34 0.0003982215    1.090    0.083
       266  -8.1506    204.5174    155.0746   9.1747605367e+01   1.0443586784e+01    0.2055459    0.1350939 -36.28  0.001022269    1.574    0.365
       267  -9.7276    132.7457    152.9839   1.0626381610e+02   2.5144786570e+01    0.4712545    0.3095435  71.20  0.001493914    2.051    0.512
       268  -9.2709    133.6620    148.6646   1.0522252726e+02   2.5847585266e+01    0.3374738    0.2587968 -41.86  0.001145318    1.413    0.292
       269  -9.6600     68.0673    153.8156   1.2131572213e+02   3.5429873641e+01    0.4195437    0.2283091  69.68  0.001290778    2.264    0.558
       270  -8.2700    232.8050    153.7181   8.6360000366e+01   5.1147558731e+00    0.2437213    0.1477671 -40.15 0.0008892384    1.783    0.439
       271  -7.9781    151.6324    152.8176   1.0205085210e+02   2.1529999819e+01    0.1970398    0.1332143 -58.53 0.0009403593    1.711    0.415
       272  -8.5289     19.9696    152.6951   1.3204821150e+02   4.0961290381e+01    0.1560587    0.1202637  72.67 0.0004751412    1.139    0.122
       273  -8.2948    182.3328    151.4204   9.5308509678e+01   1.5568076424e+01    0.2308098    0.1691985 -60.47 0.0006089152    1.766    0.434
       274  -9.4754     29.2944    150.6635   1.2980062751e+02   4.0535453826e+01    0.4343355     0.182313  70.72  0.001903949    3.119    0.679
       275  -8.4667      2.7364    150.8455   1.3560562862e+02   4.2753945033e+01    0.2596569    0.1040659  89.91   0.00135049    2.219    0.549
       276  -9.6587    248.7229    149.4862   8.2805985764e+01   2.7408368939e+00    0.3291413    0.1937536 -30.47 0.0008508621    1.602    0.376
       277  -9.4598    247.1343    143.7056   8.1814531097e+01   3.8365206520e+00    0.3066946    0.1957637 -25.00 0.0006609818    1.464    0.317
       278  -8.1485    250.4926    140.9684   8.0680197107e+01   3.5915519339e+00    0.1901059    0.1585331 -11.19 0.0004655235    1.061    0.057
       279  -9.5696    243.1179    150.1963   8.3872045089e+01   3.6766970700e+00    0.2753067    0.2003218 -30.95 0.0008458965    1.351    0.260
       280  -9.2386    238.0436    150.1629   8.4709493801e+01   4.6330432937e+00    0.3370657    0.1561299  40.57  0.001494754    2.121    0.529
       281  -8.9884    189.4002    150.2107   9.3634891597e+01   1.4325016391e+01    0.3196708    0.2241843 -58.67 0.0007128542    1.897    0.473
       282  -8.4036    162.8421    150.7845   9.9222544745e+01   1.9669637259e+01    0.2664264    0.1886927 -73.42  0.001220677    2.070    0.517
       283  -8.8449     98.2096    150.7372   1.1381258275e+02   3.1670404745e+01    0.2854249    0.1931684  85.24  0.001219333    1.803    0.445
       284  -8.2944    212.9082    150.0947   8.9116887531e+01   9.5526014321e+00    0.1916639    0.1902339 -35.46 0.0003432845    1.209    0.173
       285  -9.7383     39.7366    147.9053   1.2713696743e+02   4.0084136023e+01    0.5098255    0.2370589  74.50  0.002005844    2.847    0.649
       286  -8.3133     39.6435    141.6748   1.2644272590e+02   4.1461906415e+01    0.1932759    0.1124606 -40.93  0.000699574    2.456    0.593
       287  -8.4991    198.8440    149.1340   9.1556183600e+01   1.2565306455e+01     0.204449    0.1934181 -85.44 0.0005446438    1.295    0.228
       288 -10.0631     89.1278    146.3766   1.1523831337e+02   3.4045985836e+01    0.6426061    0.3569734  86.64  0.002550669    3.073    0.675
       289 -10.5086     54.8845    144.2512   1.2313186760e+02   3.9190040363e+01    0.8716383     0.429969  80.51  0.003198546    3.042    0.671
       290  -9.3988     58.0078    135.1622   1.2109923566e+02   4.0840523282e+01    0.2269422     0.174293 -14.73  0.001280652    2.051    0.512
       291  -8.6496    233.4972    147.6035   8.4926002172e+01   5.8712426213e+00    0.2645306    0.1266143 -32.49 0.0008054632    2.027    0.507
       292 -10.2852    148.9728    144.9343   1.0102232210e+02   2.3598507735e+01    0.5963253    0.4025869 -79.84  0.001720289    2.372    0.578
       293  -8.9667    151.2811    135.9723   9.8576412300e+01   2.4902613864e+01    0.3858059    0.2264919  31.70  0.001617604    2.041    0.510
       294 -10.3237    106.6286    144.2104   1.1067648665e+02   3.1678378188e+01    0.7403669    0.4536341 -87.89  0.002693451    2.533    0.605
       295  -9.0379     78.1988    147.0355   1.1795568316e+02   3.5520183133e+01    0.3336839    0.1913866  84.98  0.001003946    2.422    0.587
       296  -8.0412    223.3440    146.9998   8.6559200775e+01   7.9484201196e+00    0.1926661    0.1662102 -17.40 0.0004347086    1.116    0.104
       297  -9.8625    139.2499    145.0853   1.0323751183e+02   2.5495869093e+01    0.5111244    0.3013816 -66.71   0.00124187    2.387    0.581
       298  -8.7987    139.8938    137.4244   1.0148636582e+02   2.6925481181e+01    0.2748527    0.1962911  -4.78  0.001194303    2.291    0.563
       299  -8.9963     13.2478    146.2916   1.3297935166e+02   4.2896687734e+01    0.2786914    0.1304054  69.92  0.001061505    2.192    0.544
       300  -8.6485    240.2131    145.2505   8.3283456168e+01   4.9242711163e+00    0.2418899     0.170048 -27.81 0.0004794016    1.350    0.259
       301  -9.6186    242.9784    142.2710   8.2175743544e+01   4.8236644483e+00    0.3561349    0.1897203 -23.72  0.001652371    1.886    0.470
       302  -8.0084    206.9070    146.3589   8.9416184373e+01   1.1367378144e+01    0.1966954    0.1728266  31.17  0.000615321    1.085    0.078
       303  -8.3309    175.6729    146.1298   9.5537623881e+01   1.7890304153e+01    0.2205865    0.1797641 -62.69 0.0006332317    1.478    0.323
       304  -9.9255    124.9372    142.4764   1.0601185954e+02   2.8771651420e+01    0.5911408    0.3577822 -72.28  0.001663164    2.335    0.572
       305 -11.2056     69.1185    140.0163   1.1907706327e+02   3.8331055328e+01    0.9108727    0.3741977 -61.51  0.003197915    2.206    0.547
       306 -10.0548     73.2758    129.9733   1.1640216827e+02   4.0018701138e+01    0.3882098    0.2661922  86.09  0.001289975    1.657    0.396
       307  -9.5676      3.0328    142.5738   1.3494068314e+02   4.4471514857e+01    0.4292263     0.169631  80.80  0.002079383    2.676    0.626
       308  -8.9341    165.4935    144.0430   9.7228533495e+01   2.0392791287e+01    0.3062157    0.2285143  59.65 0.0009085638    1.463    0.317
       309  -8.3497    182.0092    141.7977   9.3282619556e+01   1.7343014610e+01    0.2480581    0.1856006 -56.51  0.000609239    1.602    0.376
       310  -9.8225     23.4389    138.2853   1.2990497458e+02   4.3764495347e+01    0.4774989    0.2129382  69.16  0.002203559    2.732    0.634
       311  -7.9931    218.5862    138.7295   8.5568408531e+01   1.0190274749e+01    0.1867581    0.1291084 -41.14 0.0004283474    1.528    0.346
       312  -8.4265    207.7949    138.2936   8.7446517883e+01   1.2500318497e+01     0.257183    0.1849143 -57.40 0.0008592355    1.852    0.460
       313  -8.6975    172.1945    138.2736   9.4531714444e+01   2.0065997506e+01    0.2831222    0.2274372 -74.60 0.0006154591    1.621    0.383
       314  -9.6406    233.5596    136.4367   8.2443233695e+01   7.5108939845e+00    0.4689317    0.3004549 -60.18   0.00203298    2.704    0.630
       315  -8.7611    197.5601    137.3870   8.9189399301e+01   1.4814193185e+01    0.3111846      0.20384 -48.43 0.0009284274    1.739    0.425
       316  -8.6679     81.0089    137.7664   1.1577882344e+02   3.7166230688e+01     0.209676    0.1693494  74.71  0.001222382    1.227    0.185
       317 -10.3433     83.4036    132.9347   1.1434097260e+02   3.7890800781e+01    0.5658441    0.3149861 -72.14  0.001322996    2.008    0.502
       318  -8.0952    162.7393    136.7545   9.6216728916e+01   2.2355162157e+01    0.1976907    0.1730675 -89.46  0.001003905    1.347    0.258
       319  -9.3006     39.0581    136.1737   1.2591940201e+02   4.2741946162e+01    0.2785793    0.1643535  87.71 0.0007867231    1.702    0.413
       320  -9.1255    248.4596    135.3625   7.9765212535e+01   4.7615604519e+00    0.2959214    0.2144566 -29.30 0.0006631231    1.291    0.225
       321  -8.9404    250.7109    130.2331   7.8264158132e+01   5.0576747262e+00    0.4321872    0.1231614 -29.26  0.001435495    3.549    0.718
       322  -8.4931    246.8853    130.3750   7.8895906258e+01   5.7757297530e+00    0.2426124    0.1720149 -40.41 0.0004941009    1.479    0.324
       323  -7.7701    187.8370    135.6126   9.0702601842e+01   1.7202614194e+01    0.1973142    0.1371848  58.76 0.0003763218    1.631    0.387
       324  -8.8742    179.3331    133.6441   9.1982919207e+01   1.9389888190e+01    0.3599713    0.2217982 -51.12  0.001031743    1.869    0.465
       325 -10.7666    132.6734    130.4850   1.0166588548e+02   2.9795120724e+01    0.9047281    0.4924872 -49.06  0.002495078    1.859    0.462
       326  -8.0138    237.5435    133.7765   8.1176661677e+01   7.1144279038e+00    0.1890631    0.1214789 -40.87 0.0009329433    1.632    0.387
       327  -9.2296    112.9936    133.2637   1.0701738667e+02   3.2928145583e+01    0.3814958    0.2774929  89.85  0.001252046    1.736    0.424
       328  -9.2248    143.0349    131.6725   9.9498643504e+01   2.7463919784e+01    0.3367946     0.232932 -65.58 0.0006976687    1.778    0.438
       329 -10.5471     98.2124    129.5898   1.0996286094e+02   3.6295848850e+01    0.8734382    0.2842591 -55.94  0.003066942    3.033    0.670
       330  -9.9999     12.9230    129.2574   1.3150667874e+02   4.6607691900e+01    0.4551563    0.2113072  77.92  0.001995427    2.397    0.583
       331  -8.1050    220.5272    129.9710   8.3214013251e+01   1.1170987481e+01    0.2101022    0.1347967 -31.49 0.0004391304    1.514    0.339
       332  -8.1581    204.4455    130.2700   8.6222704234e+01   1.4544357330e+01    0.1969639    0.1350332 -45.06 0.0009342611    1.573    0.364
       333  -8.1435    192.8531    130.1220   8.8425637934e+01   1.7083256857e+01    0.2169348    0.1981156 -64.56 0.0005666456    1.274    0.215
       334  -9.2461    168.3075    129.4715   9.3339188502e+01   2.2555155991e+01    0.2913076    0.2421156 -73.93  0.000297141    1.480    0.324
       335  -8.7753    161.8535    130.1711   9.4906938237e+01   2.3812848600e+01     0.226799    0.2075108  82.34 0.0007157278    1.213    0.175
       336  -7.8879      1.9612    130.4765   1.3422401786e+02   4.7130980552e+01    0.1546559   0.06376665  54.50 0.0008095947    2.515    0.602
       337  -7.8493    211.4442    129.1826   8.4665254730e+01   1.3221911141e+01    0.2036848    0.1299502 -46.27 0.0009317432    1.743    0.426
       338 -10.6054     59.6421    124.7865   1.1906940229e+02   4.2984470224e+01    0.7489299    0.3993452  86.05  0.002584272    2.904    0.656
       339  -8.5334     59.1365    115.6634   1.1764900705e+02   4.5124305039e+01    0.3426005    0.2193606   0.38    0.0015718    2.977    0.664
       340 -10.6860     44.8681    123.4968   1.2274192467e+02   4.4981619265e+01     1.037566    0.4895249  80.42   0.00381272    3.895    0.743
       341  -8.0940     42.7797    129.3966   1.2411435399e+02   4.3871517287e+01    0.1477136     0.122605  13.01 0.0009324675    1.651    0.394
       342  -8.0983     26.7506    129.5815   1.2815722044e+02   4.5390794659e+01    0.1541425   0.09887964  50.87 0.0005101985    1.623    0.384
       343 -10.0473    117.9433    124.8293   1.0400304586e+02   3.3841942423e+01    0.6100571    0.4327789 -68.37  0.001645183    1.596    0.374
       344  -8.3781    228.4024    125.6966   8.0850761062e+01   1.0193925471e+01    0.2593619    0.1249558 -37.41  0.000875419    2.005    0.501
       345  -8.8865    179.3024    124.7813   8.9895812018e+01   2.1020925207e+01    0.2861241    0.2354856 -83.28 0.0007034417    1.592    0.372
       346 -10.5078     28.1217    121.6604   1.2685143491e+02   4.7037526712e+01    0.8468551    0.3793616  89.35  0.003713782    2.844    0.648
       347  -8.6441    233.9765    123.7782   7.9467390831e+01   9.3332617517e+00    0.2704003    0.1483475   5.14 0.0009127645    3.746    0.733
       348  -8.0808    188.6422    124.3106   8.7876589438e+01   1.9035154921e+01    0.2183047    0.1763867 -76.16 0.0006559217    1.658    0.397
       349  -8.8511     84.7680    123.1000   1.1215507576e+02   3.9894327959e+01    0.3595129    0.2571332   6.11  0.001733688    2.275    0.560
       350  -9.1052    158.7307    121.5574   9.3553176846e+01   2.6166836208e+01    0.3756357    0.2846412 -79.74 0.0009922055    1.824    0.452
       351  -7.5953    203.2185    122.0120   8.4484736314e+01   1.6205108201e+01    0.1895826    0.1176295 -33.80 0.0008480315    1.595    0.373
       352  -7.6565    194.7543    122.3255   8.6185821972e+01   1.8027364581e+01    0.1423353    0.1154387 -64.20 0.0002274058    1.535    0.348
       353  -8.7926    172.0608    121.6634   9.0663532167e+01   2.3207830733e+01    0.2476069    0.2023977 -52.68 0.0004151462    1.320    0.242
       354  -9.8177     71.0855    119.8857   1.1517644261e+02   4.2606904870e+01    0.3721251    0.2305687 -81.76 0.0009040867    1.902    0.474
       355  -9.7973    141.5671    118.6160   9.6798870305e+01   3.0440016575e+01    0.4582976    0.3299704 -74.54  0.001062891    1.882    0.469
       356  -8.5348    141.9835    112.5231   9.5195095419e+01   3.1599020270e+01    0.2480477    0.1962716  21.97  0.001199178    1.491    0.329
       357  -9.7852    130.7267    118.5525   9.9400400097e+01   3.2688458106e+01    0.5235717    0.3590467 -78.59  0.002063095    2.143    0.533
       358 -10.4015    133.4267    108.9518   9.6372579633e+01   3.4142567836e+01    0.7715475    0.3392248 -44.35  0.002579724    2.254    0.556
       359  -9.6120      3.0864    117.2236   1.3276092992e+02   4.9933957788e+01    0.5154151    0.2117229  75.16  0.002363557    3.080    0.675
       360  -9.5224    152.9039    128.0813   9.6417549473e+01   2.6131567205e+01    0.6781452    0.2846655 -45.02  0.002181047    2.433    0.589
       361  -9.9751    109.2555    114.2410   1.0382243727e+02   3.7756143016e+01    0.5519915    0.3540844 -79.17  0.001534197    2.362    0.577
       362  -8.9028    109.2225    107.8726   1.0231714685e+02   3.9152838217e+01    0.3595302    0.2494808   9.38   0.00155125    2.347    0.574
       363  -8.0296    185.5503    116.0436   8.6465425064e+01   2.1209863077e+01    0.2249408    0.1452351 -39.65 0.0005595709    1.551    0.355
       364  -8.3849    250.1679    115.2641   7.4921257473e+01   7.3042288107e+00    0.2127172    0.1579115  28.52   0.00115015    1.427    0.299
       365  -8.1824    192.8888    115.2066   8.4794568412e+01   1.9693111095e+01    0.2250478    0.1994131 -63.82 0.0004765748    1.300    0.231
       366  -7.5127    153.2707    115.6317   9.3330823192e+01   2.8529723705e+01    0.1535032       0.1191 -75.92 0.0006998159    1.667    0.400
       367 -10.2872     92.5961    112.1545   1.0778358151e+02   4.1113363735e+01    0.7173314    0.3602102 -68.07  0.001392895    2.712    0.631
       368  -8.6704     94.7543    104.1972   1.0535869865e+02   4.2525891591e+01    0.4355486    0.2275574  23.14  0.001583765    3.371    0.703
       369 -10.0395     78.9252    112.6761   1.1163210615e+02   4.3128254004e+01    0.5712892    0.3494321 -89.28  0.002463079    2.502    0.600
       370  -8.7067     78.2509    105.5444   1.1030053827e+02   4.4840962014e+01    0.2770776    0.2288344  -9.91  0.001114205    1.577    0.366
       371  -7.9856    167.4608    114.4892   8.9871490404e+01   2.5596349485e+01    0.1491211    0.1480657  12.33 8.052118e-05    1.022    0.022
       372 -10.0156    122.1131    112.7771   1.0016132953e+02   3.5631059269e+01    0.4220355    0.2905973 -58.49 0.0006954519    1.534    0.348
       373 -10.0382    119.5347    106.6487   9.9306919296e+01   3.7447120113e+01    0.4775116    0.3516438 -44.85  0.002359938    1.331    0.249
       374 -10.6549    109.3067     99.1954   1.0011228473e+02   4.1015863892e+01    0.8664095    0.5036432  71.40  0.003016468    3.519    0.716
       375  -8.9160    107.4193     92.7484   9.8918699039e+01   4.2751122765e+01    0.5476697    0.3017373  27.45  0.002139087    2.603    0.616
       376  -9.7636     14.3647    111.2100   1.2918097844e+02   5.0489719304e+01    0.4444366     0.195696  89.92  0.001563687    2.570    0.611
       377  -8.5868    174.8013    111.9328   8.7646852185e+01   2.4411346715e+01    0.2707451    0.2036146 -58.07 0.0006474099    1.552    0.356
       378  -8.5768    159.1711    111.7386   9.1005882812e+01   2.7989110975e+01    0.2580369    0.2034265 -53.56 0.0005809938    1.354    0.261
       379 -10.0347     66.2467    110.6678   1.1474827793e+02   4.5357055122e+01    0.4044301    0.2725649  86.77  0.001201088    1.838    0.456
       380  -7.7562    149.5675    110.5023   9.2889623720e+01   3.0364000758e+01    0.1489003    0.1475204 -29.12 0.0001070948    1.009    0.009
       381  -9.1740     42.9853    109.6791   1.2109937107e+02   4.8320932277e+01    0.2878836    0.1674066  15.99  0.001460614    2.550    0.608
       382 -10.1194    248.7656    108.1339   7.3458151928e+01   8.6181551277e+00     0.449854    0.2675282 -32.46  0.001795567    1.522    0.343
       383 -10.5300    249.0144    102.9210   7.2183262064e+01   9.3226576097e+00    0.3896141    0.3479039 -24.51  0.002324795    1.041    0.039
       384  -8.4273    189.0475    108.0367   8.3729334339e+01   2.1838201140e+01    0.2368803    0.1818613 -65.96 0.0005665537    1.664    0.399
       385  -9.1866    139.8796    104.8022   9.3717143927e+01   3.3625126173e+01    0.3707437     0.279682 -85.36 0.0008192678    1.842    0.457
       386 -10.5868     45.7866    102.5235   1.1905692769e+02   4.9656015764e+01    0.7511598    0.4073365  74.19  0.003189987    3.047    0.672
       387 -10.7262     23.0786    102.8320   1.2566539480e+02   5.1700651613e+01    0.7005258     0.348488  72.24  0.002793566    2.905    0.656
       388  -8.6047    166.4427    104.2152   8.7430726265e+01   2.7779528505e+01     0.283634    0.2208923 -69.03 0.0007135106    1.611    0.379
       389  -9.5650    150.5656    103.1604   9.0736025395e+01   3.1601028167e+01    0.4550968    0.2912766 -62.75   0.00130961    2.111    0.526
       390 -10.1840    128.5133    101.3846   9.5639695510e+01   3.6738889253e+01    0.5773444    0.3017057 -39.73  0.001665676    1.955    0.488
       391 -10.0122      6.6029    102.2453   1.3022252351e+02   5.3008151562e+01    0.4008084    0.1905738 -81.54   0.00180872    1.820    0.450
       392  -7.7158    175.4251    102.2304   8.4980534211e+01   2.6059736025e+01    0.2171519    0.1414943 -47.77 0.0006549878    1.625    0.385
       393  -8.2644    159.8801    101.1209   8.8055484318e+01   2.9881231989e+01    0.2339209    0.2050123 -70.71 0.0005286286    1.293    0.226
       394  -9.2531     81.9963     99.8928   1.0794552183e+02   4.5546371714e+01     0.373637    0.2463987 -80.18 0.0009344264    2.033    0.508
       395  -9.3243     94.9303     97.0592   1.0355278964e+02   4.4069680094e+01    0.3373028    0.2593414 -63.15 0.0006785009    1.323    0.244
       396 -10.1109     64.0170     95.9277   1.1232601014e+02   4.8995720864e+01    0.5414037    0.3359602 -89.88   0.00149865    2.466    0.594
       397  -8.4306     64.4716     88.0323   1.1036640065e+02   5.0706499162e+01    0.3149498    0.1657057 -25.66  0.001137777    3.841    0.740
       398  -8.2535    150.8791     95.7156   8.8636649069e+01   3.2987652502e+01     0.260284    0.1686008   8.87 0.0009455415    2.781    0.640
       399  -7.3328    171.3058     95.6612   8.4070860523e+01   2.8234617771e+01    0.1578268    0.1218765 -72.17 0.0005687639    1.678    0.404
       400  -8.2289    164.8339     94.1540   8.5048561824e+01   3.0042814324e+01    0.2355888    0.2064265 -64.96 0.0005475132    1.268    0.212
       401  -8.3835    176.4769     93.4549   8.2380862986e+01   2.7403912044e+01    0.2498067    0.2182868 -70.38 0.0006155185    1.309    0.236
       402  -8.6309    174.5032     89.9415   8.1812475046e+01   2.8506773076e+01     0.283521    0.2082085 -43.52  0.000359903    1.374    0.272
       403  -9.5444    138.8710     91.7745   9.0409409396e+01   3.6464509537e+01    0.4823056    0.3003778 -49.46  0.001240025    1.671    0.402
       404 -10.2533    123.8062     91.1261   9.4052446882e+01   3.9835844975e+01    0.5882156    0.5133368  26.49  0.001486824    1.232    0.188
       405  -9.0395     46.3388     92.7279   1.1701169895e+02   5.1819601157e+01    0.3495851     0.183747  18.55   0.00165373    2.744    0.636
       406  -9.6651      5.0474     92.0686   1.2939713161e+02   5.5353044818e+01     0.313219    0.1864412  73.53  0.001422472    1.884    0.469
       407  -8.0273    157.6785     91.5494   8.5908569149e+01   3.2212160268e+01    0.2648519     0.141175 -37.87 0.0004925084    1.866    0.464
       408  -9.7337     34.8290     89.8818   1.2000906017e+02   5.3610019562e+01    0.4607191    0.2409794 -84.03  0.001782522    2.502    0.600
       409  -9.2404     23.1116     90.3578   1.2371191257e+02   5.4501419692e+01    0.2886374    0.2307826 -13.04  0.001399177    1.627    0.385
       410  -8.2155    150.8824     89.1677   8.6789318491e+01   3.4246400503e+01    0.2325036    0.2086661 -70.51 0.0004666024    1.236    0.191
       411 -10.1541     86.5029     85.4089   1.0295532725e+02   4.8020369691e+01    0.7462853    0.4142424 -47.02  0.001663186    1.655    0.396
       412  -7.3448    188.2926     87.2919   7.8322150421e+01   2.5633859072e+01    0.1530218    0.1181181  16.01  0.000274478    1.552    0.355
       413  -7.9420    164.0000     87.0230   8.3217608589e+01   3.1555389329e+01    0.2506481    0.0873428 -36.76 0.0004162919    2.850    0.649
       414  -9.9904     48.3739     84.1838   1.1455035429e+02   5.3517653568e+01    0.4990321    0.3137702  88.79  0.001903796    2.340    0.573
       415  -7.5599    179.2808     85.6757   7.9637534574e+01   2.8103376099e+01    0.1550226    0.1196522 -66.55 0.0004083235    1.593    0.372
       416  -9.7469    104.7945     83.1979   9.6979968024e+01   4.5256646371e+01    0.4406118    0.2963637 -67.46  0.001048253    1.977    0.494
       417  -8.6673    105.3343     77.3103   9.5084233436e+01   4.6362913831e+01    0.3834708    0.2573074  20.07  0.001709179    2.021    0.505
       418  -8.2925    157.9987     83.8171   8.3614774912e+01   3.3574876951e+01    0.2739458    0.1885013 -50.18 0.0004883492    1.561    0.359
       419  -7.4229    170.5311     83.5185   8.0814821227e+01   3.0610761620e+01    0.1526349    0.1503716 -44.79 0.0001086914    1.036    0.035
       420  -9.4480      9.7619     81.0929   1.2637317705e+02   5.7492858965e+01    0.3317383    0.1809807  69.35  0.001497064    2.504    0.601
       421  -9.6806     24.6011     80.5428   1.2149337206e+02   5.6574868494e+01    0.3944593    0.2182585 -88.46  0.001396401    2.348    0.574
       422  -8.8188    249.6024     81.1887   6.6841318503e+01   1.2317202183e+01    0.1988174    0.1251431 -18.98 0.0009407572    1.652    0.395
       423  -7.9213    230.1931     81.2125   6.9582218244e+01   1.6630552124e+01    0.1927649    0.1602872 -55.92 0.0003446286    1.286    0.222
       424  -8.4153    150.2108     80.7321   8.4478806542e+01   3.5988009657e+01    0.2692716    0.2010898 -49.95 0.0007228091    1.411    0.291
       425  -8.9188    119.4354     80.5658   9.2145321351e+01   4.2881792328e+01    0.3040857    0.2440495 -69.11 0.0006242785    1.500    0.333
       426  -8.9283     74.3915     80.4228   1.0532138134e+02   5.0988888236e+01    0.3164669    0.2162158 -67.54  0.001220646    1.666    0.400
       427  -8.1809    166.7441     79.7443   8.0514484614e+01   3.2199406790e+01    0.2589305    0.1833089 -32.34   0.00061267    1.416    0.294
       428  -7.8639    174.5234     77.5911   7.8272110756e+01   3.0665779209e+01    0.2937938    0.1292106 -44.79  0.001031565    2.416    0.586
       429 -10.0836     63.7544     74.6075   1.0715945566e+02   5.3745706474e+01    0.6730003     0.295909 -64.84  0.002457683    3.298    0.697
       430  -9.2575    140.9173     82.7897   8.7302332666e+01   3.7754056682e+01    0.4203544    0.2108327 -45.64   0.00112116    2.039    0.510
       431  -9.7916    128.2860     74.6503   8.7998572286e+01   4.2138794519e+01    0.6781132     0.312104 -37.01  0.002213207    2.172    0.540
       432  -8.6899    140.4533     75.2887   8.5145297399e+01   3.9272065592e+01      0.33178     0.203771 -45.13 0.0009188629    1.657    0.397
       433  -8.3864    163.4373     73.6735   7.9410284483e+01   3.4069282553e+01    0.2904848    0.1421157 -40.06 0.0009034952    2.017    0.504
       434  -9.7559     82.3272     72.4061   1.0053344297e+02   5.1459261131e+01    0.4561925    0.2801427 -64.72  0.001124295    2.132    0.531
       435  -7.9978    151.4738     73.4999   8.1997902370e+01   3.7002760417e+01    0.1520293    0.1498234 -16.69 0.0001150506    1.016    0.015
       436  -8.8660    115.5306     72.7168   9.0798375133e+01   4.5237926434e+01    0.2840645    0.2295335 -54.10 0.0007089251    1.313    0.238
       437  -8.3574     42.4567     72.8033   1.1384417978e+02   5.6662224440e+01    0.2373436    0.1117565 -62.95 0.0007865955    1.982    0.495
       438  -7.5426    175.4543     72.5360   7.6597831005e+01   3.1289913048e+01    0.1526038    0.1484287   6.82 6.906136e-05    1.029    0.028
       439  -9.3319    105.8224     71.2595   9.3074904279e+01   4.7478786731e+01    0.4139833    0.2000903 -48.37  0.001279134    2.108    0.526
       440  -9.5543     95.0277     69.9935   9.5864987909e+01   4.9767377657e+01    0.7644373    0.2301099 -46.69  0.001935054    3.206    0.688
       441  -9.5898     51.4105     69.5625   1.0994437397e+02   5.6379546773e+01    0.4411039    0.2376867 -68.30  0.001531008    2.281    0.562
       442  -8.9260     16.7493     70.2658   1.2213687054e+02   5.9416040805e+01    0.2439909     0.157435 -83.90  0.001187963    1.657    0.397
       443  -9.0118    147.0190     68.0539   8.1325196262e+01   3.9032246454e+01    0.3410317    0.2091474 -43.63 0.0006699336    1.661    0.398
       444  -8.6085    138.7828     66.5239   8.2790196913e+01   4.1249231640e+01    0.2949988    0.1865045 -51.73 0.0008038072    1.812    0.448
       445  -8.9291    121.5539     65.6572   8.6895372215e+01   4.5295817675e+01    0.3724464    0.2201915 -51.21  0.000980533    1.924    0.480
       446  -8.4782     84.2411     64.7917   9.7564757900e+01   5.2695645041e+01    0.3247986     0.176133  14.30  0.001066276    4.340    0.770
       447  -8.8192     64.1487     63.7318   1.0389151045e+02   5.5987766468e+01    0.4347783    0.2520211 -15.27  0.001774234    3.091    0.676
       448  -8.6589     37.3108     64.5441   1.1357578422e+02   5.8962620934e+01    0.2524694    0.1874748  85.74  0.001017171    1.825    0.452
       449  -8.2359    156.9686     70.1865   7.9746116307e+01   3.6255936218e+01    0.2239187    0.1597865 -53.65  0.000358108    1.578    0.366
       450  -9.0933    110.2356     63.6748   8.9354124515e+01   4.8052972493e+01    0.2887592    0.2438822 -54.73 0.0007618337    1.288    0.224
       451  -7.3352    187.5024     63.5348   7.1666508537e+01   2.9712048995e+01    0.1492043    0.1480425 -28.55  7.56464e-05    1.003    0.003
       452  -8.4172    158.2626     61.9749   7.6896436255e+01   3.7322549728e+01    0.2117577    0.1980799 -27.12 0.0004142001    1.065    0.061
       453  -9.3092     29.6854     69.8765   1.1756370504e+02   5.8505594259e+01    0.4521722    0.2300238 -16.64  0.001933888    3.700    0.730
       454  -9.5276     97.6720     60.2362   9.1879124574e+01   5.1177798707e+01    0.3943492     0.292881 -38.16  0.001259315    1.267    0.210
       455  -9.6495     73.3346     59.6355   9.9472256933e+01   5.5479273529e+01      0.38468    0.2238059 -56.23  0.001039318    1.901    0.474
       456  -7.6067    164.4624     60.4211   7.5113363779e+01   3.6026857569e+01    0.1496755    0.1482356 -84.88 4.665776e-05    1.042    0.040
       457  -8.0727    146.8000     59.0727   7.8485147885e+01   4.0616539702e+01    0.2083418    0.1181467 -34.55 0.0008575421    1.745    0.427
       458  -8.0924     89.0231     59.3286   9.4245441560e+01   5.2938766331e+01     0.190724    0.1805829 -22.52 0.0005557117    1.052    0.049
       459  -9.9177     23.5096     56.6719   1.1665304051e+02   6.1843111438e+01    0.4480077     0.260693 -86.33   0.00218471    2.745    0.636
       460  -8.4806    130.6609     57.9793   8.1976778048e+01   4.4621769869e+01    0.2156103     0.182276 -35.55 0.0004901031    1.171    0.146
       461  -9.5551      7.5087     57.2283   1.2280485671e+02   6.2798359495e+01    0.2749509    0.1880098  87.22  0.001101862    1.758    0.431
       462  -9.0901    119.2459     55.4806   8.4080599846e+01   4.7617523981e+01    0.4199345    0.2262957 -46.91  0.001445194    2.031    0.508
       463  -9.5722     54.3175     55.6394   1.0485033354e+02   5.8935563622e+01    0.3735816    0.2144271 -61.88  0.001279993    2.044    0.511
       464  -8.4222    139.8385     56.3815   7.9205752494e+01   4.2738096432e+01     0.205112    0.1858755 -45.13 0.0004334002    1.147    0.128
       465  -8.8180     43.9753     55.3223   1.0856467236e+02   6.0212737379e+01     0.310256    0.1650266 -58.77  0.001157158    1.819    0.450
       466  -8.6664    105.8845     53.2726   8.7028305602e+01   5.0832487167e+01    0.2417582    0.1899592 -47.17 0.0005657157    1.341    0.254
       467  -9.0251    129.5085     50.1404   7.9567763733e+01   4.6191593461e+01    0.4163015    0.2855623  13.95  0.001451418    1.909    0.476
       468  -9.4356     92.4035     50.7318   9.0175764153e+01   5.3918422645e+01    0.4111118    0.2281018 -48.82  0.001308089    1.969    0.492
       469  -8.9846     92.4355     43.8383   8.7615756663e+01   5.5113998022e+01    0.3569027    0.1934799 -18.38  0.001422119    2.570    0.611
       470  -8.6717    144.6091     49.3003   7.5718243000e+01   4.2716180210e+01    0.2782888    0.1374931 -35.90  0.000692495    1.993    0.498
       471  -8.2312    149.7176     48.6966   7.4393708021e+01   4.1548379191e+01    0.1522818    0.1141636  19.84 0.0001866515    1.554    0.357
       472  -8.8391    120.9634     47.5240   8.0814881384e+01   4.8566405709e+01    0.2728865    0.2094123 -30.81 0.0004576839    1.278    0.217
       473  -8.5355    141.2445     46.9627   7.5674958038e+01   4.3896696364e+01    0.2128154    0.1893614 -24.29 0.0004915922    1.122    0.109
       474  -8.4999    112.1990     46.8393   8.2921209285e+01   5.0604692159e+01    0.2504764    0.1831775 -42.78 0.0008208077    1.413    0.292
       475  -9.0494     82.1006     46.1266   9.1805754461e+01   5.6596813265e+01    0.3340551    0.1984044 -46.37 0.0009675405    1.708    0.415
       476  -8.6258     44.9848     44.7103   1.0477913043e+02   6.2222312713e+01    0.2350971    0.1615648 -53.26 0.0005579634    1.390    0.281
       477  -8.7363     16.6482     44.8185   1.1623187241e+02   6.4808917585e+01    0.2036818    0.1570768 -85.50 0.0007231502    1.641    0.391
       478  -8.7462    133.1035     43.6660   7.6407614046e+01   4.6357371798e+01    0.2944163    0.2166791 -59.17  0.001049216    1.704    0.413
       479  -9.0504     58.0988     42.8581   9.9086898658e+01   6.0924458906e+01     0.325632      0.19682 -55.51  0.001194179    1.904    0.475
       480  -9.2762     69.8077     41.9356   9.4455796585e+01   5.9373477897e+01    0.3200706    0.2453418 -65.15  0.001201061    1.842    0.457
       481  -9.4060      5.2222     42.2000   1.2026174796e+02   6.6051866178e+01    0.3085499    0.1772529 -81.92  0.001350128    2.235    0.553
       482  -8.6663    105.8224     41.0313   8.2546406047e+01   5.2895643138e+01    0.3113928    0.1795698 -40.19 0.0007898985    1.744    0.427
       483  -7.7398    140.4693     41.5408   7.3960168617e+01   4.4893974466e+01    0.1468041     0.142214  20.66 0.0001155589    1.016    0.015
       484  -8.5249     36.8558     41.0478   1.0677540191e+02   6.3817219963e+01    0.1792959     0.154912 -58.56 0.0005259589    1.297    0.229
       485  -8.7247     95.3488     37.9306   8.4438524065e+01   5.5519072248e+01    0.2546922     0.198297 -52.71 0.0009250497    1.556    0.357
       486  -8.0965     80.5292     36.9420   8.8794959534e+01   5.8447870184e+01    0.2065849    0.1230597 -37.30 0.0006953734    1.567    0.362
       487  -9.3161     26.1800     35.6392   1.0940203461e+02   6.5879291082e+01    0.2704482    0.1983809 -66.61 0.0008622106    1.611    0.379
       488  -7.7444    133.4227     36.4646   7.3740339154e+01   4.7330209680e+01    0.1440206    0.1390681   9.84 0.0001327131    1.030    0.029
       489  -8.1786    125.9476     35.7061   7.5225883192e+01   4.9213766615e+01    0.1966525    0.1800692  40.22 0.0003086293    1.075    0.070
       490  -8.2519    249.3386    248.8508   1.0060865272e+02  -8.7417546800e+00    0.1769263   0.08955906 -35.08  0.001097861    2.579    0.612
       491  -8.9983    118.9695     32.9243   7.5902767174e+01   5.1220852749e+01    0.3896518    0.1776193 -36.87 0.0009903586    2.192    0.544
       492  -8.0498     88.6351     34.2739   8.5073403145e+01   5.7393880302e+01    0.1916547    0.1210353 -24.70 0.0009404189    1.557    0.358
       493  -8.8739     48.3755     33.4523   9.9304173115e+01   6.3915850038e+01    0.2288564    0.1935404 -57.58 0.0006835382    1.465    0.317
       494  -7.5650    139.2963     31.6671   7.0694473279e+01   4.6549818977e+01    0.1479206    0.1120249 -62.02  0.000531611    1.643    0.391
       495  -8.5788     72.0337     31.1749   8.9380380638e+01   6.0841495062e+01    0.1888469    0.1721042 -43.60 0.0007039018    1.303    0.233
       496  -8.8994     12.8971     30.4700   1.1354840780e+02   6.7911290367e+01    0.2531688    0.1455101 -62.49  0.001048628    1.704    0.413
       497  -8.5216    101.5345     29.3398   7.9175930859e+01   5.5549950410e+01    0.2486167    0.1265988 -34.90 0.0007787225    1.920    0.479
       498  -8.8327     60.5783     32.6186   9.4186564047e+01   6.2396494713e+01    0.2496152    0.1925065 -55.84 0.0006055557    1.651    0.394
       499  -8.8797      3.8221     27.8407   1.1688441433e+02   6.8978978774e+01    0.2445421    0.1416416 -71.08  0.001096542    1.956    0.489
       500  -8.9308     81.4525     27.5344   8.4613393339e+01   5.9760577461e+01    0.2602184    0.2102738 -51.47  0.000719242    1.559    0.359
       501  -8.6988    225.2030     32.6452   5.7444969103e+01   2.4488545664e+01    0.3152421    0.2214196 -25.82  0.001124778    1.436    0.303
       502  -8.9408     91.8547     26.0859   8.0688539187e+01   5.7985486269e+01    0.3476919    0.1691662 -37.02  0.001229967    2.035    0.509
       503  -7.5394    198.5196     25.9913   5.8844146299e+01   3.2003414350e+01    0.1924444    0.1206812  14.56 0.0007317188    2.329    0.571
       504  -7.9426     34.7807     23.5668   1.0105823289e+02   6.7245234746e+01    0.1503524    0.1111371  39.58 0.0009485978    1.768    0.434
       505  -7.6950    104.3123     22.6899   7.5669836903e+01   5.5856789827e+01    0.1326558    0.1090874 -62.75 0.0002937718    1.627    0.386
       506  -9.0674     63.5999     21.0853   8.8088645786e+01   6.3775472404e+01    0.3312848    0.1826617 -44.99  0.001133528    2.064    0.516
       507  -9.0270     48.2419     21.8094   9.4497772324e+01   6.5909797249e+01    0.2210276    0.1936087 -39.45 0.0006902022    1.328    0.247
       508  -9.3436    175.6712    247.6838   1.1242772294e+02   2.2820128620e+00    0.2767297    0.2227031  86.28  0.001244594    1.909    0.476
       509  -8.9872     74.1265     19.6241   8.3629611621e+01   6.2217564840e+01     0.244915    0.1829236 -46.84 0.0006798943    1.660    0.398
       510  -8.2154     87.9142     17.9168   7.8364656475e+01   5.9863689792e+01    0.1965838    0.1584084 -53.89 0.0005919447    1.659    0.397
       511  -7.8647    112.7565     16.9576   7.1115255403e+01   5.4680179062e+01    0.1729063      0.11452 -19.99 0.0003857177    1.523    0.343
       512  -8.5725    156.4737    248.4757   1.1575801045e+02   5.1367155817e+00    0.2287736    0.1419247  67.66 0.0008192025    2.307    0.567
       513  -8.0095    113.3559    248.6348   1.2303290384e+02   1.1549781594e+01    0.1716334    0.1006489 -71.82 0.0009180644    2.197    0.545
       514  -9.0313    103.8929    247.0013   1.2446424205e+02   1.3135198934e+01    0.3322361    0.1625804 -80.10  0.001768899    3.223    0.690
       515 -11.8597    240.5716    243.8541   1.0124483635e+02  -7.0526425878e+00    0.2765333    0.2252403  29.79  0.000515506    1.305    0.233
       516  -8.7302    232.9003    247.4782   1.0299284687e+02  -6.3037523264e+00    0.1598953    0.1520102  -4.28 0.0009296761    1.560    0.359
       517  -8.3414    218.5324    248.0778   1.0538695481e+02  -4.2693111875e+00    0.1375024    0.1038874 -19.71 0.0008028556    1.551    0.355
       518  -8.5586    132.2063    247.8262   1.1978672076e+02   8.9007278640e+00      0.20093     0.135038  64.88 0.0006830126    1.537    0.350
       519  -8.0155    120.8022     21.0339   7.0824912194e+01   5.2341339262e+01    0.2321672     0.146058 -50.63  0.001054738    2.033    0.508
       520  -9.9960    224.1868    244.2637   1.0393022408e+02  -4.7144599092e+00    0.3402298    0.2246877 -35.99  0.002294353    1.976    0.494
       521  -9.0636    210.8955    246.3351   1.0639005715e+02  -2.9490254504e+00    0.1876032    0.1568851 -53.57 0.0008974708    1.910    0.477
       522  -9.1147    147.1102    246.1164   1.1707666046e+02   6.8809298388e+00    0.2469988    0.1648508  70.12  0.001285816    1.922    0.480
       523  -8.7398    146.5024    240.0263   1.1648790558e+02   7.8065982446e+00    0.3280545    0.2454216 -83.15   0.00182328    1.848    0.459
