#   1 NUMBER                 Running object number                                     
#   2 MAG_AUTO               Kron-like elliptical aperture magnitude                    [mag]
#   3 X_IMAGE                Object position along x                                    [pixel]
#   4 Y_IMAGE                Object position along y                                    [pixel]
#   5 X_WORLD                Barycenter position along world x axis                     [deg]
#   6 Y_WORLD                Barycenter position along world y axis                     [deg]
#   7 A_WORLD                Profile RMS along major axis (world units)                 [deg]
#   8 B_WORLD                Profile RMS along minor axis (world units)                 [deg]
#   9 THETA_WORLD            Position angle (CCW/world-x)                               [deg]
#  10 FWHM_WORLD             FWHM assuming a gaussian core                              [deg]
#  11 ELONGATION             A_IMAGE/B_IMAGE                                           
#  12 ELLIPTICITY            1 - B_IMAGE/A_IMAGE                                       
         1 -15.2498    177.3091    119.4927   9.9750367998e+01   2.3003774523e+01      3.44403     2.125102 -28.30    0.0156502    1.718    0.418
         2 -14.5132    186.9140     50.8823   7.8879591600e+01   3.1643312113e+01     1.640912    0.9853075 -69.81  0.006463016    2.469    0.595
         3 -13.9387    177.5632     47.0827   7.9229642926e+01   3.4587757750e+01      1.34383    0.5254433 -26.36  0.004670065    2.652    0.623
         4 -13.1748    248.8328     39.9984   6.8490022385e+01   1.8487395016e+01     1.122696     0.382902 -23.99  0.004493299    2.720    0.632
         5 -13.2460    138.5968     30.3768   8.0769027502e+01   4.7378734668e+01    0.8578973    0.6562044  74.03  0.002608121    1.364    0.267
         6 -15.3539    243.6672     12.9678   6.2313827515e+01   2.2352617084e+01     2.067193    0.9443398 -17.45  0.009497566    2.341    0.573
         7 -13.3415    226.6726     33.9031   6.9017440798e+01   2.3997440585e+01    0.5905847     0.311446 -52.18  0.002725699    1.971    0.493
         8 -14.5234    247.0375    203.0124   1.0344289158e+02  -2.9171907125e-01    0.7113137    0.4995977 -18.46  0.004724356    1.448    0.310
         9 -16.1796    246.1809    236.1252   1.0869213092e+02  -3.2801737632e+00     1.583392    0.8785385 -11.89   0.01111102    1.697    0.411
        10 -14.4725    232.6055    246.1852   1.1227010055e+02  -2.5391538559e+00    0.7403977    0.4036123  16.90   0.00375586    1.371    0.271
        11 -17.7834     87.0436     78.4644   1.1403920283e+02   5.0616780126e+01     13.38772     10.18356  75.21   0.06218606    1.749    0.428
        12 -10.5141     29.7615    208.3721   1.4819192667e+02   2.8855078901e+01    0.1936738     0.104652  76.09  0.001053561    1.745    0.427
        13 -13.2456    165.9561    203.0063   1.1824030828e+02   1.1605677134e+01    0.4801182    0.4318272  69.57  0.002094066    1.624    0.384
        14 -11.4012     14.5973    206.6032   1.5126800327e+02   3.0544841811e+01    0.3801095    0.1912052  38.17  0.002126378    1.533    0.348
        15 -12.7751     19.4133    202.5305   1.5013748189e+02   3.0874929727e+01    0.4792446    0.2196378  54.38   0.00248207    1.632    0.387
        16 -14.5017    221.7973    203.9522   1.0781465293e+02   3.0709851948e+00    0.9083379    0.4538105 -18.39  0.003651054    2.213    0.548
        17 -12.9770    178.3238    197.0499   1.1483565252e+02   1.0502971459e+01    0.5644991     0.496604  46.82  0.002871463    1.452    0.311
        18 -10.7474     29.7215    202.1538   1.4793357527e+02   3.0002908495e+01     0.164887    0.1134741  58.23 0.0005770008    1.121    0.108
        19 -12.2261    195.8036    194.8055   1.1105729009e+02   8.0558125724e+00    0.4502839    0.2425824  29.31  0.002439343    1.535    0.349
        20  -9.9665     18.3512    195.2124   1.5010540795e+02   3.2342424593e+01    0.0907141   0.08058178   8.46 0.0003295166    1.541    0.351
        21 -10.3057     36.1948    183.9556   1.4556256403e+02   3.2901024114e+01    0.1529385    0.1236165  59.57 0.0002278363    1.033    0.032
        22 -13.8223    184.4404    173.8669   1.0967620188e+02   1.2831029952e+01    0.8771191    0.7049018 -22.89  0.004137917    1.335    0.251
        23 -12.3211    192.0501    167.8075   1.0702390304e+02   1.2407508483e+01    0.4754511    0.3521858  30.28  0.001626445    1.164    0.141
        24 -10.3106     99.5026    180.5148   1.2998034336e+02   2.5756412644e+01    0.1323509    0.1107427  43.14 0.0008104909    1.008    0.008
        25 -11.1706     95.7913    175.8486   1.3030491920e+02   2.7217554589e+01    0.2652521    0.2094653 -22.76  0.001520364    1.731    0.422
        26 -11.3995     98.0116    170.9797   1.2912140111e+02   2.7861781480e+01    0.3026786    0.2033776 -41.44 0.0007673329    1.889    0.471
        27 -11.5122    160.6546    167.5599   1.1358914712e+02   1.7998663388e+01    0.3560348    0.2827775  32.03  0.001903451    1.077    0.072
        28 -13.6555    162.5600    155.9533   1.1098808989e+02   1.9627790245e+01    0.9008399    0.8105786 -71.58  0.003650735    1.505    0.335
        29 -10.8053    113.6345    168.6599   1.2488539858e+02   2.5884448104e+01    0.2013899    0.1561775   2.94 0.0007986006    1.640    0.390
        30 -10.1351    102.6803    162.0065   1.2667194412e+02   2.8973030550e+01    0.1770137    0.1687831  61.06 0.0003553032    1.104    0.094
        31 -11.9755     92.2507    156.4940   1.2861241575e+02   3.1744031918e+01    0.3140765    0.2564605 -20.44 0.0009122333    1.602    0.376
        32 -11.1940     24.0035    156.9439   1.4701039281e+02   3.9708420872e+01    0.3430863    0.1434719  38.62  0.001752201    1.974    0.493
        33 -11.0512     18.8978    249.0873   1.5159433556e+02   2.3088632358e+01    0.1414467   0.03892411  31.60  0.000743657    2.672    0.626
        34 -14.1340    208.3527    136.5695   9.7490356064e+01   1.4026292795e+01     1.528426    0.7748142  30.70  0.005386299    2.082    0.520
        35 -15.2503    199.5040    123.8329   9.6279468270e+01   1.7671848258e+01     1.828096     1.611112 -38.95  0.007575127    1.304    0.233
        36 -11.8279      7.7074    143.5819   1.5066673746e+02   4.3894828424e+01    0.2523843    0.1747922  -8.29   0.00154112    2.055    0.513
        37 -10.9761    104.1431    139.9479   1.2268430306e+02   3.3432701744e+01    0.2356752    0.1918879  39.73 0.0004980117    1.125    0.111
        38 -10.5692     28.2691    134.9818   1.4433740506e+02   4.4335899268e+01    0.1717542    0.1468758  79.26 0.0005126602    1.032    0.031
        39 -12.7226     89.6617    124.6466   1.2410344637e+02   3.9297345717e+01     0.830404    0.5169756  55.84  0.002656063    1.758    0.431
        40 -13.7365    244.5189     86.3108   8.0121116706e+01   1.3891783225e+01     0.997503     0.600963 -29.33  0.005289497    1.444    0.308
        41 -12.8708    239.0118    101.1710   8.4361482967e+01   1.3058199615e+01    0.5151541    0.3798422 -16.75   0.00179312    1.210    0.174
        42 -13.0551    249.2958    111.7990   8.5329967006e+01   9.8229782285e+00    0.9872722    0.3189436 -27.30  0.003911533    2.795    0.642
        43 -13.7435    246.5777     99.7479   8.2981437241e+01   1.1817847067e+01    0.8729604    0.5139358 -28.11    0.0034475    1.479    0.324
        44 -11.9496    103.9967    118.2548   1.1844694477e+02   3.8311574468e+01    0.8214116    0.5300331 -88.71  0.003246023    2.617    0.618
        45 -12.0567    107.3792    115.8127   1.1689090951e+02   3.8242591782e+01    0.7874625    0.5599362  74.83  0.003498631    1.940    0.484
        46 -11.4893      3.6266    112.5580   1.5042704043e+02   5.1299292073e+01    0.3733558    0.1835797 -72.30  0.001855479    1.772    0.436
        47 -12.9304    123.8280    109.2568   1.1051343232e+02   3.6451343252e+01    0.7966818    0.6257972 -87.18  0.003484816    1.734    0.423
        48 -11.3457    232.5896    107.4377   8.6767760247e+01   1.3464531515e+01    0.2710308    0.2369426 -20.51 0.0009488249    1.117    0.105
        49 -13.5402    108.8483     95.0086   1.1130106351e+02   4.2639161304e+01    0.9152675    0.7371792 -33.42  0.002698644    1.336    0.252
        50 -17.9119    165.1632    236.8689   1.2290535672e+02   7.2437672935e+00      11.1987      2.89029  43.53   0.04227155    4.044    0.753
        51 -12.6745    207.9207    202.1248   1.0999155497e+02   5.2985446600e+00    0.3659417    0.3399669 -22.35  0.001473021    1.587    0.370
        52 -14.0554    151.9100     81.9387   9.5442463693e+01   3.5559746840e+01      1.44106     0.695427 -42.66  0.003978606    2.167    0.539
        53 -13.6567    172.8247     84.0007   9.1342490620e+01   3.0110542316e+01     0.786482    0.6915568 -74.14  0.002894863    1.368    0.269
        54 -12.4594    125.2288     82.0483   1.0256779229e+02   4.1876571434e+01    0.7037603    0.4883545 -55.84  0.002503738    1.681    0.405
        55 -19.0139     51.4068     99.1262   1.3228313067e+02   5.0841341762e+01     20.11907    0.6587887 -66.27   0.02263209   29.509    0.966
        56 -13.0255    174.3738     66.4709   8.5845275410e+01   3.2569883673e+01    0.6918447    0.5500607 -71.81  0.002337784    1.549    0.354
        57 -11.9490    249.3418     65.6985   7.4635261293e+01   1.5457347083e+01    0.4889974     0.242026 -37.07  0.002393198    1.756    0.431
        58 -10.5706     19.7456    243.7533   1.5130937576e+02   2.3831529823e+01    0.1976863    0.0853826  36.66  0.001308178    1.638    0.389
        59 -12.1028    209.4434    234.6935   1.1458165549e+02   1.4688472165e+00    0.4817261    0.2312873  21.26  0.002443161    1.808    0.447
        60 -11.7159    158.8287     48.9284   8.3283429626e+01   3.9290784201e+01    0.2850953    0.2263877  58.46 0.0009175051    1.229    0.186
        61 -14.5216    215.7755    216.4983   1.1083985134e+02   2.5350463618e+00      0.82633    0.5920033 -31.16  0.003776767    1.777    0.437
        62 -12.3669    130.6294     37.9853   8.5586203612e+01   4.8457872417e+01    0.9527088    0.3853007  38.23  0.002899791    3.330    0.700
        63 -14.3885    216.3793    179.5214   1.0458582965e+02   6.7789678727e+00    0.7738562    0.6400381   0.42   0.00283803    1.151    0.131
        64 -14.8837    212.1135    191.9741   1.0754488983e+02   5.8964447767e+00     1.020237    0.6628214  36.71  0.004004159    1.439    0.305
        65 -13.0423    171.5789     33.4085   7.5763741156e+01   3.7970375297e+01    0.5742434     0.539174  43.99  0.002321078    1.081    0.075
        66 -11.8308    175.2816     25.9893   7.2748266922e+01   3.7853598023e+01    0.4936261    0.3124392  20.66  0.001462973    2.118    0.528
        67 -18.2414     61.4372    246.5305   1.4372825741e+02   1.9210657867e+01      4.09386     1.170299  42.23   0.02182807    2.145    0.534
