#   1 NUMBER                 Running object number                                     
#   2 MAG_AUTO               Kron-like elliptical aperture magnitude                    [mag]
#   3 X_IMAGE                Object position along x                                    [pixel]
#   4 Y_IMAGE                Object position along y                                    [pixel]
#   5 X_WORLD                Barycenter position along world x axis                     [deg]
#   6 Y_WORLD                Barycenter position along world y axis                     [deg]
#   7 A_WORLD                Profile RMS along major axis (world units)                 [deg]
#   8 B_WORLD                Profile RMS along minor axis (world units)                 [deg]
#   9 THETA_WORLD            Position angle (CCW/world-x)                               [deg]
#  10 FWHM_WORLD             FWHM assuming a gaussian core                              [deg]
#  11 ELONGATION             A_IMAGE/B_IMAGE                                           
#  12 ELLIPTICITY            1 - B_IMAGE/A_IMAGE                                       
         1 -19.2301    196.6674    118.9734   8.3595047069e+01   1.8428885130e+01      8.45167     7.421344  53.83   0.04638883    1.195    0.163
         2 -13.0345    221.4213     24.0689   5.8664580735e+01   2.7468758513e+01    0.4968807    0.3169709 -17.20   0.00274065    2.436    0.589
         3 -12.3904    202.7964     27.6481   6.1407031456e+01   3.1074121266e+01    0.4122589    0.2440812 -72.49  0.002170611    1.910    0.476
         4 -11.9809    248.1171     17.0777   5.4971227743e+01   2.2845319911e+01       0.3778     0.198409 -42.72  0.001841348    1.770    0.435
         5 -12.9753    238.6909     15.8232   5.5501809454e+01   2.4844845987e+01    0.7131959    0.3160753 -81.10  0.003308313    2.914    0.657
         6 -13.6822    226.7897      3.8266   5.4225034688e+01   2.8513092218e+01     1.049455    0.5321447 -50.72  0.006217242    1.826    0.452
         7 -12.2601    239.9499      3.3568   5.3126508283e+01   2.5918606850e+01    0.5337825    0.2889714  72.03  0.003344778    1.642    0.391
         8 -12.1700    245.2733      9.0689   5.3753338741e+01   2.4277651305e+01    0.6383179    0.2321532  82.97    0.0029182    3.099    0.677
         9 -12.0274    248.6680      4.6417   5.2726070484e+01   2.4087377764e+01    0.4483451    0.2997688 -64.67  0.003058667    1.234    0.189
        10 -12.8048    237.2436     10.4417   5.4622459294e+01   2.5717590542e+01     0.451735    0.1906476  72.94   0.00241529    2.124    0.529
        11 -12.2165    233.8344      7.1739   5.4288982023e+01   2.6744492119e+01    0.2849198    0.2092636  76.43 0.0008819659    1.244    0.196
        12 -11.2733    219.0810     11.6897   5.6405290000e+01   2.9308466094e+01    0.1633545    0.1277736  83.82 0.0004832424    1.094    0.086
        13 -10.8787    214.8045     11.6716   5.6795034643e+01   3.0211351965e+01    0.2046391    0.1301748  86.88 0.0006120322    1.404    0.288
        14  -9.3761     64.2472     10.9968   8.3069446175e+01   6.2028335502e+01    0.1337596   0.09062674 -14.28  0.000242622    1.483    0.326
        15 -10.4202    193.8708      7.1585   5.7910488472e+01   3.5166489097e+01    0.1838407    0.1371735 -83.34 0.0006214587    1.219    0.180
        16  -9.7586      1.8077      8.7487   1.0668578264e+02   7.0251737309e+01    0.1294222    0.1013169 -17.97 0.0006363493    1.324    0.245
        17 -11.3427    213.9908      5.4924   5.5630307091e+01   3.1004128908e+01    0.2227225    0.1328227 -56.19 0.0008094851    1.607    0.378
        18 -10.1066    180.0119      5.9626   5.9148875795e+01   3.8329136916e+01    0.1900001    0.1523521  77.98 0.0007072676    1.038    0.036
        19 -11.3235    208.7893      1.4222   5.5277407717e+01   3.2493073273e+01    0.2920046    0.1209516  67.98  0.001521687    2.010    0.502
        20 -10.0761     87.3102      3.2883   7.3885034770e+01   5.8479086591e+01    0.2239523    0.1204766 -42.57  0.001176484    2.733    0.634
        21 -11.1902    217.4608      1.8498   5.4612988712e+01   3.0630963223e+01    0.2091383    0.1387163  78.44  0.000545898    1.267    0.211
        22 -10.8942    220.2224    225.8759   1.0145816302e+02  -5.5569634382e+00    0.2833228    0.1676622  27.82 0.0007441028    1.620    0.383
        23 -11.9737    212.7258    249.2549   1.0698556282e+02  -8.0117121246e+00    0.3585435    0.2102716  33.18 0.0004567025    1.535    0.349
        24 -12.0952    222.5352    250.0756   1.0526927523e+02  -9.5434553740e+00    0.6405829    0.1779607  40.68   0.00242349    3.725    0.732
        25 -12.8853    238.6972    246.5440   1.0168234757e+02  -1.1282416038e+01    0.9864979    0.4969589  -8.99  0.004402975    2.962    0.662
        26 -12.9175    247.4132    246.3008   1.0007284652e+02  -1.2403013188e+01    0.9104833    0.5432321 -20.24  0.005425688    1.544    0.352
        27 -13.2763    232.8091    244.2981   1.0237074692e+02  -1.0162680153e+01    0.7111176    0.3812137 -18.31  0.003647076    2.085    0.520
        28 -13.7337    176.9452    221.7111   1.0937455537e+02   2.1999814970e+00    0.7578717     0.409941  46.39  0.001846091    1.958    0.489
        29 -11.2669    168.7478    224.4330   1.1156795601e+02   3.1015193762e+00    0.4255015    0.2130775  48.06  0.001235165    2.196    0.545
        30 -10.1610    105.8404    222.8921   1.2484926958e+02   1.3959115601e+01    0.1881707    0.1804283 -20.87 0.0004183782    1.209    0.173
        31 -11.1581    233.7068    220.9433   9.8017792174e+01  -6.8084399896e+00    0.4021429    0.2202809  35.50  0.001433822    1.827    0.453
        32 -12.1108    235.5759    214.8003   9.6527959967e+01  -6.1197342748e+00    0.3308904    0.2475282   8.40  0.001027553    1.259    0.206
        33 -10.5772    130.4836    218.0486   1.1873986870e+02   1.0903633265e+01     0.202328    0.1372824 -53.42 0.0008381243    1.576    0.365
        34 -11.0133     59.5065    216.0259   1.3388080621e+02   2.2159787499e+01    0.3659565    0.2436284 -65.31  0.002098979    1.439    0.305
        35 -12.0201    143.0502    215.6204   1.1558176052e+02   9.2357610060e+00    0.3098552    0.2770014 -74.36 0.0005531504    1.283    0.220
        36 -11.5026    123.5333    215.9000   1.1992768483e+02   1.2520230537e+01    0.4844609    0.3161442  23.24    0.0016475    1.825    0.452
        37 -10.0195     17.7045    217.0534   1.4239322082e+02   2.6740625910e+01    0.1597309    0.1227188 -89.77   0.00027743    1.055    0.053
        38 -11.3278    202.8611    215.3748   1.0291416676e+02  -1.0448492371e+00    0.3269878     0.188859 -45.89 0.0006649308    1.901    0.474
        39 -11.4241     91.7885    214.3716   1.2671353322e+02   1.7953459672e+01    0.3478749    0.2748585  15.46  0.001932167    1.612    0.380
        40 -10.0921      1.4797    214.8907   1.4527602986e+02   2.8723448863e+01    0.1639391   0.08930915 -78.23 0.0003936999    1.494    0.331
        41 -14.2093    219.6603    175.5180   9.1735355572e+01   3.2184352633e+00    0.7549056    0.6160268 -61.84  0.001211014    1.572    0.364
        42 -15.8647    202.2664    179.3708   9.5926603698e+01   5.6426064079e+00     4.797264     2.272642  29.90   0.01360054    2.659    0.624
        43 -14.9594    168.2836     79.7912   7.9380106795e+01   3.1724164712e+01      1.15607    0.9326335  36.44  0.006158821    1.320    0.242
        44 -16.6754    174.2964    153.9817   9.6306577686e+01   1.6161661291e+01      4.43814     2.900031  15.03   0.01815118    2.247    0.555
        45 -16.1066    199.6906    161.6957   9.2687488073e+01   9.5435273438e+00     2.420514     1.750865  -0.32   0.01141059    1.785    0.440
        46 -15.3740    206.0266     92.6020   7.5764860522e+01   2.1119097579e+01      1.21012     0.979126   0.11  0.003670929    1.656    0.396
        47 -15.3776    222.5282    139.6040   8.3553451754e+01   9.3164135931e+00    0.8053492      0.65352  -1.69  0.002959117    1.446    0.309
        48 -16.1767    176.6986    139.8210   9.2537265419e+01   1.8580770571e+01     3.693572    0.8182338  42.52  0.009466248    4.972    0.799
        49  -9.8419     30.4550    249.0506   1.4256510291e+02   1.8884396903e+01    0.1584532   0.09530813 -78.60 0.0004485509    1.518    0.341
        50 -12.4694    233.3120    171.6460   8.8431742996e+01   1.5386249713e+00    0.2871045    0.2379571  35.32 0.0005253371    1.317    0.240
        51 -10.7459     32.2148    179.2974   1.3557918293e+02   3.3653022152e+01    0.3607448    0.1565407 -53.29  0.001351966    2.166    0.538
        52  -9.9127     21.9629    175.9734   1.3754041760e+02   3.5426799926e+01    0.1949155    0.1274743  70.68 0.0005774892    1.628    0.386
        53 -11.0819     87.7317    172.8758   1.2116382123e+02   2.8016065215e+01    0.3192128    0.2221453 -62.35 0.0007780041    1.405    0.288
        54  -9.9346     11.6650    207.7202   1.4279148942e+02   2.9315372644e+01     0.106608   0.08151154 -49.29 0.0002238799    1.613    0.380
        55  -9.3359     35.3049    160.2894   1.3236370563e+02   3.7770935618e+01    0.1277717    0.0890647 -40.46            0    1.570    0.363
        56 -11.6133    250.6456    158.2716   8.2751802934e+01   9.5646345048e-01     0.230072    0.1098156 -39.12 0.0002480653    1.810    0.447
        57 -10.1745     41.9130    158.3074   1.3040502078e+02   3.7540370598e+01    0.2346178    0.1665638 -78.95  0.001060796    1.377    0.274
        58  -9.3475     23.4510    157.4897   1.3493512792e+02   3.9567803085e+01    0.1270941    0.1048155 -68.30 0.0002095336    1.025    0.024
        59 -10.7846    114.8834    204.6822   1.2006517479e+02   1.6358514677e+01    0.2273163    0.1945569 -66.48 0.0002672026    1.213    0.176
        60 -10.8917    170.2373    203.8931   1.0754329076e+02   6.7426347517e+00    0.2451916    0.1890427  47.06 0.0006187244    1.361    0.266
        61 -11.5739     90.5135    150.5995   1.1622587441e+02   3.2839124571e+01    0.5400826    0.2039606 -46.54  0.001929512    2.578    0.612
        62 -11.1886    154.4550    203.9166   1.1100221598e+02   9.5831444900e+00    0.2706499    0.2019917 -50.69 0.0004285603    1.429    0.300
        63 -11.3302     80.3755    148.4745   1.1852023873e+02   3.4913736656e+01    0.3306851    0.2376086 -55.67 0.0005219391    1.301    0.231
        64  -9.6324     33.9068    150.1552   1.3124499590e+02   4.0293883969e+01    0.1719873    0.1332409 -46.02 0.0003335604    1.265    0.209
        65  -9.6719     37.1282    147.1183   1.2993011393e+02   4.0683281360e+01     0.170474    0.1419003  84.27 0.0002779311    1.282    0.220
        66 -10.2684     12.2733    144.0919   1.3598571211e+02   4.3599939130e+01    0.2643377   0.07400237 -62.09  0.001084242    2.553    0.608
        67 -10.2126    128.0141    210.9950   1.1813770513e+02   1.2782242657e+01    0.2201129    0.1683445  73.32  0.001124454    1.617    0.381
        68 -10.1332     67.9778    201.4969   1.3025311320e+02   2.4252575042e+01    0.2059704    0.1659996 -73.24 0.0006271881    1.165    0.142
        69 -12.6310    247.6821    137.9431   7.9052901951e+01   4.9717314033e+00    0.3861349    0.3071819  25.10 0.0008110643    1.504    0.335
        70  -9.8542     67.0402    140.0067   1.2049911683e+02   3.8816644118e+01    0.2007719    0.1615183  77.62  0.001068573    1.517    0.341
        71 -10.1381     18.9605    133.4699   1.3270429092e+02   4.5518189366e+01    0.1853676    0.1393899 -62.86 0.0001848563    1.091    0.084
        72  -9.7302     57.4946    133.4890   1.2189867202e+02   4.1584990320e+01    0.1381091    0.1232525 -51.43 0.0008105654    1.005    0.005
        73 -11.7824      7.1045    201.4123   1.4316586907e+02   3.1091794470e+01    0.2097001    0.1700276 -85.76 0.0003527886    1.064    0.060
        74 -10.7499     99.5189    128.5787   1.0892491039e+02   3.6429764593e+01    0.2270108    0.2116969 -41.49 0.0001251623    1.034    0.033
        75 -12.6479    102.8871    126.9686   1.0761075222e+02   3.6198933122e+01     0.451275    0.4166063  79.00  0.001339769    1.252    0.201
        76 -11.1860     87.3478    128.7799   1.1237974828e+02   3.8420612235e+01    0.2965038    0.2291556 -16.16 0.0009671643    1.505    0.336
        77 -10.1654    162.3365    201.2750   1.0877173458e+02   8.6912641570e+00    0.1454127    0.1095631   2.87 0.0002696492    1.607    0.378
        78 -10.5413     73.8436    201.1763   1.2888929283e+02   2.3511897337e+01    0.1693954     0.152132 -43.82  0.000261399    1.274    0.215
        79  -9.7942     24.2621    123.6361   1.2961978116e+02   4.7331014663e+01    0.1236991   0.09130982  86.75 0.0006981361    1.640    0.390
        80 -15.5372    190.8857     93.0727   7.8478416698e+01   2.4372562349e+01     1.162321    0.9283246   8.56   0.00469786    1.665    0.399
        81 -13.0029    249.9304    114.7891   7.3937121046e+01   8.5201884134e+00     0.416459    0.2450189 -39.25  0.001996248    1.494    0.331
        82 -10.9513     68.7069    116.5092   1.1496652394e+02   4.3996032361e+01    0.3735976    0.2131714  52.88  0.001417964    2.496    0.599
        83 -11.5781    134.6228    197.5663   1.1431927319e+02   1.4475959071e+01    0.2919786    0.2454321 -56.15    0.0013374    1.246    0.197
        84 -11.6684     90.5558    110.4661   1.0701193172e+02   4.1957247559e+01     0.343357    0.2862945  89.07  0.001187688    1.643    0.391
        85 -11.5474    233.9112    192.3266   9.2496276139e+01  -2.1603578759e+00    0.2341152    0.2032851  -6.17 0.0003606502    1.042    0.040
        86 -10.2603     86.5900    106.2101   1.0707817920e+02   4.3523496522e+01    0.3503713    0.1913608 -32.55  0.001091339    2.039    0.510
        87 -11.5287     83.8148    103.4881   1.0719326809e+02   4.4549241787e+01    0.3746774    0.3129051 -23.96  0.001399284    1.149    0.130
        88 -11.5228     79.2384    105.2892   1.0903932613e+02   4.4893605923e+01    0.3376341    0.2940522 -51.79  0.001912411    1.196    0.164
        89 -11.3985    227.3929    191.2907   9.3490751229e+01  -9.2054292099e-01    0.3502729    0.2686479 -17.60  0.001009268    1.220    0.180
        90  -9.6918      9.4840    193.5465   1.4201135084e+02   3.2600315516e+01    0.1178671   0.09447158 -84.48 2.274137e-05    1.029    0.028
        91 -10.4388     31.8998     98.6387   1.2236478933e+02   5.2200019477e+01    0.2242752    0.1437426 -43.67  0.000532362    1.299    0.230
        92 -11.2405    135.5888    187.7493   1.1227829262e+02   1.6430922741e+01    0.2238055    0.1757963  74.02  0.000411172    1.612    0.380
        93 -12.4958    103.7746     92.2263   9.8275789576e+01   4.3323308461e+01    0.4338215    0.3195572  -3.98  0.001086072    1.635    0.388
        94 -11.8436    106.0332     87.3592   9.6253941135e+01   4.3816094551e+01    0.2988994    0.2191443  48.69  0.000960231    1.468    0.319
        95 -11.2002    213.9518    211.6610   1.0002544155e+02  -2.2277060785e+00     0.248849    0.1901869 -36.10 0.0008467134    1.316    0.240
        96 -10.7157      8.0032     92.9570   1.2894493814e+02   5.5273781117e+01    0.1754533    0.1410009 -47.51  0.001201374    1.035    0.033
        97 -11.3653     87.9233     88.7625   1.0191928709e+02   4.6837468398e+01    0.3184121    0.2714586  -8.22 0.0007680035    1.133    0.117
        98 -12.4835    128.6952    188.8145   1.1409452029e+02   1.7444246868e+01    0.5193486    0.3660288 -75.54   0.00142204    1.876    0.467
        99 -11.1211    110.7997     87.5447   9.4988949610e+01   4.2855481999e+01    0.2685101    0.1967091 -37.10  0.001056249    1.359    0.264
       100 -11.9937    127.0114    184.0169   1.1359368624e+02   1.8812794364e+01    0.3133054    0.2629826  83.62 0.0009564338    1.413    0.292
       101 -11.1111    249.7944     86.8489   6.8243674521e+01   1.3082250780e+01    0.3081588    0.2097744  79.63  0.001724678    1.730    0.422
       102 -11.2302     78.3948     83.5004   1.0332933003e+02   4.9418712397e+01    0.3186599    0.2248546  39.24  0.001150483    1.509    0.337
       103 -10.2005     52.5064     81.0456   1.1107090684e+02   5.3576094274e+01    0.1880024    0.1610654  -8.00 0.0003849247    1.090    0.082
       104 -12.4354    129.0018    180.0453   1.1235758229e+02   1.9340116402e+01    0.3798351     0.324305 -54.96  0.001416604    1.190    0.160
       105 -11.5744    165.0217    208.7299   1.0957044421e+02   6.7297202042e+00    0.2755004    0.2156731 -48.04  0.001474253    1.371    0.270
       106 -10.0467    245.8435     80.0635   6.7354100555e+01   1.4894674310e+01    0.1852981    0.1603631 -56.56 0.0004306534    1.037    0.036
       107 -10.5060     89.4950    190.8975   1.2374483812e+02   2.3547444887e+01    0.3219359    0.1743067  20.02   0.00126297    2.894    0.654
       108 -12.6223    109.0236     70.2855   9.0385143665e+01   4.6221605341e+01    0.3973657    0.3327417  79.00 0.0002814048    1.654    0.395
       109 -12.9516    102.8015     70.1294   9.2047697954e+01   4.7469160408e+01    0.4618964    0.3680664 -14.57   0.00255296    1.274    0.215
       110 -11.1761     94.9692     77.9827   9.6669222876e+01   4.7593827377e+01    0.2174251     0.202709 -12.34 0.0008541304    1.079    0.074
       111 -10.5164     85.9336     76.8373   9.9025885850e+01   4.9397380229e+01    0.2437443    0.1872946 -33.38 0.0006516108    1.256    0.204
       112 -10.1118    241.0122     72.5175   6.6401214232e+01   1.6990629668e+01    0.1816233    0.1213273  70.93  0.001018688    1.584    0.369
       113 -11.5845     82.6390     67.5807   9.7192255851e+01   5.1565660188e+01    0.3112425    0.2515489 -71.63  0.001665355    1.986    0.496
       114 -11.9173    243.2168     65.7548   6.4766506740e+01   1.7547287957e+01     0.487331    0.2705653 -87.26  0.001669768    2.545    0.607
       115 -10.8760    239.1347    187.6418   9.0626858803e+01  -2.2005388899e+00    0.2884132    0.2237407  64.15 0.0002863769    2.032    0.508
       116 -10.7486     31.8144     67.0956   1.1439068612e+02   5.8526633070e+01    0.2030461    0.1563379  -6.02  0.001310414    1.217    0.179
       117 -10.6526     10.9807     66.0130   1.2180304227e+02   6.0480368945e+01    0.1803813    0.1333823 -33.61  0.001223838    1.043    0.041
       118 -11.3575    234.4223     62.6303   6.5155057778e+01   1.9773356099e+01    0.4333934    0.3611931  31.88  0.002357973    1.658    0.397
       119 -11.4144    111.2550     61.2272   8.7024620936e+01   4.7196978812e+01    0.2533439    0.2302643 -79.53  0.001017574    1.429    0.300
       120 -13.9329    248.3745    184.2952   8.8350659237e+01  -3.0918622120e+00    0.3577318    0.3130129  -7.24  0.001385036    1.080    0.074
       121  -9.8770     32.6365     59.3053   1.1177534549e+02   5.9845447998e+01    0.1066013   0.09806493  64.35 0.0007037784    1.738    0.425
       122  -9.5193     16.0103     58.9397   1.1797998409e+02   6.1414841316e+01    0.1418395    0.1068701 -31.29 0.0003488083    1.033    0.032
       123 -10.2534    239.5035     57.1505   6.3451246897e+01   1.9515482407e+01    0.2487843     0.197293 -47.51  0.001589612    1.202    0.168
       124 -11.7100    139.4451     56.2010   7.8837495306e+01   4.1873218632e+01    0.3186061    0.2466701  18.87 0.0004699475    1.478    0.323
       125 -12.2161    135.3641     52.9586   7.8779387971e+01   4.3230142218e+01    0.3296714    0.2927172 -65.63 0.0006968175    1.322    0.243
       126 -13.6766    140.9994     48.5605   7.6325224357e+01   4.2558257325e+01    0.7736335    0.5674449  58.41  0.004251081    1.287    0.223
       127  -9.2707     11.3169     58.2852   1.1960203002e+02   6.1886777681e+01    0.1217669   0.06799919 -26.67 0.0005467022    1.586    0.369
       128 -12.0534    159.1391     55.0233   7.4581569856e+01   3.7568318934e+01    0.3000333    0.2483397  53.59 0.0003914939    1.127    0.113
       129 -11.2675    162.8721     50.4596   7.2689301139e+01   3.7328607664e+01    0.3436668    0.2094543 -55.15 0.0008909782    1.979    0.495
       130 -11.8439    128.5722     55.7286   8.1108763893e+01   4.4340199641e+01    0.2776242    0.2320006  27.53 0.0006405787    1.176    0.150
       131 -11.1730    116.1632     55.3518   8.3962838696e+01   4.7043960283e+01    0.3104823    0.2248797 -30.37 0.0008440648    1.452    0.311
       132 -12.1332    249.2600     52.6897   6.1530850463e+01   1.8192168461e+01    0.2414257    0.1775819 -62.14 0.0005572845    1.174    0.148
       133 -12.0154    121.7804     53.1762   8.1930465015e+01   4.6161118112e+01    0.4092037     0.241624  63.04 0.0007283954    2.025    0.506
       134 -11.5334    105.6543     48.6146   8.4530327464e+01   5.0131835689e+01    0.3550487    0.2422664 -27.18  0.001841512    1.539    0.350
       135 -10.7543    101.0569     51.3326   8.6626713862e+01   5.0673463026e+01    0.2776037    0.1996719  30.86 0.0004762936    1.299    0.230
       136 -10.5685     93.7140     51.7145   8.8792939172e+01   5.2032671219e+01    0.2125814    0.1821162 -32.04 0.0001779293    1.285    0.222
       137 -11.0357     97.0755     50.4888   8.7447377743e+01   5.1564724137e+01    0.2955943    0.2063276  34.39  0.000497858    1.314    0.239
       138 -10.7541    220.7974    206.8764   9.7789782513e+01  -2.5229596263e+00    0.3092138     0.201807 -33.53   0.00095556    1.445    0.308
       139 -11.1018    245.1005     46.8469   6.0819317329e+01   1.9795835073e+01    0.3437738    0.2406448  65.11  0.001821034    1.478    0.323
       140  -9.6074    249.0225     43.9800   5.9882331319e+01   1.9399877606e+01    0.1401036    0.1145164 -69.60            0    1.008    0.008
       141 -10.2659     18.0409     49.5068   1.1437307747e+02   6.2898405015e+01    0.1552163    0.1033965  11.14 0.0003366013    1.500    0.333
       142 -11.8662    156.0074     44.5016   7.2320693570e+01   3.9671272651e+01    0.3884977    0.3173383   3.98  0.001765879    1.493    0.330
       143 -11.1148    151.6754     44.0399   7.2983862576e+01   4.0717990132e+01     0.227823    0.2126791  15.18 0.0009475258    1.165    0.141
       144 -11.2100     64.0559     45.0808   9.5748864409e+01   5.8071494837e+01    0.2265075    0.1722916 -11.65  0.001402453    1.186    0.157
       145 -12.1038    118.3047     42.8540   7.9585717896e+01   4.8257097292e+01    0.4011716     0.259649  55.89  0.001209671    1.500    0.333
       146 -10.3868    224.7772     39.9964   6.1573045165e+01   2.4845161175e+01     0.219164    0.1628505  79.79  0.001140948    1.246    0.197
       147 -11.1179     93.8354     39.6862   8.4774376244e+01   5.3611220884e+01    0.2645945    0.1896066 -37.84  0.001156169    1.605    0.377
       148 -13.1225    207.8310     35.2319   6.2479847366e+01   2.9078299648e+01    0.6162295    0.3647177  87.39  0.002721572    1.829    0.453
       149 -12.2659    200.2676     32.8876   6.2867388268e+01   3.1024455740e+01    0.4921148    0.1910153  65.72  0.002178753    2.346    0.574
       150 -10.3030    132.2546    246.6070   1.2264273633e+02   5.1010674342e+00    0.2156292    0.1700299  54.14 0.0004351396    1.247    0.198
       151 -11.2409    220.9843     31.9536   6.0319885673e+01   2.6639228225e+01    0.2788827    0.1842082 -31.53 0.0003351662    1.745    0.427
       152 -11.8360    214.0018     34.5469   6.1622618575e+01   2.7820216585e+01    0.3354354    0.2289875 -47.34 0.0003401743    1.427    0.299
       153 -10.9914    217.0188     38.0032   6.2016483005e+01   2.6745954524e+01    0.2474549    0.1844682  67.85 0.0004378361    1.279    0.218
       154 -11.3082    218.3417     34.8043   6.1195819277e+01   2.6856792718e+01    0.2701789    0.2080447 -68.67  0.001143971    1.188    0.158
       155 -10.4383     86.0627     38.5731   8.6589435774e+01   5.5210116533e+01     0.185972     0.156812  -3.06 0.0003511824    1.132    0.117
       156 -10.4057    237.7982     36.2416   5.9476694345e+01   2.2625060935e+01    0.2253335    0.1660929 -31.12  0.001422156    1.620    0.383
       157 -10.8846    233.2201     35.6806   5.9818334523e+01   2.3629192755e+01    0.2162127    0.1848193 -77.16 0.0003840939    1.043    0.041
       158 -10.7148    111.0787    183.9729   1.1740384704e+02   2.1623861015e+01     0.224429    0.2211819  80.73 0.0008869944    1.011    0.011
       159 -11.0224    146.7659     35.4859   7.1520347728e+01   4.2857049285e+01    0.2663633    0.1697866  59.67  0.001414831    1.407    0.289
       160 -12.9496    186.1414     31.5106   6.4349653002e+01   3.4346419865e+01    0.7014148      0.38216  85.23  0.002689972    2.216    0.549
       161 -12.5734    189.2499     27.1831   6.2935296256e+01   3.4135997664e+01    0.5284898    0.2306967  49.05  0.002104985    2.455    0.593
       162 -12.1514    129.8701     31.8712   7.3726997786e+01   4.7036166869e+01    0.6394154    0.2405196  62.83 0.0003815552    2.877    0.652
       163  -9.9598    128.4946     28.4578   7.2988615343e+01   4.7704543883e+01    0.1296873    0.1118874  46.54 -4.618425e-06    1.007    0.007
       164 -11.2224    156.9960     30.3783   6.8365843220e+01   4.1105148997e+01     0.412481    0.1701623 -35.43  0.001735926    2.574    0.611
       165 -11.3656    147.9955    185.9440   1.0904999141e+02   1.4528242854e+01    0.4122568    0.2067098 -39.74  0.001639352    2.155    0.536
       166 -11.3505    178.2721     26.6118   6.4237738883e+01   3.6673976027e+01      0.23222    0.2250131 -54.93 0.0005842948    1.178    0.151
       167  -9.5938     36.7960     30.5904   1.0035616974e+02   6.3843955737e+01    0.1394729    0.1006124  31.04 0.0001181838    1.517    0.341
       168  -9.9901     51.6478    245.1951   1.3840660891e+02   1.7113046056e+01    0.1548465    0.1279924 -89.73 0.0004441712    1.129    0.114
       169 -11.8933    118.0479    190.6766   1.1694260367e+02   1.8908852962e+01    0.4270015     0.290328 -63.01  0.001018172    1.599    0.375
       170 -11.0674    162.0730     27.0634   6.6692429328e+01   4.0307423665e+01    0.1934023    0.1693771  66.64 0.0004320565    1.004    0.004
       171 -11.3603     91.0095    177.3065   1.2112264351e+02   2.6464949754e+01    0.2316708    0.1900871 -40.29 0.0003888086    1.297    0.229
       172 -11.3144    241.3884     24.3601   5.6868712040e+01   2.3336798435e+01    0.4349633    0.2027608 -64.82  0.002196616    2.315    0.568
       173 -12.4809    227.0725     23.5146   5.8006639207e+01   2.6349742234e+01    0.3947349    0.1879853  63.62  0.002116214    1.951    0.487
       174 -10.2055     65.1372     25.1615   8.8180718904e+01   6.0438551403e+01    0.1517054     0.135762  30.42 0.0004739428    1.323    0.244
       175 -11.4908    184.3420    211.4144   1.0595843752e+02   2.8130206485e+00    0.2487428    0.2358888  40.78  0.001084858    1.199    0.166
       176 -10.5118    168.5272     21.4980   6.4328839879e+01   3.9421227904e+01    0.1890982    0.1588332 -55.83 0.0007042284    1.283    0.221
       177 -10.7271    125.7952     21.8293   7.1541860636e+01   4.8963811898e+01     0.243034    0.2015131 -11.72 0.0007315862    1.364    0.267
       178 -10.5479    177.2056     30.7657   6.5395344803e+01   3.6455961977e+01    0.1802581    0.1587502 -21.11 0.0003184488    1.354    0.262
       179  -9.9943    119.9923     20.6682   7.2352445188e+01   5.0330056619e+01     0.178695    0.1395296  49.19 0.0005553087    1.087    0.080
       180 -12.0672    214.2425    243.6968   1.0575351985e+02  -7.4107344584e+00    0.2765553    0.2109037  37.83  0.001227993    1.416    0.294
       181 -10.8315    120.5090    242.0536   1.2442121438e+02   7.8205602145e+00    0.4037546    0.2274514 -71.19  0.001875746    2.546    0.607
       182 -10.3806     31.6605    243.0571   1.4189122894e+02   1.9919763658e+01    0.2044417    0.1596802  12.05  0.001340714    2.071    0.517
       183 -10.1550     21.3239    243.0040   1.4372388949e+02   2.1066974013e+01    0.1571639    0.1162821  82.63 0.0005144119    1.082    0.076
       184 -10.0299      2.3179    242.9056   1.4696933840e+02   2.3008056054e+01    0.1528691    0.1070771 -87.44  0.001123381    1.170    0.145
       185 -12.3180    189.4738    240.7163   1.1009191302e+02  -3.1371598603e+00    0.4536792    0.3430248  78.01  0.002303086    2.593    0.614
       186 -10.2348     66.3463    242.6817   1.3537066966e+02   1.5703688714e+01    0.1317176   0.07829472  66.39 0.0007048821    1.727    0.421
       187 -10.0057     56.6188    242.1873   1.3719015741e+02   1.7078619746e+01    0.1575703    0.1011003 -60.32 0.0008725922    1.657    0.397
       188 -10.2931     19.0097     16.4560   1.0209793890e+02   6.7682847416e+01    0.1521675   0.09109506  22.28 0.0003837745    1.532    0.347
       189  -9.6896    128.1771     15.2064   6.9117467544e+01   4.9059483285e+01    0.1592694    0.1400741 -82.60 0.0005363603    1.335    0.251
       190 -11.6093    123.0919    176.2811   1.1305028446e+02   2.1262236406e+01    0.2848987    0.2206604 -61.58 0.0006461312    1.363    0.266
       191  -9.9258     48.3157     14.6862   8.9820258097e+01   6.4187080137e+01    0.0950662   0.09286512   3.93 0.0002300352    1.643    0.391
       192  -9.8121    237.6308    174.2484   8.8199551245e+01   3.5164865925e-01    0.4100655    0.2474811  -7.61  0.001788832    2.498    0.600
       193 -10.1746    180.0050     13.3299   6.0856719648e+01   3.7645311268e+01    0.1703388    0.1330323  75.90 0.0003482764    1.090    0.083
       194  -9.4239    123.4344     13.4977   6.9493982126e+01   5.0239977958e+01    0.1244563    0.1037325  47.33 8.112688e-05    1.021    0.020
       195 -11.4566    190.5154    249.7566   1.1137526310e+02  -4.7391028584e+00    0.3444316    0.2089145  32.29  0.001890302    1.446    0.309
       196 -10.3851    101.7914    234.7640   1.2732180609e+02   1.2172322708e+01    0.1805373    0.1405307  68.72  0.001054716    1.312    0.238
       197 -10.2364    183.0358     16.5211   6.1232782092e+01   3.6654282955e+01    0.1765061    0.1598751 -83.54 0.0006701633    1.101    0.091
       198 -11.8764    192.5901    232.5746   1.0807785672e+02  -2.2940698690e+00    0.2995041    0.2692455  -2.42 0.0005456881    1.085    0.078
       199 -11.6427    248.3231    233.1749   9.7597840798e+01  -1.0697341523e+01    0.4035545    0.1477478  29.65  0.001758667    2.902    0.655
       200 -10.3090    144.3475    230.8425   1.1778601646e+02   6.0438305493e+00    0.2262267    0.1691377  48.27  0.000555119    1.308    0.235
       201 -11.2041    205.7865     12.8444   5.7908467178e+01   3.2018946304e+01    0.2180045    0.1507432 -86.99 0.0007223771    1.313    0.238
       202 -10.2068     69.2980    230.1286   1.3344967829e+02   1.7854726226e+01    0.1911401    0.1624673  40.78 0.0003278521    1.255    0.203
       203 -10.9673    176.1198    228.5006   1.1073144178e+02   1.1205350100e+00    0.2136631    0.1225541  36.56  0.001037445    1.603    0.376
       204 -10.9880    149.5434    227.4303   1.1613671950e+02   5.8140471361e+00    0.2625288    0.2241591  15.82  0.000835109    1.189    0.159
       205 -11.7931    201.9769    225.8295   1.0500740180e+02  -2.6814329065e+00    0.5373492    0.2555254  29.34  0.001957487    2.159    0.537
