#   1 NUMBER                 Running object number                                     
#   2 MAG_AUTO               Kron-like elliptical aperture magnitude                    [mag]
#   3 X_IMAGE                Object position along x                                    [pixel]
#   4 Y_IMAGE                Object position along y                                    [pixel]
#   5 X_WORLD                Barycenter position along world x axis                     [deg]
#   6 Y_WORLD                Barycenter position along world y axis                     [deg]
#   7 A_WORLD                Profile RMS along major axis (world units)                 [deg]
#   8 B_WORLD                Profile RMS along minor axis (world units)                 [deg]
#   9 THETA_WORLD            Position angle (CCW/world-x)                               [deg]
#  10 FWHM_WORLD             FWHM assuming a gaussian core                              [deg]
#  11 ELONGATION             A_IMAGE/B_IMAGE                                           
#  12 ELLIPTICITY            1 - B_IMAGE/A_IMAGE                                       
         1 -12.3826    208.5754     38.5401   3.8731603796e+01   2.8666904730e+01    0.9758881    0.9098549 -26.47  0.005383966    1.308    0.236
         2 -11.8536    224.2396     23.7459   3.3805354740e+01   2.7034641087e+01    0.7773271    0.7076125  86.00  0.004786427    1.221    0.181
         3 -11.1117      2.2264     26.2507   9.6141188408e+01   7.0750306819e+01    0.9493066  0.009559122 -52.83  0.002778389    6.606    0.849
         4 -10.2253      2.0000      4.4294   8.6622418041e+01   7.4303546057e+01    0.3917212    0.1342935 -44.77  0.001966588    2.709    0.631
         5 -10.1506    249.0233      4.5065   2.8098758159e+01   2.4101956413e+01    0.3155667    0.3033863  20.92  0.002289776    1.625    0.385
         6 -10.5250    245.1944      3.6096   2.8161559659e+01   2.4950619852e+01    0.4120601     0.301201  82.33  0.002919664    1.310    0.237
         7  -7.7281    134.2446     32.9867   4.8527724627e+01   4.7239270471e+01    0.1610038     0.119481 -28.30 0.0002665454    1.482    0.325
         8 -10.1680     81.3044    249.2555   1.1028192624e+02   1.1396823512e+01    0.2950017    0.2509563  69.35   0.00107996    1.122    0.109
         9 -11.1671     84.9296    220.5341   1.0647183444e+02   1.6683087938e+01      0.72642    0.4907154  62.19  0.001475474    1.494    0.331
        10 -12.3664      3.4907    180.4053   1.2136944832e+02   3.5208314050e+01     2.241148    0.5252789 -81.07  0.001750149    4.178    0.761
        11 -13.4489    111.1165    229.5013   1.0171118108e+02   1.0910585347e+01     7.539987      2.02486  30.52   0.02176724    4.930    0.797
        12  -7.4258     58.2761    195.3175   1.0977748896e+02   2.6038824294e+01    0.1274966    0.1005605 -40.77 0.0002437733    1.570    0.363
        13  -9.6705     20.3585    194.3693   1.1856896233e+02   3.0484197135e+01    0.2501764     0.180671  77.02 0.0007807073    1.183    0.155
        14  -8.8505     81.4472    182.1678   1.0224121402e+02   2.6011614976e+01    0.2839882    0.2364599   3.60  0.001145187    1.512    0.339
        15 -10.3047     61.1398    175.6688   1.0661026463e+02   3.0446084445e+01    0.4235263    0.2826224 -32.25  0.001910756    2.058    0.514
        16 -10.2352     66.3455    170.4711   1.0449400487e+02   3.1055104089e+01    0.3712513     0.277324 -37.98  0.001075889    1.577    0.366
        17 -11.8675     56.9323    238.9096   1.1433411673e+02   1.6628348893e+01    0.6102626    0.4804834  75.59 0.0006796811    1.141    0.123
        18 -10.1912     29.6727    165.3295   1.1360750101e+02   3.6600683133e+01    0.5534084    0.2466478  44.96  0.002507027    2.273    0.560
        19 -10.0784     72.9338    154.2376   1.0006432685e+02   3.4257243020e+01    0.6614836    0.3946509  65.95  0.002709588    2.285    0.562
        20 -11.8112     68.3765    144.4761   9.9659156786e+01   3.7404785784e+01    0.9296003    0.6132169  64.49  0.003088729    1.890    0.471
        21 -10.5536     76.3265    161.1624   1.0028887387e+02   3.2001467085e+01    0.5653477    0.3851091  22.02 0.0005140013    1.723    0.420
        22 -10.9027     83.5677    154.5680   9.7078439994e+01   3.2584167293e+01    0.8412513    0.4542704 -42.51  0.003406727    2.061    0.515
        23 -11.8073     63.2638    157.0084   1.0328632412e+02   3.4881773193e+01    0.5273718    0.3250826 -42.80  0.001216628    1.797    0.443
        24 -13.2780     30.7570    249.6457   1.2021263288e+02   1.7598039560e+01     2.664009    0.7354648  27.64  0.009207502    5.734    0.826
        25  -8.0690    133.7582    143.9747   8.0874580083e+01   2.6132826591e+01    0.2160099    0.1328575 -47.33 0.0006677361    1.608    0.378
        26  -8.9053     41.8293    212.9477   1.1532506205e+02   2.3976212417e+01    0.3009159    0.1835965  28.00  0.001133708    1.848    0.459
        27  -8.4956     98.0040    141.3190   9.0242926239e+01   3.3556023743e+01    0.2425396    0.2146572 -21.98  0.001228606    1.226    0.185
        28  -8.0154    101.0058    137.9817   8.8630982026e+01   3.3859967197e+01    0.3321093    0.2101787   5.32  0.001212064    2.697    0.629
        29 -10.6119     85.9392    139.7721   9.3481652777e+01   3.5971024400e+01    0.3218329    0.2771717 -37.16 0.0004335201    1.192    0.161
        30 -10.7196     59.6023    134.9920   1.0058250074e+02   4.1017754282e+01    0.5792869     0.347897 -75.77  0.002541467    1.858    0.462
        31  -9.3973     74.9156    135.5706   9.5959937504e+01   3.8748731352e+01     0.270137    0.2090616 -69.38 0.0005453187    1.302    0.232
        32  -9.1296    107.5204    130.6273   8.5022405132e+01   3.4480661243e+01    0.5274491    0.3039459  33.88  0.002128977    1.837    0.455
        33  -8.2520     96.8128    126.0737   8.7128604822e+01   3.7560444620e+01    0.2963471     0.206716  -2.10  0.001216618    2.091    0.522
        34  -7.9198    106.2090    119.1955   8.2585715042e+01   3.7495250806e+01    0.2262164    0.2030717  -6.34 0.0004483497    1.189    0.159
        35  -9.4720     53.1242    112.4352   9.8171689195e+01   4.7555348009e+01    0.3004221    0.1911843 -79.41  0.001336318    1.978    0.495
        36  -8.3189    205.8223    110.2254   5.6492442311e+01   1.7809890552e+01    0.1960737    0.1707622  -0.72 0.0005301984    1.329    0.247
        37 -11.4628     33.2320    202.0231   1.1629524745e+02   2.7408871192e+01     0.460132    0.3761543 -54.82  0.001085114    1.435    0.303
        38 -13.4409     42.1284    192.5043   1.1335109590e+02   2.8652668616e+01     2.553188     1.290157  68.96   0.01144575    2.294    0.564
        39  -9.3386     51.2159    217.1836   1.1364445606e+02   2.1921609064e+01    0.3021751    0.1728474  41.52  0.001625662    1.579    0.366
        40 -10.3162      1.8614     65.6874   1.0767919581e+02   6.2842638962e+01    0.5688794    0.1508924 -63.34  0.002287457    2.865    0.651
        41 -10.2508     13.3704     60.4349   1.0129833294e+02   6.3356692247e+01    0.3223932    0.1788998 -56.86   0.00124687    1.543    0.352
        42 -10.7453      2.0499     48.0001   1.0325831207e+02   6.6591857960e+01    0.7688258          nan -57.28  0.002407261    4.990    0.800
        43  -7.7398     45.3343     60.7349   8.7186065111e+01   6.0309336171e+01    0.1194629      0.10661  58.93 0.0003741375    1.584    0.368
        44 -11.8645    199.3531     44.7677   4.1354737992e+01   2.9957986944e+01    0.6195285    0.5706785  48.39  0.002708655    1.277    0.217
        45 -13.3770      3.3559    246.0655   1.2499869463e+02   2.1102143118e+01     1.542897     0.949753 -79.82   0.01068636    1.528    0.345
        46 -10.7167    217.3576     30.6116   3.5966401203e+01   2.7705687295e+01    0.4800045    0.3438392  43.34  0.001157373    1.876    0.467
        47 -14.0209      6.5871    140.9968   1.1726626873e+02   4.4547146306e+01     12.03362      2.91434 -83.81   0.02723838    8.638    0.884
        48  -8.4069    134.7957     41.1399   5.1068225413e+01   4.6076055811e+01    0.2119592    0.1825055 -81.29 0.0005976578    1.309    0.236
        49  -9.8143     58.7496    228.2357   1.1302587924e+02   1.8599016457e+01    0.2872554    0.1888024 -68.14  0.001026242    1.573    0.364
        50 -14.0527     10.5874    209.3230   1.2171703824e+02   2.8013811269e+01     2.900608     1.136024 -87.68   0.01302729    2.431    0.589
        51  -9.8634     32.6346    221.7603   1.1799055437e+02   2.3079360129e+01    0.3771152    0.2585593 -88.14  0.001729013    1.313    0.239
        52 -10.3578     44.0473    218.5544   1.1532309140e+02   2.2480205875e+01    0.3424115    0.2675493  46.68 0.0005005174    1.216    0.178
