#   1 NUMBER                 Running object number                                     
#   2 MAG_AUTO               Kron-like elliptical aperture magnitude                    [mag]
#   3 X_IMAGE                Object position along x                                    [pixel]
#   4 Y_IMAGE                Object position along y                                    [pixel]
#   5 X_WORLD                Barycenter position along world x axis                     [deg]
#   6 Y_WORLD                Barycenter position along world y axis                     [deg]
#   7 A_WORLD                Profile RMS along major axis (world units)                 [deg]
#   8 B_WORLD                Profile RMS along minor axis (world units)                 [deg]
#   9 THETA_WORLD            Position angle (CCW/world-x)                               [deg]
#  10 FWHM_WORLD             FWHM assuming a gaussian core                              [deg]
#  11 ELONGATION             A_IMAGE/B_IMAGE                                           
#  12 ELLIPTICITY            1 - B_IMAGE/A_IMAGE                                       
         1 -15.5450    108.5896    115.8942   1.1383604022e+02   3.7805879836e+01     1.701084     1.066479 -58.83  0.007691783    1.648    0.393
         2 -15.1067      8.7039     24.4665   1.2256183026e+02   6.9717727056e+01     1.596367    0.8929047 -42.65  0.008319854    1.337    0.252
         3 -12.6769     83.5399     22.4535   9.0703950810e+01   6.0197713088e+01    0.4731071    0.4033046  -1.56  0.001531619    1.057    0.054
         4 -11.8153     63.8634     17.3624   9.5151832600e+01   6.4381705556e+01    0.4278716    0.2770631  43.85  0.001793887    1.652    0.395
         5 -12.8250    112.6716      7.7811   7.6665820995e+01   5.5631714421e+01    0.9013858    0.6172592 -54.43  0.004647462    1.945    0.486
         6 -12.0092     75.4110     13.3544   8.9265514086e+01   6.2854021391e+01    0.3596845    0.2837555 -18.67 0.0009171233    1.217    0.178
         7 -12.5297    103.7049      3.7231   7.7037479193e+01   5.8029642595e+01    0.6274056    0.4676768 -17.76  0.003461819    1.393    0.282
         8 -12.5986     96.4943      3.3569   7.8632245051e+01   5.9641811003e+01    0.5751883    0.4098926  38.95  0.002030633    1.235    0.190
         9 -13.6708     85.8161     11.8729   8.5338714675e+01   6.1017822105e+01     1.208169    0.5184665  47.38   0.00433701    2.119    0.528
        10 -13.3736     85.4420      3.6197   8.1697699031e+01   6.1931343726e+01     1.239871    0.3815667  46.56  0.005011197    2.721    0.632
        11 -12.2952    123.8222     10.0655   7.5190624494e+01   5.2801071214e+01    0.3485744    0.2594065  47.28  0.000393226    1.207    0.172
        12 -11.7555    137.5075      5.4944   7.0926726821e+01   4.9887542037e+01     0.395871    0.2335788  70.12  0.001612044    1.653    0.395
        13 -11.6815     33.6511      3.9249   1.0103639374e+02   7.0548220438e+01    0.3121204    0.2208948  15.56  0.001207515    1.315    0.240
        14 -12.0942     73.3758      1.6068   8.4348287541e+01   6.4487036680e+01    0.2681542    0.1644988  49.94 0.0004098929    1.602    0.376
        15 -10.8921     34.4454    177.1148   1.4181799474e+02   3.4504878614e+01    0.2599479    0.1674409 -47.17  0.001530347    2.133    0.531
        16 -12.8945    185.8783    196.8866   1.1286110836e+02   6.6231036617e+00     0.828978    0.4620082  42.97  0.004128561    1.603    0.376
        17 -10.8345     89.5302    167.9931   1.2857283816e+02   2.9321597123e+01    0.2028152    0.1248338 -64.81  0.001032641    1.597    0.374
        18 -10.5278    193.2278    167.6007   1.0586092417e+02   1.0103203017e+01    0.2052607    0.1239054  34.50 0.0009486268    1.659    0.397
        19 -10.3323     86.0252    162.9721   1.2863085821e+02   3.0963029511e+01     0.204381    0.1644237 -30.62  0.001135217    1.724    0.420
        20 -11.7772     46.7450    159.8175   1.3734831242e+02   3.6917325501e+01    0.3409429     0.133831 -79.89  0.001379927    2.961    0.662
        21 -11.7206     74.4743    158.0168   1.3061483449e+02   3.3767212905e+01    0.3320915    0.1972875 -50.65  0.001677618    1.818    0.450
        22 -12.3485    193.3501    151.5410   1.0243500881e+02   1.2900901176e+01    0.7238755    0.4556515 -14.01  0.003061719    2.267    0.559
        23 -12.7831     81.4654    149.0896   1.2753828545e+02   3.4770236036e+01    0.6368807    0.2352385 -57.10  0.002534729    2.504    0.601
        24 -13.7118     49.9215    129.8447   1.3253386609e+02   4.3399672172e+01    0.6927361    0.4482618 -41.57  0.003558543    1.841    0.457
        25 -11.5254     50.0256    125.6560   1.3184367455e+02   4.4361428692e+01    0.2384166    0.1843555 -57.05  0.001433349    1.220    0.181
        26 -14.3450     59.1053    145.9944   1.3259608241e+02   3.8560451324e+01     1.433811    0.6442395  57.32  0.006061242    2.750    0.636
        27 -13.3863     51.9647    143.9921   1.3408586620e+02   3.9892652442e+01    0.5637306    0.5094755  36.81  0.002851657    1.334    0.250
        28 -13.0046     34.7435    147.7912   1.3877214114e+02   4.0918110255e+01     0.480837    0.2641208 -55.85  0.002635664    1.791    0.442
        29 -11.6118    113.9154    144.7666   1.1875270844e+02   3.0355500945e+01    0.2922089    0.2530928  23.12  0.001516576    1.357    0.263
        30 -12.7176     76.5573    140.9217   1.2740408342e+02   3.7364484723e+01    0.5087914    0.3686149 -62.03  0.002801646    1.280    0.219
        31 -11.3810      3.9173    141.7348   1.4542717244e+02   4.4934888587e+01    0.3026495    0.2419284 -82.65  0.002240063    1.098    0.089
        32 -14.5826    143.7765    131.3433   1.0862699414e+02   2.7393509641e+01      2.17098     1.888492 -72.74   0.01131698    1.248    0.199
        33 -13.5410      9.5492    120.8539   1.4201273481e+02   4.9184399958e+01    0.9753652    0.5032794  30.41  0.005667947    2.297    0.565
        34 -13.0042     96.5937    126.8966   1.1950953509e+02   3.7445891449e+01     0.448625    0.3900975 -22.46  0.002467652    1.393    0.282
        35 -13.3640     81.3946    122.7155   1.2273471766e+02   4.0860408237e+01     0.471197    0.3251472  52.68  0.002417802    1.557    0.358
        36 -12.4592     20.2547    116.8882   1.3866900713e+02   4.9279610457e+01    0.3914868    0.2013642 -58.15  0.001120078    1.632    0.387
        37 -11.5982    131.8849    248.9015   1.3035524853e+02   7.6613230837e+00    0.1890385    0.1595552 -88.67  0.001389708    1.393    0.282
        38 -12.1289     34.5742    115.1074   1.3443797807e+02   4.8433725658e+01    0.3225308    0.1938576  11.85  0.001685918    2.487    0.598
        39 -13.4073     73.7825    110.2221   1.2224964281e+02   4.4883624396e+01    0.5799533    0.3115616 -68.04  0.002522173    2.072    0.517
        40 -15.3447     84.5791     97.8973   1.1617884001e+02   4.6039144393e+01     1.582003    0.6351531  47.83  0.005793788    2.992    0.666
        41 -13.4359     80.2294    109.5740   1.2024649659e+02   4.4072600056e+01    0.4928102     0.370539 -41.47  0.001480077    1.360    0.265
        42 -13.1343     79.2860    105.0299   1.1947747923e+02   4.5257428600e+01    0.4140611    0.2997334 -60.63  0.001280738    1.301    0.231
        43 -10.8449     63.1847    111.2442   1.2553482887e+02   4.6106025201e+01    0.1870264    0.1476818 -87.40 0.0006775599    1.338    0.253
        44 -12.6495    131.7320    103.5362   1.0461678984e+02   3.5846660414e+01    0.4129357    0.2767699  28.51  0.000999446    1.844    0.458
        45 -13.3120     17.3925    100.9325   1.3723581412e+02   5.3133807873e+01    0.4114993     0.369667 -62.09  0.002307424    1.161    0.139
        46 -12.5324     58.8575     98.7032   1.2417249005e+02   4.9552238808e+01    0.4346818    0.2873749 -53.73  0.001730766    1.319    0.242
        47 -14.6932     43.8387     92.6189   1.2755523003e+02   5.2676755571e+01     1.090182     0.818767 -54.21  0.006580852    1.135    0.119
        48 -10.5953    188.5260     94.3156   8.9339972455e+01   2.4425213887e+01    0.3057052    0.2334091 -84.85 0.0008948457    1.720    0.419
        49 -11.8476     32.6097    102.6255   1.3295787466e+02   5.1493622710e+01    0.2456683    0.1984367 -82.44  0.000970576    1.168    0.144
        50 -13.5680     89.2710     86.8611   1.1182083022e+02   4.7685010402e+01    0.4985651     0.335172  37.90  0.001576803    1.603    0.376
        51 -11.8735      9.7344    129.7813   1.4291805044e+02   4.7165093987e+01    0.2983032    0.2856825   1.01  0.002256982    1.435    0.303
        52 -11.9934     23.4322     88.9391   1.3336884685e+02   5.5386846385e+01    0.3359194    0.2248593  89.13  0.001826275    1.688    0.407
        53 -12.2902     68.5688     88.0753   1.1858710134e+02   5.0654855797e+01    0.2452265    0.2085436  37.62 0.0003498261    1.311    0.237
        54 -10.4455    249.8298     86.4993   7.7426614469e+01   1.1616551587e+01    0.2512987    0.1658704 -46.40  0.001278698    1.439    0.305
        55 -11.3232    128.7681     83.1709   9.9572217626e+01   4.0648763699e+01    0.2665337    0.2457865  33.94 0.0003470711    1.106    0.096
        56 -12.2658     67.4849     81.5817   1.1721543466e+02   5.2234189207e+01    0.2872367    0.2210038  56.59 0.0008706695    1.595    0.373
        57 -13.8550     54.8086     94.8217   1.2456592188e+02   5.0936196247e+01    0.7586805    0.4972004 -27.13  0.003412741    1.966    0.491
        58 -11.1648     42.2470     78.0794   1.2477665059e+02   5.6094895603e+01    0.2464651    0.1774763  -6.54  0.001052889    1.778    0.438
        59 -14.4035    104.8954    101.9203   1.1135594333e+02   4.1601329571e+01    0.6068985    0.5685858 -44.37  0.002143194    1.038    0.036
        60 -13.8045     95.8529     72.4948   1.0552235656e+02   4.9495463726e+01    0.8188869    0.4802977  32.06  0.001967353    1.968    0.492
        61 -10.6087    250.0157     74.5193   7.4545517952e+01   1.3343042928e+01    0.2041093    0.1660994 -37.19 0.0003182784    1.100    0.091
        62 -11.4273    120.9239     73.0510   9.8512975996e+01   4.4323539763e+01    0.2262787    0.2172712 -37.11 0.0004911214    1.044    0.042
        63 -12.7528     58.4816     71.0110   1.1727746896e+02   5.5720320254e+01    0.4595231    0.2000907 -35.30  0.001798091    2.833    0.647
        64 -12.2912     54.8477     70.1404   1.1829297339e+02   5.6367163947e+01       0.2795    0.2143108 -71.95   0.00136456    1.541    0.351
        65 -12.0793     83.1653     68.4326   1.0820242137e+02   5.2557753546e+01     0.257477    0.2240366 -39.36   0.00028447    1.071    0.067
        66 -13.0958     76.7216     71.1264   1.1114814904e+02   5.3066077511e+01    0.5308065      0.30689 -26.08  0.002300258    2.253    0.556
        67  -9.7971     21.0050     66.5433   1.2957565008e+02   6.0502388830e+01    0.1447348    0.1193848  15.00 0.0003378024    1.471    0.320
        68 -11.1759    130.6097     65.0439   9.3397454994e+01   4.3623995437e+01    0.2769952    0.2044259  20.96 0.0007642877    1.632    0.387
        69 -13.8565     73.1153     74.8634   1.1346256470e+02   5.2848163500e+01    0.5922629    0.4601696  66.56  0.003165736    1.738    0.425
        70 -10.5151    214.6436     62.4781   7.6279170587e+01   2.3262434846e+01    0.2910586      0.17201 -35.41  0.001081164    1.602    0.376
        71 -10.0486     51.3386     63.2604   1.1752469145e+02   5.8233157899e+01    0.1292393   0.09071036 -20.89 0.0003436148    1.584    0.369
        72 -12.8968    125.6154     57.6457   9.2198478765e+01   4.6044856859e+01    0.3438799    0.3024994  25.62 0.0005549536    1.150    0.131
        73 -12.5815     68.5832     55.4291   1.0879225483e+02   5.7434692493e+01    0.3810232     0.346833  52.69   0.00177063    1.353    0.261
        74 -11.4003    133.6727     54.1538   8.9008301994e+01   4.4748240381e+01    0.5562499    0.2954382  65.68  0.002129733    2.449    0.592
        75 -11.4203     84.2625     54.4209   1.0310948586e+02   5.5046292865e+01    0.2722903    0.2066865  -8.37 0.0008779445    1.459    0.314
        76 -11.0497    145.4550     50.9494   8.5220640746e+01   4.2405082689e+01    0.2711725    0.2647395  18.24 0.0007360831    1.015    0.015
        77 -12.7881     42.4274     47.6688   1.1591882746e+02   6.2377201409e+01    0.3344095    0.2933165   9.74  0.000603808    1.246    0.198
        78 -12.6031     41.4952     42.9927   1.1466539099e+02   6.3367811291e+01    0.6648765    0.3852971  -1.24  0.003256391    2.517    0.603
        79 -12.2526      2.4813     46.7639   1.3207933178e+02   6.5792601430e+01    0.3407052    0.2587163 -49.73  0.001451494    1.020    0.020
        80 -13.2526    141.0385    241.0757   1.2783231923e+02   7.3988028880e+00    0.3662241    0.2841156  72.87  0.002465463    1.458    0.314
        81 -10.9167    210.6064     54.4954   7.4716173511e+01   2.5419043052e+01    0.2311214    0.2253183  81.43 0.0001234693    1.064    0.060
        82  -9.8328    176.5343     45.5156   7.7449249995e+01   3.5332158678e+01    0.1461586     0.142112  80.23 0.0003407696    1.005    0.004
        83 -11.6251    157.0348     43.7449   8.0448623994e+01   4.0568157606e+01    0.2573152    0.2453845   7.66 0.0004347814    1.088    0.081
        84 -10.8347     95.1671     42.8673   9.5381170967e+01   5.4976512152e+01    0.1987939    0.1894359 -40.11 0.0003810555    1.191    0.160
        85 -10.6058    197.4539     41.0657   7.2871402361e+01   3.0580103815e+01     0.233511    0.1842323  57.69  0.001220601    1.263    0.209
        86 -10.3212     42.4843     36.4682   1.1184553147e+02   6.4441888429e+01    0.2166282    0.1056401 -44.71 0.0006815867    1.783    0.439
        87 -11.7564     41.9689     32.8775   1.1065646375e+02   6.5131564429e+01    0.4990774    0.2382854  38.78  0.002104008    2.485    0.598
        88 -11.2195     82.0983     34.4913   9.6225375537e+01   5.8769893017e+01    0.3373995    0.2543972  18.42  0.001538075    1.346    0.257
        89 -12.1519     79.2157     30.8742   9.5694715401e+01   5.9835746379e+01    0.3916928    0.3703092 -74.91  0.001481681    1.439    0.305
        90 -10.5673    176.3690     33.3670   7.3763155397e+01   3.6990338865e+01    0.2401494    0.2046722  60.35 0.0001805729    1.128    0.113
        91 -13.0715    246.3649    223.4057   1.0662478977e+02  -7.0596736689e+00    0.7001606    0.5256771 -12.80  0.004865615    1.284    0.221
        92 -10.7085    242.1298     23.5370   6.3183928681e+01   2.1895214907e+01    0.3167113    0.1852986 -68.09  0.001581598    1.789    0.441
        93 -10.2298    151.1991     19.7850   7.3547349981e+01   4.5047636374e+01    0.2003537      0.15275  37.20 0.0004211511    1.338    0.253
        94 -12.7387    244.7084    232.5237   1.0840668565e+02  -7.8287717128e+00    0.7693558    0.5150653  42.77  0.005022075    1.626    0.385
        95 -12.5000    185.5102    231.0074   1.1842362250e+02   1.6167357140e+00    0.2617179    0.2171329 -84.38  0.001295653    1.868    0.465
        96 -13.6682    179.6176    205.1291   1.1547527781e+02   6.4424578840e+00    0.8236383    0.7060428 -30.42  0.005212873    1.314    0.239
        97 -13.2690    214.6006    217.6138   1.1109286252e+02  -1.3806547525e+00    0.7176855    0.6440777  -8.93  0.004294509    1.226    0.184
        98 -14.2173    210.6024    204.9653   1.0964640811e+02   1.0156190834e+00     1.835822     1.178416   7.62  0.009604285    1.939    0.484
        99 -10.5887    222.9175    209.4423   1.0822662268e+02  -1.6744077717e+00    0.2304433    0.1582533  -6.57   0.00112554    1.572    0.364
       100  -9.3343    124.0004    205.9956   1.2660003175e+02   1.6030866896e+01    0.1396005    0.1261942  72.18  0.000904536    1.092    0.085
       101 -11.8315     71.0267    198.3395   1.3637710587e+02   2.5627241013e+01     0.210228    0.1696387 -51.76  0.001362636    1.599    0.375
       102 -13.9054    197.3128    198.6915   1.1099846618e+02   4.2729227303e+00     1.434784      1.04002  19.44  0.008139734    1.406    0.289
       103 -10.9082    172.8956    191.8640   1.1452664760e+02   9.8436031996e+00    0.2574644    0.2074601  23.23  0.001455291    1.260    0.207
