#   1 NUMBER                 Running object number                                     
#   2 MAG_AUTO               Kron-like elliptical aperture magnitude                    [mag]
#   3 X_IMAGE                Object position along x                                    [pixel]
#   4 Y_IMAGE                Object position along y                                    [pixel]
#   5 X_WORLD                Barycenter position along world x axis                     [deg]
#   6 Y_WORLD                Barycenter position along world y axis                     [deg]
#   7 A_WORLD                Profile RMS along major axis (world units)                 [deg]
#   8 B_WORLD                Profile RMS along minor axis (world units)                 [deg]
#   9 THETA_WORLD            Position angle (CCW/world-x)                               [deg]
#  10 FWHM_WORLD             FWHM assuming a gaussian core                              [deg]
#  11 ELONGATION             A_IMAGE/B_IMAGE                                           
#  12 ELLIPTICITY            1 - B_IMAGE/A_IMAGE                                       
         1 -14.4633    243.4251    112.8765   8.9167926696e+01   1.0387719833e+01     6.137242     2.823651 -20.80   0.02690137    2.241    0.554
         2 -13.2243    230.5861     60.8453   7.7935915449e+01   1.9685200533e+01      2.21503     1.308532 -27.97  0.008187216    1.563    0.360
         3 -12.9515    185.7854     90.2431   9.3109541603e+01   2.6144142919e+01     5.367611     1.358888 -45.11   0.01338722    5.776    0.827
         4 -13.8164    145.3589     23.3076   7.9620988965e+01   4.6133550762e+01     6.335514     2.074383  47.35   0.01026872    3.075    0.675
         5 -13.2248    237.0991     36.0241   7.0313838814e+01   2.1055986707e+01     2.031057    0.9439905  54.53  0.008664375    2.180    0.541
         6 -12.9901    220.6371     39.1542   7.3135863921e+01   2.4729547602e+01     1.214291    0.9009873  -4.60   0.00290501    1.433    0.302
         7 -12.9936    220.0071     28.8677   7.0210846934e+01   2.6061954294e+01     1.355829    0.8615758  -5.98  0.006220061    1.764    0.433
         8 -12.6327    209.1490      2.2255   6.3357430241e+01   3.1547292018e+01      1.06621    0.3922717 -38.66  0.002505111    2.494    0.599
         9 -14.7172    244.5611     17.7605   6.4554639254e+01   2.1186097619e+01     1.250822     1.187349  22.05  0.004398647    1.131    0.116
        10 -15.0817    240.9731      2.3501   6.0653542181e+01   2.3504772240e+01     4.161505    0.5399821  66.28   0.01203342    5.158    0.806
        11 -14.2339    207.2021     55.5115   7.9747640588e+01   2.6036016410e+01     9.085019     2.822733 -35.58   0.03042996    2.872    0.652
        12 -12.5413    163.4914     52.6364   8.6352437200e+01   3.7424700319e+01     3.012995     1.671699  87.44   0.00769988    3.958    0.747
        13  -9.8935    125.2141     14.4739   8.0255156448e+01   5.2223153964e+01    0.3844268    0.2770864 -29.95  0.001221898    1.346    0.257
        14 -11.7667    119.2924     10.0340   7.9671648376e+01   5.4171537032e+01    0.8358157    0.5077479  33.40   0.00258819    1.784    0.439
        15 -11.6769     95.5796     12.6230   8.6784736151e+01   5.9162493788e+01    0.4705278    0.3657594 -71.61  0.002477599    1.833    0.454
        16 -11.9554      5.8060      5.9403   1.2064773954e+02   7.3034164798e+01    0.7998956    0.5773547 -48.01  0.005799474    1.029    0.028
        17 -12.1286     58.8720      3.5136   9.4314261984e+01   6.7276940305e+01     0.855934     0.524214  25.57  0.004579799    1.923    0.480
        18  -8.7121    171.9968      2.9370   6.7769479152e+01   4.1369523479e+01      0.34353    0.1431963 -43.81  0.001207779    2.579    0.612
        19  -9.9645    105.4153      6.7564   8.1469708055e+01   5.7764952900e+01    0.2577269    0.1519288  35.43  0.001039985    1.798    0.444
        20 -10.7608     32.0883      3.7055   1.0600582181e+02   7.1004646549e+01    0.3649552    0.2317418 -50.24  0.002191247    1.581    0.368
        21 -11.6712     22.4027      2.5645   1.1025435367e+02   7.2251854150e+01    0.5821825    0.3688646   7.84  0.003559939    2.042    0.510
        22  -8.7286    105.4955      1.4804   7.8985595073e+01   5.8340344491e+01    0.1401002    0.1244935  11.81 -7.165951e-05    1.039    0.038
        23  -9.0364    136.3829    128.7545   1.1220392868e+02   2.9969203243e+01    0.1807155    0.1262248 -38.07 0.0009446864    1.638    0.389
        24 -10.1809    197.3941    126.9687   9.9856523175e+01   1.7978054086e+01      0.25161    0.1798231  38.89 0.0002671236    1.317    0.241
        25 -11.6456    204.1846    122.8766   9.7752838412e+01   1.7157865521e+01    0.5330087    0.3545916  53.18  0.002742508    1.523    0.344
        26  -9.4877    141.7220    122.1591   1.0971576131e+02   3.0151999332e+01    0.2650342    0.1718567 -42.44  0.001257705    1.638    0.389
        27  -8.7215    129.9629    123.0057   1.1243545554e+02   3.2245193505e+01     0.193222    0.1810001  67.78            0    1.015    0.015
        28 -10.3920    134.7207    120.3593   1.1084743158e+02   3.1840655040e+01    0.3648395    0.2695408 -50.83  0.001828202    1.394    0.283
        29  -9.2811    141.0433    102.9929   1.0553307164e+02   3.3832275704e+01     0.335178    0.2162043  17.62  0.001366046    2.726    0.633
        30 -10.1719    135.4789    106.6195   1.0763707223e+02   3.4279978390e+01    0.4675691    0.3290625 -41.99  0.002398714    1.466    0.318
        31 -10.6554    167.4727    113.4310   1.0244062756e+02   2.6421623465e+01    0.3818124    0.3332819  66.71  0.001012036    1.218    0.179
        32  -8.7852     45.8160    223.6684   1.4032114821e+02   2.6707616407e+01    0.1385753    0.1056135  88.43 0.0007802869    1.337    0.252
        33 -10.6931    179.3759     72.0901   8.9274781542e+01   3.0509854099e+01    0.3779137    0.3446905 -34.01 0.0003841939    1.090    0.083
        34 -13.0850     13.6265    204.7267   1.4447866734e+02   3.2888329652e+01     0.702454    0.4774657  70.15  0.003943816    1.024    0.024
        35  -9.9432    177.4437    103.1336   9.8000134267e+01   2.5967194322e+01    0.4435572     0.271559  77.22  0.001444717    2.878    0.653
        36  -8.7566    121.6785    102.1717   1.0978125214e+02   3.7837562929e+01    0.3015018     0.163873  26.65  0.001103308    3.405    0.706
        37 -12.0208    194.8453     61.6496   8.3494989028e+01   2.8265741765e+01      1.36781    0.6873046  45.43  0.005509926    2.053    0.513
        38  -9.7967    147.1631     97.8361   1.0290958072e+02   3.3502161195e+01     0.333076    0.3120602  13.02  0.001243941    1.152    0.132
        39  -9.2039    226.6743     96.4387   8.7778132879e+01   1.5981567979e+01    0.3231942    0.2165076   0.69 0.0007190344    1.720    0.419
        40  -9.2058    134.0790     95.2639   1.0520004840e+02   3.6719242647e+01    0.2926579    0.2445413  63.38 0.0009123213    1.241    0.194
        41  -9.0210    116.7508     92.5225   1.0864091247e+02   4.0689058467e+01    0.3657812     0.240748 -86.52  0.000930501    2.451    0.592
        42 -13.1934     32.9566    195.9577   1.4086777981e+02   3.2445149049e+01     1.534624     0.676888  73.79  0.009557934    2.089    0.521
        43 -10.3205    157.2791     89.9542   9.8683991672e+01   3.2705211396e+01    0.4997506     0.343602  23.05  0.001906014    1.930    0.482
        44 -12.7398     54.5510    172.1021   1.3528210101e+02   3.4241207699e+01     0.778073     0.605206  83.19  0.002420426    1.095    0.087
        45 -10.2705    216.9744    189.4732   1.0833391261e+02   6.3127850846e+00    0.4193831     0.214485  54.76  0.001778506    2.323    0.570
        46 -12.9367     45.4309    179.8839   1.3761571574e+02   3.3880540036e+01    0.7211248    0.5734907  46.88   0.00165728    1.398    0.285
        47  -8.5164    199.2946     87.8114   9.0043713248e+01   2.3380834574e+01    0.2082496     0.190243 -49.77 0.0008937052    1.192    0.161
        48  -9.7321    141.0306     86.7445   1.0137960303e+02   3.6855015444e+01     0.310006    0.2738039 -65.15 0.0006452646    1.193    0.162
        49 -10.4922    163.0367     83.5006   9.5726568928e+01   3.2513970671e+01     0.760369     0.430511 -66.63  0.002578378    3.556    0.719
        50 -11.2704    155.1741     79.0283   9.6116444146e+01   3.5090185589e+01    0.3494963    0.2854365 -26.30 0.0007644629    1.264    0.209
        51  -8.6757    189.2562    180.5899   1.1143492210e+02   1.2102357448e+01    0.2262882    0.1492496  60.42 0.0007812893    1.801    0.445
        52  -9.9256    222.2272     80.2474   8.4326361602e+01   1.9131045061e+01    0.4042726    0.1676716 -37.67  0.001569108    2.341    0.573
        53  -8.1239    188.3647    176.2982   1.1088804820e+02   1.2815021343e+01    0.1265068   0.08371598  22.31 0.0007032938    1.723    0.420
        54  -9.4382    222.3947     73.7005   8.2563377525e+01   1.9960385248e+01    0.2776112    0.2409864 -85.99  0.000353552    1.405    0.288
        55 -10.0980    188.6216    190.9776   1.1316264867e+02   1.0906317571e+01    0.2892224    0.2012663  55.51 0.0004876396    1.487    0.327
        56  -9.2927     69.2402     66.1765   1.1489052974e+02   5.4151121025e+01    0.3580299    0.2039083 -69.07  0.001662881    2.120    0.528
        57  -8.8930    244.6948     60.8430   7.6123470587e+01   1.6428890902e+01    0.2405043    0.2057634  78.00 0.0008095859    1.376    0.273
        58  -8.9157    184.7100     57.6694   8.4025377182e+01   3.1365092188e+01    0.2804118    0.1706273 -51.52  0.001176674    1.919    0.479
        59 -10.4129    136.7874     54.2874   9.2575577674e+01   4.3593691747e+01    0.5318248    0.2566246 -44.34   0.00108425    2.109    0.526
        60  -8.7543     63.5188     51.5786   1.1249693195e+02   5.7994889680e+01    0.3166266    0.1977087 -74.09  0.001219675    2.278    0.561
        61  -9.5495     61.6871     45.9564   1.1131979570e+02   5.9390175521e+01      0.34518    0.2035442 -62.12  0.001431608    1.864    0.464
        62 -12.4032    171.1993     61.5794   8.7683362275e+01   3.4141422478e+01    0.6328787    0.4397385 -21.19  0.001860215    1.515    0.340
        63  -9.3610    174.2340     49.1412   8.3213778394e+01   3.5240625290e+01    0.3049526    0.2626206 -57.55 0.0008391812    1.256    0.204
        64  -8.7071    133.8406    147.0425   1.1611652036e+02   2.7140343750e+01    0.2934339   0.09270236 -49.64  0.001114718    3.439    0.709
        65  -9.3176    221.6589    191.2866   1.0789130774e+02   5.3425321114e+00    0.2566031    0.1954301  57.65 0.0008532089    1.655    0.396
        66 -11.2586    172.7449     77.2374   9.2019318885e+01   3.1282402777e+01    0.6954293    0.5351654  18.53  0.001134266    1.526    0.345
        67 -10.6801     67.9438    144.3391   1.2967341944e+02   3.7870528467e+01    0.5719866    0.2939156  64.80  0.002709296    2.128    0.530
        68  -9.4378    192.1498    143.9205   1.0434309991e+02   1.6571611414e+01    0.1894067    0.1744559  68.97 0.0005028537    1.260    0.207
        69  -8.4680     57.3731     31.1215   1.0756261285e+02   6.2882760477e+01     0.180502    0.1071178 -53.77 0.0004843894    1.657    0.397
        70  -9.1466    187.8961     25.1916   7.3201689029e+01   3.4803263200e+01    0.2769403    0.2087362 -42.25 0.0006737037    1.331    0.249
        71  -8.3036    214.2361     18.6885   6.7839831247e+01   2.8627989890e+01    0.1940964    0.1576213  30.31 0.0005623281    1.331    0.249
        72 -10.9362     68.8336    163.8802   1.3170726831e+02   3.4008901834e+01    0.5450674     0.383106  55.09  0.003731725    1.240    0.193
        73  -7.8230    203.4911    160.5405   1.0555540585e+02   1.2132046533e+01     0.124763    0.1093336  34.61 0.0007373255    1.066    0.062
        74 -10.0903     67.9154    245.0671   1.3818617467e+02   2.1194182472e+01    0.1661986    0.1249056  58.85 0.0003910186    1.173    0.147
        75 -10.0768     92.7289    239.1525   1.3409603989e+02   1.8966858624e+01    0.1810815    0.0802112 -62.82  0.001200877    2.795    0.642
        76  -9.2225    132.9351    138.3967   1.1476856296e+02   2.8848891912e+01    0.2874115    0.1753478 -51.64 0.0002885943    1.744    0.427
        77 -10.7015    188.9713    137.7709   1.0366981209e+02   1.8100685495e+01    0.2801387    0.2252732 -62.36  0.001583511    1.613    0.380
        78 -10.8516    160.5511    128.6942   1.0720048041e+02   2.5264381768e+01    0.4281053    0.3591854   6.71  0.002434084    1.430    0.301
        79 -12.0128    183.4943    123.4953   1.0162873448e+02   2.1399105354e+01    0.7059845    0.3708781 -32.77  0.003178726    2.059    0.514
        80 -12.4651    185.9987    120.4979   1.0048962316e+02   2.1339863285e+01    0.9123396    0.4913911 -41.26    0.0041685    1.966    0.491
