#   1 NUMBER                 Running object number                                     
#   2 MAG_AUTO               Kron-like elliptical aperture magnitude                    [mag]
#   3 X_IMAGE                Object position along x                                    [pixel]
#   4 Y_IMAGE                Object position along y                                    [pixel]
#   5 X_WORLD                Barycenter position along world x axis                     [deg]
#   6 Y_WORLD                Barycenter position along world y axis                     [deg]
#   7 A_WORLD                Profile RMS along major axis (world units)                 [deg]
#   8 B_WORLD                Profile RMS along minor axis (world units)                 [deg]
#   9 THETA_WORLD            Position angle (CCW/world-x)                               [deg]
#  10 FWHM_WORLD             FWHM assuming a gaussian core                              [deg]
#  11 ELONGATION             A_IMAGE/B_IMAGE                                           
#  12 ELLIPTICITY            1 - B_IMAGE/A_IMAGE                                       
         1 -13.6400     67.6941    144.0143   1.2167373998e+02   3.7684581794e+01     2.987458      1.35217  88.49  0.003587788    5.844    0.829
         2 -12.8342    221.6154      2.8402   4.9550368783e+01   2.8520283711e+01    0.8900129    0.4954081  60.49  0.003142693    1.776    0.437
         3 -13.9996    195.3906     28.0997   5.9376014889e+01   3.2512380699e+01     1.892711      1.28489   1.32    0.0063977    1.808    0.447
         4 -13.6230    201.7377     22.1391   5.6827654142e+01   3.1546012937e+01     1.713303    0.8026821 -26.99  0.005623807    2.081    0.519
         5 -13.2272    208.8668     15.5042   5.4144651764e+01   3.0437639697e+01    0.8343829    0.6363586  -3.09  0.001491555    1.507    0.336
         6 -11.3981      2.0839     22.5516   1.2225922116e+02   7.0979851135e+01    0.6249213   0.05605998 -65.43  0.001435012    9.838    0.898
         7 -11.2183    189.9825     15.1583   5.6177275305e+01   3.5271311321e+01     0.297828    0.1976139 -31.28 0.0008396285    1.513    0.339
         8 -11.3499      2.2488      3.5336   1.1524653775e+02   7.4761810914e+01    0.3861211    0.1659637 -52.69  0.002119225    1.780    0.438
         9 -12.5106     53.2161    229.8809   1.3296371668e+02   2.2553304860e+01    0.5377623    0.2568758 -61.71  0.001646225    2.484    0.597
        10 -13.2442    123.1523    248.2520   1.2166736417e+02   1.0975550643e+01    0.7864024    0.4527782  34.55  0.003989198    1.389    0.280
        11 -12.0235    161.2656    248.6284   1.1482114609e+02   5.5939868126e+00    0.4492021    0.2051962  29.54  0.002445311    1.942    0.485
        12 -13.3546    140.4313    249.8104   1.1870283141e+02   8.3823002508e+00    0.9348032    0.4756736  41.77  0.005741131    1.465    0.318
        13 -14.3746     35.3632    245.8010   1.3691163919e+02   2.1881673262e+01     2.834424    0.5725733  34.90   0.01030601    3.704    0.730
        14 -15.9369      7.7641    199.3803   1.3979891452e+02   3.2307872777e+01     6.793798     1.254506 -76.97   0.01432348    4.531    0.779
        15 -10.6957    249.4440    224.4588   9.6003170599e+01  -4.2596474492e+00    0.1784653     0.135318  -8.37  0.001317126    1.333    0.250
        16 -10.6646     44.3347    230.6583   1.3460928529e+02   2.3382359889e+01    0.3465556    0.1436953  30.46  0.001660241    2.503    0.600
        17 -10.7678     63.3930    250.2549   1.3240553368e+02   1.8201274378e+01    0.2426638    0.1034836  41.14 0.0006667185    1.698    0.411
        18 -10.5417    192.8785    194.6460   1.0111601066e+02   7.8440765523e+00    0.6920776    0.3650124 -58.39  0.002284511    6.517    0.847
        19  -9.3040     67.1770    197.9499   1.2785476736e+02   2.6582272708e+01    0.1855317    0.1241159  63.19 0.0006662967    1.362    0.266
        20 -11.8372     66.3871    189.1729   1.2721354846e+02   2.8357908169e+01    0.3617712    0.2396564 -39.97  0.002085333    2.205    0.546
        21 -11.8324     71.3921    182.6192   1.2545726920e+02   2.9029435407e+01    0.2587692    0.2334074 -38.16 0.0008299923    1.420    0.296
        22 -12.8670     86.9838    163.9886   1.1956767865e+02   3.0758051390e+01     2.485654    0.6041374  47.84   0.00140141    5.014    0.801
        23 -11.3734    183.2233    248.8551   1.1093519551e+02   2.4456909379e+00    0.3065793     0.125194  40.63  0.001655947    1.909    0.476
        24 -10.0695    228.3969    171.1954   9.0092872411e+01   5.0323011015e+00    0.1732614    0.1145268 -36.03 0.0009500115    1.730    0.422
        25 -10.4886    230.2787    166.3960   8.8800023540e+01   5.3466514392e+00    0.2087995    0.1557533 -41.58  0.001188244    1.767    0.434
        26 -13.0583     40.8951    220.5945   1.3466825280e+02   2.5440691981e+01    0.4113286    0.2830042 -51.86  0.002123758    2.062    0.515
        27 -10.1338    100.0683    147.6948   1.1378055752e+02   3.2265231044e+01    0.2847883    0.2583202 -13.16 0.0008479629    1.280    0.219
        28  -9.6321    102.7919    143.9857   1.1242718882e+02   3.2629359752e+01    0.3116856    0.2150109  -6.10  0.001401683    2.376    0.579
        29 -12.1574     88.7177    146.8721   1.1658407560e+02   3.4176007360e+01    0.2594245    0.2371549 -36.38 0.0004991518    1.231    0.187
        30 -10.6452     39.8713    146.6238   1.2922236255e+02   4.0204763149e+01    0.2496071    0.1246087  45.22  0.001306375    1.910    0.476
        31  -9.2377    134.0000    144.4814   1.0460133621e+02   2.7073082053e+01    0.3052865   0.08294113 -48.09 0.0009335451    3.925    0.745
        32  -9.6456     47.5285    172.0186   1.2981835839e+02   3.3967030950e+01    0.1741181    0.1060989 -76.91 0.0004828561    1.573    0.364
        33  -9.8651    110.9667    134.3444   1.0844775914e+02   3.3344944290e+01    0.2937286    0.2249084  -9.35  0.001027446    1.737    0.424
        34 -10.8516     98.2971    131.1131   1.1123172844e+02   3.6178089549e+01    0.2830727    0.2256613 -28.89  0.000620844    1.464    0.317
        35 -11.3166     80.5374    171.4362   1.2208284788e+02   3.0102546990e+01    0.2265163    0.2136075  80.19 0.0002862297    1.098    0.089
        36 -10.6637     44.2879    129.9945   1.2614383059e+02   4.3527327883e+01    0.1845521    0.1512445 -77.08 0.0007946135    1.095    0.086
        37 -15.5368     50.9055    208.9628   1.3202849191e+02   2.6427664980e+01      6.65158    0.4982949  41.43   0.01931734    4.476    0.777
        38  -9.6796    107.5527    121.9603   1.0678533665e+02   3.6644371421e+01     0.199422    0.1892125  35.40 0.0002894774    1.043    0.041
        39  -8.8055    116.6541    127.6880   1.0554325707e+02   3.3771369778e+01    0.1496956    0.1146294  -4.52 0.0007046213    1.710    0.415
        40 -11.3992    167.9325    112.6178   8.9072022726e+01   2.6316035728e+01    0.3608096    0.3151646 -68.33   0.00074333    1.456    0.313
        41 -13.4173     67.9190    168.4558   1.2470995271e+02   3.2356310055e+01    0.4322879    0.2705248 -43.12  0.001678198    2.080    0.519
        42  -9.6790    204.7372    110.4126   8.0864973647e+01   1.8571660789e+01    0.3493325    0.2078099  25.20  0.001477453    2.021    0.505
        43 -11.1540     43.2664    105.1678   1.2287550444e+02   4.9425961461e+01    0.4811012     0.144453  44.56  0.001715292    3.942    0.746
        44 -10.2334    243.5101     92.4978   6.9992276692e+01   1.3000612733e+01    0.1376238    0.1207089 -12.95 0.0001173803    1.003    0.003
        45 -10.7181      1.8119     89.2952   1.3418411625e+02   5.6051063103e+01    0.2762873     0.127829 -74.80   0.00147584    1.700    0.412
        46  -9.6674    157.0349     78.0198   8.1892300686e+01   3.5094521640e+01    0.1917778    0.1815257   9.00 0.0005641913    1.007    0.007
        47 -11.1578    161.7135    225.8110   1.1190553529e+02   8.4909797228e+00    0.2910491    0.1323732  38.58  0.001519817    1.710    0.415
        48 -11.3062    176.9728    249.5374   1.1212595691e+02   3.2536981543e+00    0.3929907   0.08387679  36.52  0.001503605    3.631    0.725
        49 -11.4055    170.8646    246.4193   1.1283414849e+02   4.4916353800e+00    0.2170104    0.1556076  19.97  0.001526283    1.261    0.207
        50 -14.4855      9.6784    239.9977   1.4090586651e+02   2.5206315146e+01     1.544606      1.18349  82.77   0.01395632    1.290    0.225
        51 -14.1533     95.3403    231.7300   1.2527739754e+02   1.7149930655e+01     1.464669     1.255837 -80.48  0.007046634    1.386    0.279
        52 -12.0921    104.6104    240.0651   1.2429314422e+02   1.4647576115e+01    0.2818401    0.2306398  37.66 0.0009401333    1.165    0.141
        53 -12.4538     55.4321    239.0222   1.3311981229e+02   2.0827408826e+01    0.4310102    0.2654906  47.95  0.000683435    1.207    0.171
        54 -10.0242    131.8323     39.5976   7.4989387222e+01   4.7507434339e+01    0.2133676    0.1466278  66.80 0.0009500026    1.688    0.407
