#   1 NUMBER                 Running object number                                     
#   2 MAG_AUTO               Kron-like elliptical aperture magnitude                    [mag]
#   3 X_IMAGE                Object position along x                                    [pixel]
#   4 Y_IMAGE                Object position along y                                    [pixel]
#   5 X_WORLD                Barycenter position along world x axis                     [deg]
#   6 Y_WORLD                Barycenter position along world y axis                     [deg]
#   7 A_WORLD                Profile RMS along major axis (world units)                 [deg]
#   8 B_WORLD                Profile RMS along minor axis (world units)                 [deg]
#   9 THETA_WORLD            Position angle (CCW/world-x)                               [deg]
#  10 FWHM_WORLD             FWHM assuming a gaussian core                              [deg]
#  11 ELONGATION             A_IMAGE/B_IMAGE                                           
#  12 ELLIPTICITY            1 - B_IMAGE/A_IMAGE                                       
         1 -15.9271    229.1804     59.2892   7.6486835756e+01   1.9990500638e+01      4.46172     2.758008 -56.37  0.009386119    1.833    0.454
         2 -17.4046    238.6921      9.5242   6.2756192459e+01   2.3759796047e+01      2.54728     1.701418 -82.00   0.01398816    1.513    0.339
         3 -14.6667     55.8767     33.8980   1.0801775740e+02   6.2448077252e+01     1.155651    0.9140185  52.36  0.007027228    1.797    0.444
         4 -12.5884    128.7701     19.4187   8.0738204959e+01   5.0251740071e+01    0.5210406    0.3747237 -42.90  0.001796355    1.570    0.363
         5 -14.0606    132.9392     12.8567   7.7423535178e+01   4.9932458805e+01     1.609687    0.5165824 -38.74 0.0007434476    3.474    0.712
         6 -12.9307    105.9610      2.6546   7.9042248538e+01   5.7158632958e+01    0.7962842    0.5785826 -67.51  0.004182889    2.078    0.519
         7 -12.9034    122.7134      9.0326   7.8006654719e+01   5.2746632070e+01    0.6301203    0.4049144   8.96  0.002518015    1.741    0.426
         8 -12.6403    114.9358      5.4657   7.8221025060e+01   5.4883512565e+01    0.9104885    0.4458879  -5.71  0.003262198    2.453    0.592
         9 -13.7114    179.5539      6.8692   6.8081549370e+01   3.8714122007e+01    0.7212976    0.6577812  27.04  0.002613315    1.172    0.147
        10 -11.2444      6.0722     10.5252   1.1985387926e+02   7.1567071865e+01    0.1989559    0.1375685 -42.46 0.0005215787    1.221    0.181
        11 -12.9941    117.9417     12.3068   8.0317143083e+01   5.3541204564e+01     1.055562    0.5816038 -21.14  0.004613815    1.847    0.459
        12 -12.7856    148.2319      4.5740   7.1734597574e+01   4.6912175585e+01     1.000276    0.3725623  66.66  0.003849057    2.510    0.602
        13  -9.8950    190.9372      1.4688   6.5152011308e+01   3.6286113462e+01    0.1948321    0.1237514  71.09 0.0004651352    1.451    0.311
        14 -11.0692    236.4282    210.5110   1.0952017973e+02  -3.2125933940e+00    0.2434668    0.1024427  41.79  0.001188052    2.092    0.522
        15 -11.1378    203.5772    250.4530   1.2123463755e+02  -2.5651769031e+00    0.2145694    0.1055993  43.11 0.0005722136    1.621    0.383
        16 -10.6941    231.4776    207.0296   1.0974240411e+02  -1.9866476997e+00    0.1726095     0.114198 -26.06  0.001033131    1.594    0.373
        17 -12.4580    247.7175    205.0079   1.0667518409e+02  -4.3847878961e+00       0.4906    0.2282967  41.81  0.002233678    1.972    0.493
        18 -12.9971    180.6912    203.2066   1.1813069586e+02   7.3443735983e+00    0.4477351    0.3649152 -81.21  0.001843963    1.796    0.443
        19 -10.2699    199.6100    201.2901   1.1433002697e+02   4.2514949270e+00    0.1963755    0.1585097 -31.75 0.0005864549    1.393    0.282
        20 -10.8281    196.2226    198.5864   1.1447708187e+02   5.2436832650e+00    0.2468807    0.1859256  21.24  0.000818345    1.291    0.225
        21 -12.7782    195.0368    209.3571   1.1652186853e+02   3.9252799950e+00     0.743133     0.397349 -47.56  0.003777844    2.450    0.592
        22 -11.6557    245.4879    195.9814   1.0538890707e+02  -2.9584681731e+00    0.3071419    0.2886969  58.58  0.001665385    1.599    0.375
        23 -12.1859    215.1203    189.8527   1.0947064877e+02   3.0832463531e+00    0.4924869    0.3580328  42.96  0.002874387    1.324    0.245
        24 -11.5230    199.3207    189.0185   1.1219025576e+02   6.0854950734e+00    0.4290701    0.2785548  35.52  0.002058681    1.383    0.277
        25 -13.6341    164.9615    171.2388   1.1552801328e+02   1.5532013046e+01    0.7234829    0.5910877 -44.09  0.003114598    1.325    0.245
        26 -12.8014    179.7353    163.7572   1.1107410354e+02   1.3934700183e+01     0.482694    0.3142515  49.45   0.00180659    1.509    0.337
        27 -11.5920    185.9614    180.4273   1.1311180408e+02   9.9248673661e+00    0.5555398    0.3286381 -45.15  0.002012641    1.919    0.479
        28 -11.7984    186.8005    172.8214   1.1148908253e+02   1.1004173578e+01    0.3318871    0.2762433  55.05 0.0008359228    1.290    0.225
        29 -13.3758    177.2939    168.9782   1.1260595847e+02   1.3516281730e+01    0.9076986    0.5046232  55.91  0.002859284    2.082    0.520
        30 -14.5479    170.7767    180.7728   1.1613743419e+02   1.2758796640e+01     1.580069      1.02289  43.93  0.003238381    1.401    0.286
        31 -11.8388    180.1601    178.2175   1.1382013718e+02   1.1396109606e+01    0.3850777    0.2970692  39.17  0.001383581    1.177    0.150
        32  -9.2578    190.3093    193.2896   1.1463838481e+02   7.1010713971e+00    0.1311252   0.09370607  15.49 0.0003087941    1.579    0.367
        33 -10.9127    207.5032    188.1141   1.1052022064e+02   4.7142531908e+00    0.2311611    0.1713473  44.75 0.0003988058    1.315    0.239
        34 -10.7185    131.4252    186.3713   1.2500082554e+02   1.8972228039e+01     0.243003    0.1927279  43.02 0.0007544323    1.184    0.155
        35 -10.2290    220.0895    184.2222   1.0751660924e+02   2.9726765405e+00    0.2488269    0.1790329  56.53  0.001359664    1.756    0.431
        36 -14.1473     92.9347    178.1611   1.3174569069e+02   2.6880879783e+01    0.7825634    0.5195697 -83.74  0.003249531    1.648    0.393
        37 -10.5775    139.2667    188.5880   1.2376734309e+02   1.7189663969e+01    0.2293522    0.1639552 -67.83  0.001058694    1.673    0.402
        38 -10.7736    211.6559    179.5455   1.0812706130e+02   5.1976459041e+00    0.3436496    0.1769302  42.34  0.000662497    1.781    0.439
        39 -10.4951    195.4155    173.0995   1.0988581080e+02   9.2829294396e+00    0.2222477    0.1729167  28.94 0.0004409828    1.206    0.171
        40 -12.7394    126.0085    144.6145   1.1873571306e+02   2.8210558270e+01    0.8908564    0.5486649  70.75   0.00371893    2.448    0.592
        41 -13.4975    116.3095    144.6208   1.2098753763e+02   2.9989685643e+01    0.7082923    0.4185958 -48.37  0.003345314    1.713    0.416
        42 -12.8998    114.4459    154.5943   1.2329588802e+02   2.8222575842e+01    0.6081468    0.3684536  71.73    0.0026323    2.411    0.585
        43 -12.5926    122.1336    162.9262   1.2307019898e+02   2.5154714712e+01    0.7992491    0.3786429 -63.26 0.0008047403    2.733    0.634
        44 -11.2794    127.4969    164.0064   1.2208944464e+02   2.3975922512e+01    0.2648941    0.2421467 -14.93 0.0009337022    1.327    0.246
        45 -11.7246    133.2120    163.8692   1.2082368613e+02   2.2958915806e+01    0.3553731     0.310868 -66.18  0.001880731    1.192    0.161
        46 -13.2111    128.0517    154.6273   1.2023742731e+02   2.5766895480e+01    0.9050941    0.4616676 -65.54  0.003516927    2.839    0.648
        47 -12.0225    145.6085    165.7900   1.1852096541e+02   2.0261988195e+01    0.6722819     0.435199 -75.41  0.002989906    2.402    0.584
        48 -11.6748    139.1232    163.4092   1.1946254745e+02   2.1948005087e+01    0.4496316    0.4133052 -29.35  0.002672149    1.222    0.182
        49 -10.3988    234.6823    168.1994   1.0176609888e+02   2.5493143451e+00     0.222096    0.1801021  68.75   0.00091513    1.854    0.461
        50 -11.3668    208.9111    166.7752   1.0607103441e+02   7.6524349989e+00     0.289231    0.1966385 -38.78 0.0009656822    1.572    0.364
        51 -10.9692    219.2378    166.4156   1.0411169332e+02   5.7101707788e+00    0.3173798     0.220698  52.58  0.001068532    1.622    0.383
        52 -10.9073    215.1800    165.8174   1.0472197910e+02   6.5818306412e+00    0.2617157    0.2092956   7.13 0.0006387178    1.237    0.192
        53 -13.1784     89.0348    150.4959   1.2842803714e+02   3.3270800749e+01    0.3684399     0.289795 -77.97  0.001269984    1.226    0.184
        54 -13.2392     84.0854    149.8939   1.2948275759e+02   3.4147786770e+01    0.3181753    0.2576397  49.19  0.001555195    1.259    0.206
        55 -13.7535     93.2109    159.6159   1.2894962642e+02   3.0673413038e+01    0.7722388    0.4430067  57.19  0.003522685    1.847    0.459
        56 -12.7894    226.9014    159.8213   1.0136407275e+02   5.2183236186e+00    0.6245411    0.4765273  61.04   0.00337215    1.723    0.420
        57 -11.8268    196.4070    159.5610   1.0692922301e+02   1.1291209636e+01    0.5753061    0.2121641  50.78  0.001774687    2.932    0.659
        58 -13.0199    178.8247    149.3470   1.0822314929e+02   1.6669089209e+01    0.5929931    0.4596552  53.71  0.001636891    1.337    0.252
        59 -11.3893    172.2585    142.2657   1.0801175220e+02   1.9343293997e+01     0.425875    0.3176365 -82.46  0.001415432    2.038    0.509
        60 -12.9842    161.7588    159.5490   1.1390051611e+02   1.8288332002e+01     1.012177    0.4463373  57.24  0.003530336    3.215    0.689
        61 -13.8406    170.0563    154.0426   1.1103531270e+02   1.7627681052e+01     1.619559    0.5720845  43.36   0.00575269    2.725    0.633
        62 -13.2137    206.3254    158.8543   1.0489468828e+02   9.4115074633e+00    0.8911937    0.4055423  44.70  0.002302856    2.094    0.522
        63 -12.2344    223.9362    152.6288   1.0033799017e+02   6.8751813735e+00    0.3225062    0.1951215  37.70  0.001029115    1.610    0.379
        64 -11.7436    191.0725    159.6766   1.0798864273e+02   1.2350105615e+01    0.3444994    0.2930676  -8.91   0.00152203    1.224    0.183
        65 -11.4474     73.5056    153.4987   1.3248903225e+02   3.4879676607e+01     0.207114    0.1287427  24.53  0.001036404    2.283    0.562
        66 -14.3623     18.6022    146.6282   1.4407670489e+02   4.2507548522e+01    0.8485774    0.4528588 -68.55  0.005135998    1.524    0.344
        67 -13.7794     29.8131    139.9625   1.4082128073e+02   4.2933124325e+01    0.7714058    0.4696799 -73.92  0.004707092    1.343    0.255
        68 -13.0439     24.1670    123.5926   1.4018352469e+02   4.7046465000e+01    0.6588978    0.3397173 -75.06  0.003336145    1.627    0.385
        69 -12.2814    228.6082    141.0211   9.6935753012e+01   7.7141418350e+00    0.5213951    0.3170159  56.68  0.001843705    1.990    0.497
        70 -12.1574    217.7772    138.7371   9.8326434022e+01   1.0293286214e+01    0.8301503      0.43701  46.21  0.003665789    1.889    0.471
        71 -12.8012    239.6386    148.1030   9.6640595105e+01   4.4849934786e+00    0.4727831    0.4217608   4.19  0.001306548    1.040    0.039
        72 -12.1149    247.0724    145.4068   9.4823402633e+01   3.4549716181e+00    0.6035093    0.2758849  41.14  0.001787639    2.207    0.547
        73 -11.5783    188.6022    147.8753   1.0593054641e+02   1.4885414169e+01    0.3993472    0.2964225 -62.97  0.001276799    1.818    0.450
        74 -10.7959    135.9551    148.6314   1.1728636632e+02   2.5493067279e+01    0.3179673    0.2353118  51.41  0.000939629    1.329    0.248
        75 -13.6602     22.6323    132.2961   1.4162250828e+02   4.5262969302e+01    0.6409729     0.259286 -73.90  0.003177657    2.077    0.518
        76 -13.0936    153.0089    145.7919   1.1291029887e+02   2.2674908217e+01     0.722111    0.4590018  49.11  0.002537166    1.548    0.354
        77 -12.8183    164.1419    143.5164   1.1000720208e+02   2.0815921944e+01    0.5126161    0.3305666 -45.96  0.002399337    1.617    0.381
        78 -11.1367    196.1887    137.8486   1.0216365363e+02   1.5016520539e+01     0.442735    0.3707241  86.72  0.001639243    1.611    0.379
        79 -12.8572    206.9272    142.3824   1.0115455247e+02   1.1969889905e+01    0.8301593    0.4922972  47.37   0.00135132    1.679    0.404
        80 -11.4460    201.6699    137.2733   1.0097402559e+02   1.3939297963e+01    0.5695953    0.3052015  58.46  0.002298466    2.344    0.573
        81 -12.6091     73.3489    142.7617   1.3087035786e+02   3.7251623308e+01    0.3489874    0.2531015  74.47  0.001972846    1.463    0.317
        82 -12.6551     61.2454    114.9382   1.2909285332e+02   4.5083094037e+01    0.4848059    0.2552341  56.41   0.00218791    2.475    0.596
        83 -12.8077     43.9951     89.5227   1.2891807194e+02   5.2762611288e+01    0.6131899    0.4892309 -30.58  0.003863469    1.379    0.275
        84 -11.9739     59.0086    106.7114   1.2810022746e+02   4.7213135147e+01    0.5380771    0.3683235 -36.89  0.002938759    1.655    0.396
        85 -13.1194     42.0234    100.8785   1.3179769645e+02   5.0442385756e+01    0.6866449    0.4022779  85.40  0.003269876    2.503    0.600
        86 -13.5179    105.1533    133.2862   1.2139115910e+02   3.4392563117e+01    0.9259626      0.46315  64.55  0.003143145    3.803    0.737
        87 -15.2789     85.7330    129.6268   1.2550050571e+02   3.8364883112e+01      1.34198     1.250326  89.81  0.007754639    1.048    0.046
        88 -11.7116     54.9983     99.0264   1.2766080463e+02   4.9420088754e+01    0.4716317    0.3049991 -80.42   0.00155625    1.839    0.456
        89 -14.5154     71.4445    115.3166   1.2641211564e+02   4.3650957615e+01     1.371351    0.8184214  89.12  0.005880324    2.699    0.629
        90 -10.3554    139.0103    137.6785   1.1428291634e+02   2.7123486527e+01    0.2034038    0.1839753  51.63 0.0004522253    1.090    0.083
        91 -11.0313    127.8000    137.2196   1.1678111008e+02   2.9414475565e+01    0.2971439    0.2323262 -65.73 0.0006190639    1.372    0.271
        92 -12.3594    125.5432    131.8936   1.1615936758e+02   3.0966739957e+01    0.6990612    0.3473508  59.30  0.002566962    2.857    0.650
        93 -12.6107    234.3533    136.2359   9.4864959529e+01   7.2827303378e+00    0.5429077     0.283396  42.39  0.002452905    1.930    0.482
        94 -11.2929    158.3612    134.7071   1.0927024443e+02   2.3728230133e+01     0.471524    0.2948982 -66.64   0.00189223    2.459    0.593
        95 -11.9201    151.4311    132.9190   1.1039551067e+02   2.5540065614e+01    0.3626222    0.2872032 -71.28 0.0005877676    1.532    0.347
        96 -11.0903    165.8380    135.8389   1.0790853268e+02   2.1918925245e+01    0.5794129    0.3194724  45.87  0.002474921    1.775    0.436
        97 -10.1077    185.0312    133.4922   1.0335734709e+02   1.8200971095e+01    0.2275449    0.1424553  45.34 0.0004640309    1.567    0.362
        98 -12.0855    237.3151    129.4319   9.2802547751e+01   7.7099462614e+00    0.4679644    0.1982843  42.86   0.00188656    2.434    0.589
        99 -12.2958    135.0978    123.4877   1.1195863605e+02   3.0834915446e+01    0.8799059    0.5343375  82.81  0.002842274    4.081    0.755
       100 -11.3652    132.6255    117.6665   1.1114667338e+02   3.2546447084e+01    0.4842414    0.3445263 -54.96  0.001648935    1.462    0.316
       101 -11.0432    113.2891    105.1154   1.1285515775e+02   3.9011651383e+01    0.5718293    0.3103506 -67.85  0.001816758    3.283    0.695
       102 -12.8722    121.4795    115.4231   1.1333852630e+02   3.5243035046e+01      1.00331    0.5254647  50.35 0.0009915638    2.050    0.512
       103 -12.8094    128.4145    125.6056   1.1405307737e+02   3.1731948812e+01    0.7497061    0.5010635 -82.42  0.003113587    2.409    0.585
       104 -12.7945    112.6862    125.6615   1.1791081902e+02   3.4709147397e+01    0.4925127    0.3541146  75.93  0.002350059    1.816    0.449
       105 -11.6459    105.4413    123.0581   1.1915126690e+02   3.6573703882e+01    0.4603228    0.2862067  62.79  0.001979691    2.072    0.517
       106 -13.1765    120.0809    123.1726   1.1552019594e+02   3.3863560304e+01    0.6486894    0.3824185  60.20   0.00229808    2.150    0.535
       107 -10.3274    191.0643    125.0401   1.0011842732e+02   1.8379881304e+01    0.2289626    0.2058372 -70.55 0.0006533139    1.318    0.241
       108 -10.8097    198.3068    124.9724   9.8689669983e+01   1.6780434544e+01    0.3673227    0.2004022  44.43 0.0009319315    1.824    0.452
       109 -11.8887    193.9398    121.8372   9.8765766676e+01   1.8301418056e+01    0.8589933    0.4040361  65.56  0.002563772    4.307    0.768
       110 -10.7319    181.7706    123.0525   1.0149998736e+02   2.0814802020e+01    0.3446654      0.21331  60.20 0.0009684218    1.915    0.478
       111 -12.3479     51.3056    104.2331   1.2978494344e+02   4.8684726525e+01     0.582251    0.3930601  21.03  0.002330306    1.928    0.481
       112 -11.8659    235.0495    144.1963   9.6546980105e+01   5.9509013528e+00    0.3060115    0.2676576  23.83 0.0008670748    1.110    0.099
       113 -13.6771     92.0513    109.4317   1.1956275722e+02   4.1847108386e+01    0.9326862    0.7699855 -86.31  0.005112848    1.364    0.267
       114 -10.1425    203.3728    118.2208   9.6064492471e+01   1.6806833173e+01    0.2049774    0.1823441  26.79 0.0005868973    1.117    0.105
       115 -10.5902    183.9351    116.0303   9.9299379783e+01   2.1601249572e+01    0.3283179    0.1951718 -51.98  0.001317947    2.002    0.501
       116 -10.9030    118.0537    109.5604   1.1275386169e+02   3.7152548355e+01    0.3680789    0.2734729 -62.75  0.001802811    1.470    0.320
       117 -10.0354    213.5921    112.7527   9.2835480292e+01   1.5424618916e+01    0.2094934     0.132018 -42.06 0.0009426689    1.604    0.377
       118 -10.3896    154.0323    111.6082   1.0458514026e+02   2.9201166535e+01    0.2778037    0.2092903 -56.56 0.0006044211    1.471    0.320
       119 -13.4931    242.4839    100.1476   8.4983495187e+01   1.1033250001e+01     1.299104    0.8219923   3.69  0.005681368    2.249    0.555
       120 -11.8187    247.9694    109.9862   8.6538291698e+01   8.4249154056e+00    0.3557973    0.2471814  40.48 0.0003960188    1.528    0.345
       121 -12.7422    246.1350    105.9380   8.5843360941e+01   9.4018990700e+00    0.9798045     0.415721  41.70   0.00386009    2.691    0.628
       122 -13.3292    243.8970     88.5645   8.1925835344e+01   1.2436080070e+01    0.9622568    0.5823427  63.16  0.004545716    1.935    0.483
       123 -12.8063    249.1236     86.2247   8.0622036275e+01   1.1642615397e+01    0.5770929    0.3136021 -28.96 0.0005740177    1.690    0.408
       124  -9.9478    161.4875    115.9479   1.0403070850e+02   2.6696871912e+01    0.2270901    0.1480309 -42.38 0.0006421942    1.534    0.348
       125 -11.2802      7.9910    109.9934   1.4261879352e+02   5.1284850696e+01    0.1832611    0.1148827  76.23 0.0009537016    1.675    0.403
       126 -12.4290     74.1442    103.3662   1.2311355257e+02   4.5945032870e+01     0.492101    0.2930453 -51.40 0.0008526546    1.497    0.332
       127 -11.5477    180.1634     93.7761   9.4153348345e+01   2.6470945380e+01    0.5261027    0.3755372  83.67  0.001900377    2.025    0.506
       128 -12.2063    186.8817     92.3392   9.2430329954e+01   2.5108065582e+01    0.5532076    0.4496376 -52.46  0.002248737    1.324    0.245
       129 -10.9639    201.7996     95.6053   9.0520195472e+01   2.0989129058e+01    0.3039359    0.2676691 -21.54  0.001161005    1.111    0.100
       130 -12.0391    198.1868     94.0987   9.0775564303e+01   2.2099586076e+01    0.5519614    0.3775483 -34.20  0.002473242    1.418    0.295
       131 -12.4779    196.8042    102.3747   9.3238542931e+01   2.1024591721e+01    0.5846234     0.481171  74.47  0.001928582    1.449    0.310
       132 -11.5558    192.9979     97.9898   9.2792418251e+01   2.2674455792e+01    0.3947866    0.2935039  83.71  0.001176513    1.853    0.460
       133 -11.0818    185.8279    103.3003   9.5606471487e+01   2.3442965942e+01    0.3046223    0.2307949  78.29 0.0009980241    1.733    0.423
       134 -10.3453    180.4785     99.8586   9.5755065311e+01   2.5316744264e+01    0.4079229    0.2802621  87.96 0.0009725973    2.391    0.582
       135 -10.9219      8.6818    102.3705   1.4145590428e+02   5.2907644060e+01    0.2319507     0.167354 -57.94  0.001602118    1.225    0.184
       136 -11.3171    158.9930     99.9132   1.0034143141e+02   3.0337011754e+01    0.4250065    0.3269882  66.66  0.001254151    1.509    0.337
       137 -12.2781    165.5016     96.9777   9.8100952657e+01   2.9373363244e+01    0.7536414    0.6274275 -54.11  0.003759288    1.291    0.225
       138 -10.1187    153.0182     98.9735   1.0143202900e+02   3.1884883968e+01    0.2360672    0.1869025 -76.45 0.0005311703    1.637    0.389
       139 -10.3829    115.0229     98.4865   1.1065846924e+02   4.0074435161e+01     0.219428    0.1901729 -42.88 0.0004032089    1.105    0.095
       140  -9.8563    134.4220     98.2535   1.0565039611e+02   3.6144991541e+01    0.2057863    0.1412423 -51.37  0.000551386    1.516    0.340
       141 -10.9275    216.4988     94.9469   8.7783889498e+01   1.7646436355e+01    0.2755255    0.2174507  81.01 0.0009449297    1.600    0.375
       142 -10.7189     92.6172     94.5644   1.1572567147e+02   4.4990943466e+01    0.2408413    0.2216342 -49.56 0.0004062137    1.013    0.013
       143 -10.5265    105.5681     93.9344   1.1195886848e+02   4.2827377617e+01    0.2857921     0.208316  23.16  0.001386131    1.678    0.404
       144 -10.5528    172.8625     91.8117   9.5097142900e+01   2.8567971787e+01    0.4153482     0.209706 -24.84  0.001491501    2.467    0.595
       145 -12.7454     31.5209     88.5575   1.3254151138e+02   5.4188213647e+01    0.4617504    0.3697814 -47.17  0.001560841    1.178    0.151
       146 -12.0832    195.1247     83.2699   8.8370492568e+01   2.4634121198e+01    0.5845778    0.4701995  65.96  0.001945455    1.352    0.261
       147 -10.5852    167.8709     91.0804   9.5939490908e+01   2.9891368964e+01    0.3356621    0.2300465  57.00   0.00101704    1.540    0.351
       148 -10.1626      3.6414     90.0045   1.4116062474e+02   5.5919762769e+01    0.1632165    0.1127183 -69.56 0.0004295314    1.091    0.084
       149 -11.6486    226.9909     88.1763   8.4336654934e+01   1.6280501442e+01    0.3231703    0.2946874 -42.84 0.0008303564    1.096    0.088
       150 -11.3547    113.8152     85.5551   1.0734805623e+02   4.2967024473e+01    0.5896724    0.3206721 -50.36  0.002470624    1.905    0.475
       151 -11.5498    213.4650     86.0049   8.5935993936e+01   1.9775515061e+01    0.3284155    0.2057724 -36.77  0.001163148    1.517    0.341
       152 -10.5414     61.2765     85.4497   1.2264750176e+02   5.1637622262e+01    0.1683992    0.1247538  49.80 0.0009428983    1.608    0.378
       153 -12.6459    101.8591     78.9854   1.0870438963e+02   4.6591113975e+01      0.94103    0.3978119 -37.44  0.003116533    2.448    0.591
       154 -12.2648    107.7088     76.6256   1.0633848306e+02   4.5943586911e+01    0.4503258    0.3582354  44.30 0.0005719148    1.332    0.249
       155 -11.2082    192.5355     90.3013   9.0791864395e+01   2.4093409945e+01    0.3508351    0.2171344 -49.90  0.001008661    1.804    0.446
       156  -9.9253    211.6886    238.3215   1.1816377972e+02  -2.4720541890e+00    0.1036676   0.08546755  58.57 0.0007037565    1.650    0.394
       157 -11.4370     71.7189     79.2748   1.1778005359e+02   5.1533066642e+01    0.3858691    0.2607686  60.01  0.001211712    2.073    0.518
       158 -11.5223     62.9790     79.7557   1.2064671543e+02   5.2641394447e+01    0.2426501    0.1749427 -50.59 0.0006906915    1.204    0.169
       159 -10.8498    163.8905     78.1456   9.3024782343e+01   3.3142054111e+01    0.3363396    0.2924186  16.35   0.00131294    1.233    0.189
       160 -10.7932     53.1520     78.7852   1.2352010744e+02   5.4081057764e+01    0.2905356    0.2019144  66.74  0.001163243    2.121    0.529
       161 -10.7167    215.9329     78.4825   8.3525854025e+01   2.0355597178e+01    0.2152019     0.146944  57.72 0.0005445876    1.532    0.347
       162  -9.8355    204.5488    235.5193   1.1894825780e+02  -1.0181959661e+00    0.1174173   0.09190713  30.49 0.0001843487    1.013    0.013
       163 -10.5354    193.5231     74.5081   8.6193624574e+01   2.6442070687e+01    0.3506427    0.2416551 -18.86  0.001585818    1.591    0.372
       164 -11.2649    197.8602     70.7833   8.4380515318e+01   2.5951032385e+01    0.4417615    0.3348865  70.78  0.001351524    1.462    0.316
       165 -10.6845    174.4980     67.4342   8.7653587591e+01   3.2313344278e+01    0.3601901    0.2625328 -48.40  0.001684173    1.454    0.312
       166 -11.6434    179.0366     70.3011   8.7638192400e+01   3.0719859067e+01    0.6311229    0.2866887  59.56  0.002316996    2.346    0.574
       167 -10.8644    181.8501     66.3443   8.5936347616e+01   3.0643884441e+01    0.4241085    0.3183408  21.53  0.001980256    1.583    0.368
       168 -11.1393    140.3849     72.0349   9.6437678756e+01   3.9802810291e+01    0.4367747    0.3097638  78.00  0.001897515    2.016    0.504
       169 -11.2203    165.7139     70.7825   9.0424856133e+01   3.3947405618e+01    0.4132119    0.3457006   1.46   0.00154815    1.326    0.246
       170 -11.6392    170.1742     70.6421   8.9474386023e+01   3.2868684715e+01    0.3913481    0.3136185 -44.42  0.001073433    1.274    0.215
       171 -11.1611    152.4680     70.8145   9.3272963982e+01   3.7166840092e+01    0.2842581    0.2588925  87.85 0.0003607876    1.247    0.198
       172 -11.8059     60.8258     67.2194   1.1781631785e+02   5.5546616772e+01    0.2563405    0.1882579 -46.20 0.0006654045    1.177    0.150
       173 -11.1354    155.5151     63.3740   9.0268340331e+01   3.7672349777e+01     0.487217     0.397429 -88.31  0.002376493    1.531    0.347
       174 -11.0713    142.4283     62.6312   9.2945550505e+01   4.0945900392e+01    0.3298829    0.2409538  -4.16 0.0008304561    1.663    0.399
       175 -11.3651    120.1804     56.3648   9.6309118245e+01   4.7065728997e+01    0.2642103    0.2412805 -32.75 0.0004204873    1.102    0.092
       176 -11.9922    145.1408     51.7425   8.8728670930e+01   4.2036230191e+01    0.4523582    0.2219937 -32.53  0.001364278    2.011    0.503
       177 -13.1959    148.0876     45.8772   8.6115890273e+01   4.2186809280e+01    0.6390928    0.3343816 -35.52  0.002313264    1.894    0.472
       178 -12.6078    140.0521     46.2043   8.7972690843e+01   4.4094023653e+01    0.9532021    0.3280239 -30.58  0.003231816    2.900    0.655
       179 -11.4160    135.9822     39.4591   8.6520300462e+01   4.6033426523e+01    0.3037104    0.2165045 -53.63 0.0006244956    1.706    0.414
       180 -12.4479    131.8349     45.0361   8.9448066632e+01   4.6216228044e+01    0.2842253    0.2671219  -1.06 0.0004416014    1.025    0.024
       181 -11.1493    222.1849    234.1016   1.1577900602e+02  -3.6420965893e+00    0.1748725    0.1259532  19.80 0.0003513288    1.181    0.153
       182 -12.9670     82.7245     27.9518   9.6258804008e+01   5.9025418940e+01    0.4897989    0.3817628   7.50  0.001877842    1.236    0.191
       183 -10.1334     83.4356     81.2837   1.1476767309e+02   4.9321124939e+01    0.1892344    0.1260097 -56.40 0.0006842185    1.519    0.342
       184 -10.7470      6.3306     25.2347   1.2544087553e+02   6.8999060845e+01    0.1916242     0.150308 -46.57 0.0003721942    1.162    0.139
       185 -10.2052     15.4591     21.9384   1.2004168294e+02   6.8922792897e+01    0.1809035   0.08950757 -47.81  0.001039073    1.622    0.383
       186 -10.8935    189.5217    228.9070   1.2055018472e+02   2.2397582669e+00    0.1980233    0.1482107  50.46 0.0009233643    1.346    0.257
       187 -10.9183    201.0479    227.0340   1.1827068878e+02   5.7881700595e-01    0.3045785    0.1394261  50.71  0.001465922    2.364    0.577
       188 -10.8475    202.6294    221.7183   1.1717121234e+02   9.8716085462e-01    0.2383372    0.1216246  34.17  0.001255998    1.711    0.416
       189 -10.3001    223.5621    219.4724   1.1321085340e+02  -2.1843784980e+00    0.2149848   0.08962228  33.64 0.0007016727    2.175    0.540
       190 -14.9456    105.8449    203.5466   1.3246693980e+02   2.0029984093e+01       1.7682     1.097899  60.99  0.009199856    1.546    0.353
       191 -12.3077    188.9818    203.8574   1.1670772811e+02   5.7720693458e+00    0.3958458    0.3562979  13.77  0.001624429    1.109    0.099
       192 -12.8409    184.1844    197.4423   1.1650877442e+02   7.5875648430e+00    0.6385517    0.4693149  53.22  0.002177974    1.410    0.291
       193 -10.8391    200.5386    214.0111   1.1630287596e+02   2.3434221049e+00    0.2331112    0.1578597  51.33 0.0007813322    1.566    0.361
       194 -11.6858    221.6186    209.3017   1.1182445275e+02  -6.2402104175e-01    0.3582789    0.2469368  24.96  0.001399253    1.264    0.209
