#   1 NUMBER                 Running object number                                     
#   2 MAG_AUTO               Kron-like elliptical aperture magnitude                    [mag]
#   3 X_IMAGE                Object position along x                                    [pixel]
#   4 Y_IMAGE                Object position along y                                    [pixel]
#   5 X_WORLD                Barycenter position along world x axis                     [deg]
#   6 Y_WORLD                Barycenter position along world y axis                     [deg]
#   7 A_WORLD                Profile RMS along major axis (world units)                 [deg]
#   8 B_WORLD                Profile RMS along minor axis (world units)                 [deg]
#   9 THETA_WORLD            Position angle (CCW/world-x)                               [deg]
#  10 FWHM_WORLD             FWHM assuming a gaussian core                              [deg]
#  11 ELONGATION             A_IMAGE/B_IMAGE                                           
#  12 ELLIPTICITY            1 - B_IMAGE/A_IMAGE                                       
         1 -14.7837     68.5947    144.3817   1.0597142965e+02   3.7357483015e+01     5.315813     2.614723  67.59   0.01556989    3.886    0.743
         2 -14.5204    201.6462     36.8904   4.5384147439e+01   3.0076555575e+01     2.242614     1.544651  33.64  0.008491514    1.918    0.479
         3 -14.3286    214.3689     23.8223   4.0554504794e+01   2.8608525244e+01     1.285758    0.9583946  35.08  0.007092366    1.778    0.437
         4 -12.0407      2.4790      3.9317   9.3055694650e+01   7.3942624877e+01    0.7118135    0.2181688 -41.84  0.003581497    2.427    0.588
         5 -10.5744     58.3744      6.8742   6.6470922621e+01   6.6641701330e+01    0.1963691    0.1579763  40.66 0.0005613937    1.368    0.269
         6 -10.6844     53.6367      4.7195   6.7240888718e+01   6.7670080040e+01    0.1824297    0.1535674  56.68 0.0006939925    1.739    0.425
         7 -12.0307    238.8961      2.1786   3.3453665798e+01   2.5390239946e+01    0.6754885     0.230754  76.52  0.002945324    2.791    0.642
         8 -10.7802    209.1598    197.9388   8.2835490209e+01   1.0795866646e+00    0.2555947    0.1856592 -48.09   0.00101105    1.735    0.424
         9 -10.8244    139.5243    248.1471   1.0463990962e+02   4.6097256810e+00    0.4117105    0.1537908 -56.42  0.001806737    3.664    0.727
        10 -14.7962     85.5651    229.3378   1.1312647808e+02   1.6073050720e+01     2.240157     1.528299  61.34  0.006018726    1.300    0.231
        11 -14.9721     48.4398    220.7563   1.1967011829e+02   2.2666847975e+01     2.122481     1.662038  48.58   0.01469803    1.252    0.201
        12 -16.0118      6.9821    171.6333   1.2445129108e+02   3.7425695320e+01     6.263436     1.517369 -74.00   0.02546987    3.167    0.684
        13 -13.2875     10.4437    188.5242   1.2488556099e+02   3.3418291045e+01    0.3824075    0.2982581  38.98  0.001020461    1.488    0.328
        14 -13.5505     28.0960    216.0880   1.2324266885e+02   2.5917433099e+01     1.043126    0.3847214 -87.50  0.003926154    2.955    0.662
        15 -14.9213     42.1535    202.8106   1.1945361519e+02   2.7118356397e+01     2.005633     1.021572  84.52  0.003449878    2.052    0.513
        16 -14.7884     51.0169    193.7903   1.1674494699e+02   2.8025160196e+01     1.814717     1.188165  76.39   0.01049342    1.437    0.304
        17 -10.1258    111.9470    196.9835   1.0351107422e+02   1.8496283757e+01    0.2094165    0.1921505  64.98 0.0004712393    1.030    0.029
        18 -15.3732      9.0944    207.9046   1.2632675404e+02   2.9467257094e+01     1.907296     1.176475 -51.10  0.004247036    2.276    0.561
        19  -9.4460     82.0521    194.4128   1.0992029992e+02   2.3732112494e+01    0.3187551    0.1283846  49.14  0.001322691    2.389    0.581
        20  -8.8631    160.0000    197.0154   9.2822053333e+01   1.0031087112e+01     0.206716   0.08087588 -46.90 0.0003385326    2.802    0.643
        21 -10.4122    146.5367    182.5594   9.3209542072e+01   1.5365116516e+01    0.2595598    0.2411028  30.64  0.000691439    1.034    0.033
        22 -10.1214     99.0982    180.9054   1.0407026205e+02   2.4106082681e+01    0.3200279    0.2478545  15.73  0.001666089    1.681    0.405
        23 -12.2021     66.6972    177.3173   1.1130770696e+02   2.9744089893e+01    0.4278823    0.3007574 -42.99  0.001353322    1.780    0.438
        24 -12.1995     71.5358    172.2084   1.0946118966e+02   3.0270634718e+01    0.3363695    0.3120465  21.04 0.0007978455    1.316    0.240
        25 -11.2695    140.8780    174.1393   9.2940557606e+01   1.8192968073e+01    0.7683302    0.4957466 -84.63  0.002977061    2.881    0.653
        26 -12.6970     87.2266    155.9170   1.0295831709e+02   3.1822549506e+01     1.282321    0.7131442 -68.40  0.001481415    1.918    0.479
        27 -12.8666     80.5076    162.5447   1.0579132115e+02   3.1262785352e+01     1.064389    0.4791024  51.21 0.0005358353    2.458    0.593
        28 -13.6615     67.9765    158.5200   1.0838574318e+02   3.4009589747e+01    0.5705234    0.4487436 -48.36  0.001402884    1.377    0.274
        29  -9.6545    173.5048    244.4915   9.7594525185e+01  -1.7648097219e-01    0.2035819    0.1531244 -35.04 0.0007812004    1.582    0.368
        30 -12.1254     54.4042    147.6090   1.1032602400e+02   3.8394777376e+01    0.5504706    0.3734255 -59.89   0.00296497    1.346    0.257
        31 -10.5573    174.2890    148.2067   7.9725345107e+01   1.6892668279e+01    0.4335808    0.3031654 -57.43  0.001942976    1.715    0.417
        32  -9.7667     37.9908    146.0032   1.1446694488e+02   4.0611840550e+01    0.2230022    0.1370545  68.20  0.001142489    1.793    0.442
        33 -11.4502     29.9783    143.8776   1.1631023334e+02   4.1906788067e+01    0.4779659    0.2647829  30.22    0.0025256    2.062    0.515
        34 -10.8813    101.5780    140.5213   9.6183981010e+01   3.3147876895e+01    0.6066125    0.3785221 -25.88  0.002398284    2.502    0.600
        35 -12.3903     88.7797    140.6730   9.9730715177e+01   3.5259682590e+01    0.2889825    0.2493317 -49.06 0.0004118313    1.162    0.139
        36 -10.8539     81.5602    141.3950   1.0186658868e+02   3.6213718658e+01    0.4661351    0.2574649  63.55  0.001143567    2.646    0.622
        37 -10.0096     34.6280    139.3672   1.1449749567e+02   4.2553360745e+01    0.2561785    0.1817197  66.37 0.0006737662    1.478    0.323
        38 -10.7993     26.0912    137.7541   1.1659584831e+02   4.3731257488e+01    0.3098556    0.1390256  40.10  0.001496487    2.360    0.576
        39 -11.0578     46.1260    135.3652   1.1075215997e+02   4.2340314556e+01    0.2745989    0.1765797 -74.55 0.0008920485    1.424    0.298
        40 -10.3063    110.9104    130.8620   9.1506815571e+01   3.3758196413e+01    0.3508265      0.27073   8.85 0.0008588526    1.689    0.408
        41 -10.3661    106.0439    130.7181   9.2822310825e+01   3.4693757615e+01    0.3474316    0.3124701 -81.82  0.001254084    1.169    0.145
        42 -10.9073    136.0787    128.0759   8.4106759826e+01   2.9371099852e+01    0.4130841    0.2585211 -49.95  0.001608101    1.616    0.381
        43 -15.8377     60.8667    247.3509   1.1939015937e+02   1.6079988944e+01      9.43355      2.89136  29.01  0.007359083   11.059    0.910
        44 -10.3622    160.6261    127.7450   7.7954126185e+01   2.4114130261e+01    0.3276788    0.2617843 -54.07  0.001551811    1.331    0.249
        45  -9.3397     92.2322    124.8838   9.5433502377e+01   3.8519763173e+01    0.2247196    0.1932708  88.14 0.0006219078    1.287    0.223
        46  -9.7673    117.1909    124.5869   8.8290743333e+01   3.4023804945e+01    0.2184218    0.1492538  26.72 0.0009392431    1.719    0.418
        47 -10.3514    135.0000    120.7968   8.2559062761e+01   3.1231781089e+01    0.4431073   0.08917295 -45.66   0.00104898    4.913    0.796
        48  -9.8277    107.5504    119.4649   8.9738722904e+01   3.7077356366e+01    0.2388278    0.2297644 -41.29 0.0002261911    1.021    0.020
        49 -10.9914     98.1734    126.9046   9.4178235509e+01   3.7013486780e+01    0.3121603    0.2551042 -20.81 0.0006510002    1.451    0.311
        50 -10.4194     34.4295    171.3408   1.1823873476e+02   3.4974651904e+01    0.2386899     0.177792  75.00   0.00081664    1.195    0.163
        51  -9.7946    168.2406    113.1549   7.2433350183e+01   2.5416663990e+01    0.3618976    0.2429466 -71.80  0.001393435    2.352    0.575
        52 -10.4951    159.1065    162.3428   8.6305426834e+01   1.7111053443e+01    0.3240027    0.2618963 -83.11 0.0007028946    1.655    0.396
        53 -10.1560    205.4501    110.1718   6.4021903061e+01   1.7447688188e+01    0.3191763    0.2157652  41.08 0.0008897316    1.592    0.372
        54  -8.9270    141.6810    108.3091   7.7521288296e+01   3.2503888631e+01    0.1597686    0.1282003 -86.29 0.0002914482    1.640    0.390
        55 -16.4595      9.0462    240.5551   1.2796925402e+02   2.3158613428e+01     2.104583     1.738513  46.75   0.01737604    1.464    0.317
        56 -10.5050    134.5578    105.2972   7.8542149914e+01   3.4735100870e+01    0.3866312    0.1535379 -41.38  0.001283136    2.519    0.603
        57 -11.0742    119.1637    104.3717   8.2486805065e+01   3.8234803505e+01    0.3975603     0.207291 -31.67  0.001421784    2.430    0.588
        58 -11.1919    133.5927    144.0701   8.8503686710e+01   2.6263471310e+01     1.214156    0.2945857 -53.98  0.002689951    6.360    0.843
        59 -10.5023    133.0338    172.4924   9.4486580774e+01   2.0026793957e+01    0.2344047    0.1400329  40.02  0.001038012    1.605    0.377
        60 -11.6131    241.8863    100.6602   5.5705033709e+01   1.1251548471e+01    0.3022701    0.1876213 -41.24  0.001493929    1.428    0.300
        61  -9.0111    128.4937     95.5537   7.7397551298e+01   3.8149081667e+01    0.1566024    0.1512123  -4.60 9.797884e-05    1.025    0.025
        62 -10.2543     53.0525     90.8365   9.9859315012e+01   5.2318095357e+01    0.3001868    0.1908878 -50.78  0.001530791    1.356    0.263
        63 -10.8715     41.6851     91.5364   1.0398600504e+02   5.3408869739e+01    0.3202474    0.1976396 -53.89 0.0008249514    1.355    0.262
        64 -10.5626    245.1707     88.6128   5.2439228216e+01   1.2509729571e+01     0.188938    0.1248251  44.66 0.0009565608    1.779    0.438
        65  -9.2702     75.0180     85.0160   9.0702654351e+01   5.0633475254e+01    0.2040894    0.1745619  79.87 0.0003393064    1.533    0.348
        66  -9.6724     69.9303     81.6612   9.1484830548e+01   5.2146607868e+01    0.1881129    0.1733071  26.89 0.0005781322    1.186    0.156
        67  -9.8144    158.9008     81.4935   6.5673483720e+01   3.3815363645e+01    0.2362891    0.1533211  52.15 0.0007463733    1.540    0.351
        68 -10.5377     13.5159     59.9466   1.0721148477e+02   6.2801363117e+01    0.2395006    0.1757922 -51.62 0.0004162246    1.085    0.078
        69 -12.2750    192.8877     43.0873   4.8256602312e+01   3.1425357868e+01    0.6981837    0.5011898  36.67  0.001075328    1.680    0.405
        70 -10.4100    171.6628    240.8445   9.7427183766e+01   6.5125915729e-01    0.3643962    0.1867816 -51.30  0.001840951    2.626    0.619
        71  -8.9068     37.4496     56.5715   9.6229089366e+01   6.1550184541e+01     0.129149    0.1070815 -32.57 0.0001170601    1.017    0.017
        72 -14.4455     29.4553    247.9503   1.2492127980e+02   1.9698558467e+01    0.9281005     0.603819  31.01  0.006105372    1.930    0.482
        73 -11.1274    141.9662     47.1648   5.8660840784e+01   4.3693519175e+01    0.4343767     0.295034 -83.91 0.0006888513    2.235    0.553
        74 -10.2078    145.0165     41.8411   5.6235046884e+01   4.3688057300e+01    0.2283952    0.2134595 -32.01 0.0003115355    1.126    0.112
        75  -8.8011    115.6599     31.2869   5.9247434090e+01   5.2170466688e+01    0.1361823    0.1115588 -77.66 0.0005234194    1.638    0.390
        76 -11.5489      2.2447     25.0398   1.0210802232e+02   7.0399324470e+01     0.324717    0.1834869 -51.50  0.001507465    1.464    0.317
        77 -10.1165    197.6706    223.0833   8.9581096505e+01  -8.9106371558e-01    0.2042194    0.1558287  36.48 0.0004288939    1.238    0.192
        78  -9.4996    189.5264     14.9754   4.1006040996e+01   3.5644612955e+01    0.1888784    0.1313419 -30.58 0.0005932514    1.544    0.352
        79  -9.9250    113.1600    207.3260   1.0472139678e+02   1.6170016508e+01    0.2280216     0.184888 -79.46 0.0003477548    1.347    0.258
        80 -11.7059    193.1323    194.8848   8.5449402340e+01   4.3984184396e+00    0.9442051    0.5063766 -62.79   0.00289853    5.763    0.826
