#   1 NUMBER                 Running object number                                     
#   2 MAG_AUTO               Kron-like elliptical aperture magnitude                    [mag]
#   3 X_IMAGE                Object position along x                                    [pixel]
#   4 Y_IMAGE                Object position along y                                    [pixel]
#   5 X_WORLD                Barycenter position along world x axis                     [deg]
#   6 Y_WORLD                Barycenter position along world y axis                     [deg]
#   7 A_WORLD                Profile RMS along major axis (world units)                 [deg]
#   8 B_WORLD                Profile RMS along minor axis (world units)                 [deg]
#   9 THETA_WORLD            Position angle (CCW/world-x)                               [deg]
#  10 FWHM_WORLD             FWHM assuming a gaussian core                              [deg]
#  11 ELONGATION             A_IMAGE/B_IMAGE                                           
#  12 ELLIPTICITY            1 - B_IMAGE/A_IMAGE                                       
         1 -13.8409     68.8653    144.2094   1.0015688163e+02   3.7355059419e+01     2.717195     1.444017 -89.66  0.007324684    3.635    0.725
         2 -13.2811    198.9181     41.9632   4.2596544641e+01   3.0373816746e+01     1.116929    0.9339831 -48.94  0.003318326    1.167    0.143
         3 -13.7912    208.5293     32.4801   3.9168784387e+01   2.9388740464e+01     1.330192    0.9079905 -15.31  0.001441294    2.049    0.512
         4 -12.9704    233.5919      6.3292   3.1208845416e+01   2.6938431310e+01    0.8241603    0.6197425 -84.10  0.004962057    1.125    0.111
         5  -9.8607     44.4834      6.0265   6.5920163232e+01   6.8399191950e+01    0.1731937   0.08829265  -2.04 0.0001689531    2.646    0.622
         6 -11.0503    107.6056    203.7766   9.9786314550e+01   1.7293204086e+01    0.5251986    0.2864232  64.73  0.002090593    2.766    0.639
         7 -10.5476    139.9350    249.5647   9.9069487315e+01   3.4460783311e+00    0.2981947     0.254766  76.49  0.001950136    1.471    0.320
         8 -11.3492    115.4949    246.1400   1.0362536886e+02   7.7042613726e+00    0.4915119    0.3006055 -58.35  0.002767924    1.926    0.481
         9 -11.3347    125.6668    245.8502   1.0150628857e+02   6.2324028888e+00    0.4763264    0.2878084 -35.89  0.002503575    2.262    0.558
        10 -10.8738    120.4116    245.1127   1.0249430547e+02   7.1528344475e+00    0.3447426     0.205203  60.22  0.001116463    2.033    0.508
        11 -14.9754     46.5966    199.7083   1.1341726573e+02   2.6791454628e+01     8.962125     3.080542  64.66   0.02212235    8.184    0.878
        12  -9.6376     31.1443    202.6167   1.1711363787e+02   2.7871348289e+01    0.3302536    0.1815703  59.75  0.001783924    1.699    0.411
        13 -10.7998    121.2444    196.6481   9.5491858814e+01   1.6589785771e+01    0.4380807    0.2439153 -69.96 0.0009233796    2.526    0.604
        14 -10.3574    111.1198    197.6751   9.8044716331e+01   1.8051644393e+01    0.3438657    0.1704876  30.46  0.001422602    2.172    0.540
        15 -16.1786      6.5564    204.6970   1.2244198476e+02   2.9806816170e+01     16.89968     1.044945 -75.72   0.01980479   11.228    0.911
        16  -8.5141     24.4189    193.7476   1.1785563531e+02   3.0562703440e+01    0.1498146    0.1026118 -73.15 0.0005236475    1.323    0.244
        17  -9.1659     69.2427    183.2943   1.0613231471e+02   2.7721999920e+01    0.2201964    0.1851906  73.50 0.0008212021    1.127    0.113
        18 -12.8934     55.8194    185.9713   1.0976334515e+02   2.8849349055e+01    0.8484081    0.6856585  66.45  0.004824369    1.152    0.132
        19 -10.1019     65.4618    179.3233   1.0654285865e+02   2.9181148241e+01    0.3280416    0.2485126 -70.62 0.0008477565    1.254    0.202
        20 -10.4361     60.6318    198.1365   1.1002955374e+02   2.5411842607e+01    0.2509323    0.2046472  40.03 0.0008911965    1.259    0.206
        21  -8.5866     72.4205    188.5075   1.0604477789e+02   2.6054408107e+01    0.1382012    0.1206912  76.41 8.878377e-05    1.059    0.055
        22  -9.4710    147.5272    186.8810   8.7632289895e+01   1.4063725589e+01    0.2723051    0.1385272 -43.40   0.00112708    2.066    0.516
        23 -17.2750     14.3518    242.8345   1.2311036984e+02   2.1244887402e+01     5.587869     2.047968  26.97   0.02436682    3.669    0.727
        24  -9.1991     79.8173    183.3480   1.0351076100e+02   2.6210877149e+01    0.2208177    0.1544928  55.19 0.0007778775    1.424    0.298
        25 -10.3558     99.4307    180.8782   9.8225314641e+01   2.3765041741e+01     0.264463      0.25926 -80.88 0.0006029885    1.064    0.060
        26  -8.4760     89.9976    180.9881   1.0061002121e+02   2.5234773219e+01     0.167352    0.1567362  70.00 0.0003605742    1.012    0.011
        27  -9.0584     38.0102    181.3121   1.1354675042e+02   3.2037360010e+01    0.1734178     0.149108  65.67 0.0002846169    1.108    0.098
        28  -9.6052     42.3328    179.8303   1.1233959844e+02   3.1910771539e+01    0.2264035    0.1993203 -67.37 0.0005850064    1.178    0.151
        29  -9.5178     45.5216    176.5018   1.1117604591e+02   3.2343820527e+01    0.2559979    0.2319298 -76.82 0.0009206575    1.112    0.101
        30  -9.8786    187.4539    175.8700   7.6618308984e+01   8.9541030627e+00    0.3426715    0.2847137 -48.69  0.001314277    1.318    0.241
        31  -8.8283    148.1933    174.7695   8.5156105184e+01   1.6517148582e+01    0.2327355    0.1595729  81.91 0.0007796842    2.622    0.619
        32 -12.4065    107.2211    172.1900   9.4770502605e+01   2.4506315666e+01     3.533903    0.6219561  45.96  0.006903178    8.868    0.887
        33 -11.7473     82.4357    159.2335   9.9015987667e+01   3.1645812446e+01    0.6978984    0.5188962  58.27 0.0005948138    1.431    0.301
        34 -13.0897     70.8574    154.1260   1.0131908163e+02   3.4606143360e+01    0.6223755    0.5712237 -44.28  0.001257361    1.159    0.137
        35  -9.3924     89.4918    211.5192   1.0500363909e+02   1.8414967668e+01     0.220973    0.1987401  75.48 0.0005609178    1.064    0.060
        36 -11.4834     74.0179    167.6397   1.0265015797e+02   3.0826487688e+01    0.4419673    0.3606035 -48.74  0.001394359    1.288    0.224
        37  -9.8272    243.6007    179.1862   6.6664508067e+01  -1.1031371502e+00    0.1924425    0.1052388 -27.36 0.0009570023    1.701    0.412
        38  -8.5783    193.4825    170.5215   7.4265010110e+01   8.8702722985e+00    0.1437276    0.1324696  -8.63 1.447484e-05    1.014    0.014
        39  -9.4770    240.4680    169.4895   6.5268346707e+01   9.5328188859e-01    0.1334144    0.1111574 -17.89 -6.570548e-05    1.016    0.015
        40  -8.7705    185.1385    168.2242   7.5522406273e+01   1.0869627442e+01    0.1895032    0.1781297  87.82 0.0006627897    1.314    0.239
        41  -9.1900    110.7991    167.8923   9.3069851070e+01   2.4900981602e+01    0.2722503    0.2071235 -81.95 0.0007380579    1.569    0.363
        42  -9.4613     34.9182    166.3876   1.1267832414e+02   3.5948485054e+01    0.3800763    0.1912881  62.78  0.001006661    2.340    0.573
        43  -9.1611     36.0072    158.4805   1.1145474934e+02   3.7768263045e+01    0.2366816    0.1797556  69.18 0.0007159151    1.315    0.239
        44  -9.5387     32.3528    156.3812   1.1216854389e+02   3.8653035272e+01     0.210177    0.1989062 -64.45 0.0007270152    1.168    0.144
        45 -11.6808     89.5820    152.1418   9.5771679428e+01   3.2270172536e+01    0.7269061    0.4919289 -26.41  0.003202684    2.027    0.507
        46 -10.5631    134.3794    147.2985   8.2778176929e+01   2.5311195115e+01    0.8694395    0.2820308 -53.20  0.002551183    3.557    0.719
        47 -10.1851    133.0000    141.0112   8.1709809091e+01   2.7025038447e+01    0.5691575     0.214932 -53.52  0.001804564    2.997    0.666
        48 -11.1449     54.4442    148.4754   1.0499576271e+02   3.8176224392e+01      0.68516     0.508504 -75.11  0.003677906    1.273    0.215
        49  -9.1585    174.8548    149.1182   7.3580724178e+01   1.6733265789e+01    0.2318685    0.2080771 -71.47 0.0005986947    1.300    0.231
        50  -8.5695    110.7952    149.1882   8.9379221149e+01   2.9350701653e+01     0.267978    0.1671811  75.61 0.0009589823    2.890    0.654
        51 -10.4462     38.6032    146.2010   1.0912839824e+02   4.0536006823e+01    0.3234755    0.2400163  60.81 0.0007440765    1.432    0.301
        52 -10.2224    103.0330    138.3231   8.9191513268e+01   3.3361485416e+01    0.5650805    0.3639747 -20.18  0.002214918    2.437    0.590
        53 -11.6771     90.4985    137.9457   9.2681509549e+01   3.5609440609e+01    0.2948347    0.2653392 -35.85  0.000515227    1.147    0.128
        54 -11.3839     43.6668    130.4759   1.0522716196e+02   4.3916119107e+01    0.5827147    0.2907641 -82.04  0.002299131    2.669    0.625
        55  -9.7536    111.9592    129.3074   8.4628953044e+01   3.3869808484e+01     0.329846    0.2665232  11.07  0.001240163    1.471    0.320
        56  -9.0506    160.6746    127.3291   7.1648720917e+01   2.4265658097e+01    0.1582068    0.1249444 -84.60 0.0003351792    1.701    0.412
        57 -10.3833     99.1724    125.2039   8.7318189044e+01   3.7206524030e+01    0.3142426    0.2677511 -10.96 0.0008268044    1.344    0.256
        58 -10.1461    105.8881    130.8809   8.6708972987e+01   3.4631916881e+01    0.3655106    0.3339575 -70.87   0.00125586    1.135    0.119
        59 -10.3801    117.6786    123.8832   8.1724533464e+01   3.4027939382e+01    0.4029923    0.2455549  37.92  0.001133014    1.693    0.409
        60  -8.8949     91.5188    124.3631   8.9384284870e+01   3.8745551700e+01    0.2413383    0.1719019  58.81 0.0005707663    1.690    0.408
        61  -9.8544    135.1390    120.7861   7.6265629942e+01   3.1155679110e+01    0.4098327    0.1041058 -43.72  0.001092896    3.945    0.747
        62  -9.9728    231.2918    113.8499   5.4938636649e+01   1.2066794854e+01    0.2651028    0.2455004 -34.60 0.0008281697    1.060    0.056
        63  -9.1729    108.1173    118.3384   8.3045826738e+01   3.7170891846e+01    0.2364906    0.2003899 -35.69 0.0003409489    1.183    0.155
        64 -12.1967     49.2675    107.4255   9.9029094052e+01   4.8955637688e+01    0.7224076    0.5418067  39.72  0.002634168    1.492    0.330
        65 -10.4816    115.3981    108.8965   7.8515441419e+01   3.7890662303e+01    0.3613798    0.2631205 -30.26  0.001650693    1.494    0.331
        66 -12.0844     31.6074    107.8670   1.0507616230e+02   5.0678910467e+01    0.4375097    0.3748316 -45.71   0.00269882    1.090    0.082
        67  -8.4628    139.4617    106.2501   7.1349707936e+01   3.3364512284e+01     0.209202    0.1478043 -55.19 0.0007212958    1.539    0.350
        68  -9.4681    205.2782    110.1805   5.8369095417e+01   1.7991044536e+01    0.2881403    0.2156924  50.14  0.001019763    1.437    0.304
        69  -9.6126    241.5203    102.4919   5.0951055010e+01   1.2013936536e+01    0.1346687    0.1156171 -44.64 -1.561651e-05    1.004    0.004
        70 -10.7481     29.9521     98.9844   1.0392506124e+02   5.2955548445e+01    0.3718118    0.2614542  53.84  0.001965581    1.793    0.442
        71  -9.3948    128.4055     95.5990   7.1265158007e+01   3.8005323722e+01    0.4522718    0.2842565  71.80  0.001680335    2.670    0.625
        72  -9.0695     52.7790     90.9869   9.3941586648e+01   5.2400832340e+01     0.192028    0.1040389 -53.80 0.0006238601    1.670    0.401
        73  -9.4481    155.6968     87.6676   6.2366133038e+01   3.3364250072e+01    0.4070075     0.251941 -67.62  0.001335332    2.515    0.602
        74  -8.2828    116.4943     85.4727   7.1568280331e+01   4.2625216330e+01    0.1489672    0.1475065  -0.54 0.0001124229    1.043    0.041
        75  -9.0477    158.1900     82.8233   6.0467519915e+01   3.3670554005e+01    0.2060838    0.1785857  20.32 0.0004508874    1.312    0.238
        76 -11.3528     69.4370    172.5886   1.0458917772e+02   3.0264640567e+01    0.3920284    0.2924937 -34.10  0.001506283    1.684    0.406
        77 -12.9978    188.1181     50.0745   4.6132546584e+01   3.1795420844e+01    0.9917611    0.8697096  35.02 0.0009480485    1.354    0.262
        78 -11.6893    135.0140    211.5242   9.4701933537e+01   1.1184610377e+01    0.6064107    0.2708734  36.28  0.002554185    2.060    0.515
        79  -9.9815     29.6994     35.9124   8.6134040347e+01   6.6174430394e+01    0.2074239    0.1481053   1.61 0.0005652584    1.314    0.239
        80 -11.7001     22.0582     34.1900   8.9144121263e+01   6.7248470525e+01    0.4363052    0.2282825  28.85  0.002418574    2.043    0.511
        81  -8.6902     69.0641     52.7236   7.6024888771e+01   5.7849590487e+01    0.1882537    0.1598728  16.29 0.0004839186    1.109    0.099
        82 -11.5362    195.9020    204.4037   8.0410671107e+01   2.2758255262e+00    0.6699471    0.2233381  30.84   0.00224921    3.703    0.730
        83  -9.3718    198.1791     23.1358   3.8076685254e+01   3.2869816678e+01    0.1821425    0.1692731  60.98 0.0007752026    1.239    0.193
        84  -9.2034    189.6539     14.9748   3.7007364666e+01   3.5746089225e+01    0.1758561    0.1536932 -61.49 0.0007509364    1.134    0.118
        85 -10.7026    192.9911    194.9923   7.9241739157e+01   4.4180522772e+00     1.043242    0.5707333 -65.25  0.003000815    6.515    0.847
        86 -11.0323    111.3984    204.1059   9.8953689438e+01   1.6611996598e+01    0.3511684     0.270481  75.53 0.0009746301    1.500    0.334
