#   1 NUMBER                 Running object number                                     
#   2 MAG_AUTO               Kron-like elliptical aperture magnitude                    [mag]
#   3 X_IMAGE                Object position along x                                    [pixel]
#   4 Y_IMAGE                Object position along y                                    [pixel]
#   5 X_WORLD                Barycenter position along world x axis                     [deg]
#   6 Y_WORLD                Barycenter position along world y axis                     [deg]
#   7 A_WORLD                Profile RMS along major axis (world units)                 [deg]
#   8 B_WORLD                Profile RMS along minor axis (world units)                 [deg]
#   9 THETA_WORLD            Position angle (CCW/world-x)                               [deg]
#  10 FWHM_WORLD             FWHM assuming a gaussian core                              [deg]
#  11 ELONGATION             A_IMAGE/B_IMAGE                                           
#  12 ELLIPTICITY            1 - B_IMAGE/A_IMAGE                                       
         1 -14.8534    174.8675     53.2809   5.0752104477e+01   3.4645319790e+01      1.20965     1.040261  19.20  0.003954386    1.386    0.279
         2 -15.4834    196.4192     22.8544   3.9088752789e+01   3.3396440441e+01     1.787028     1.499661  76.47  0.007623888    1.244    0.196
         3 -11.7894     60.2436     21.0307   6.7333044712e+01   6.6956762872e+01    0.2324334    0.1944984  37.36 0.0004948743    1.193    0.161
         4 -18.4380     65.0212    209.7911   1.0935445999e+02   2.3224889775e+01     7.840205     5.885329 -54.37   0.04869637    1.639    0.390
         5 -11.6005    110.2930    223.0041   1.0091577930e+02   1.5045562185e+01    0.2014698    0.1832178 -86.57 0.0003905679    1.316    0.240
         6 -11.3046     91.6261    232.8703   1.0570355332e+02   1.5798671894e+01    0.2378863    0.1747988   3.91  0.001004437    1.851    0.460
         7 -12.2664    168.0591    238.1833   9.1436060812e+01   5.1410633251e+00    0.2549508    0.1523616 -33.07 0.0003858261    1.949    0.487
         8 -11.9134    105.4215    229.4557   1.0258149185e+02   1.4613096857e+01    0.3688654     0.273198  46.45  0.002497435    1.170    0.146
         9 -11.5387     99.1630    228.1973   1.0373629002e+02   1.5628071950e+01    0.3316495    0.1933702  50.66  0.001959639    1.587    0.370
        10 -19.0351     45.6477     89.2844   9.9051962666e+01   5.4168594182e+01     17.33496    0.9008729 -63.74   0.02424511   17.297    0.942
        11 -11.1319    135.3362    236.9839   9.7445663261e+01   9.5456732179e+00    0.1921768    0.1525714  30.22 0.0006510809    1.009    0.009
        12 -11.4176    130.2233    228.1234   9.7441148185e+01   1.1554235914e+01    0.4005168    0.1641385  23.87  0.001698396    3.066    0.674
        13 -12.2802    149.2009    228.0560   9.3707643313e+01   9.0148950145e+00    0.3922229    0.2073669  42.26  0.002217404    1.732    0.423
        14 -13.7467    160.0416    223.0073   9.0967402588e+01   8.2804987144e+00    0.5617691    0.4119925 -36.89  0.002317094    1.569    0.363
        15 -13.0185    166.0041    224.8498   9.0082016373e+01   7.2115603217e+00    0.3566717    0.1998718  19.10  0.001477864    1.819    0.450
        16 -13.3285    174.7677    222.0325   8.8055826217e+01   6.4225416153e+00    0.4056064     0.162296 -42.48  0.002034606    2.858    0.650
        17 -10.5867    137.1071    223.0984   9.5469633862e+01   1.1402843921e+01    0.1739356    0.1419088  12.38  0.001185522    1.213    0.176
        18 -11.6133    143.8114    221.1334   9.3888174653e+01   1.0785973755e+01    0.2494895    0.1692076  26.68  0.001221079    1.264    0.209
        19 -12.6696    150.7764    219.2487   9.2265911346e+01   1.0110106873e+01    0.3529511    0.1791382 -47.29  0.001918655    2.332    0.571
        20 -10.2451    117.6059    229.5190   1.0012251114e+02   1.3011569640e+01    0.1741042    0.1390215  28.11  0.000135758    1.106    0.096
        21 -12.3491    188.2365    214.9504   8.4557419150e+01   5.5681601104e+00    0.2168343     0.144943 -11.26  0.001113307    1.575    0.365
        22 -12.6970    153.5016    211.9343   9.0730684206e+01   1.0848976049e+01     0.350468    0.2504699 -64.92    0.0019995    2.102    0.524
        23 -11.1180    155.4716    208.5287   8.9855805620e+01   1.1097571837e+01    0.1922092    0.1764339 -27.58  0.001346965    1.249    0.199
        24 -12.6935    187.7648    206.8242   8.3404493742e+01   6.7485959612e+00    0.3436989    0.2001386 -42.62  0.001379956    1.988    0.497
        25 -11.4153    165.1112    208.4490   8.7942384091e+01   9.7235494290e+00    0.2429652    0.1644589 -33.98 0.0008784655    1.619    0.382
        26 -11.5238    182.4928    203.9963   8.3940667599e+01   7.8945181193e+00    0.2796575    0.1145574 -40.61  0.001338679    2.636    0.621
        27 -10.8479    134.4699    232.4945   9.7105780607e+01   1.0323265269e+01    0.2932414    0.1965772 -21.01   0.00178735    2.035    0.509
        28 -11.3731    205.8537    199.8141   7.9039012318e+01   5.1961271914e+00    0.1509954     0.132816  26.80 0.0009023764    1.346    0.257
        29 -12.1536    170.5898    197.6141   8.5213833915e+01   1.0584434339e+01    0.2824774    0.2547901 -58.96  0.001260812    1.498    0.333
        30 -13.5935    155.7917    176.2585   8.4680321249e+01   1.6449187221e+01    0.7297719    0.3593634 -48.40  0.003357837    2.246    0.555
        31 -11.1280      4.5188    178.0774   1.2133483735e+02   3.5978336069e+01    0.1740723    0.1199599  63.88 0.0008363228    1.147    0.128
        32 -14.2992    232.9918    167.3136   6.8764939472e+01   5.7347508733e+00        1.016     0.801401 -14.58  0.006904986    1.068    0.063
        33 -14.2892    245.9568    164.2147   6.6215937366e+01   4.3165960660e+00     1.059108     0.427099 -31.38   0.00531264    2.127    0.530
        34 -11.3248     10.5331    174.6521   1.1973622058e+02   3.6257854412e+01    0.1142409   0.09851529  67.51 0.0007872324    1.114    0.102
        35 -10.8603    187.8637    169.9517   7.7072712359e+01   1.2270482704e+01    0.2852496    0.1667794 -44.06  0.001392415    1.858    0.462
        36  99.0000    119.7883    233.3002   1.0008886645e+02   1.2129960949e+01    0.6375625    0.1705598 -43.26  0.002170614    6.756    0.852
        37  99.0000     26.4706    159.5510   1.1472781579e+02   3.8343967889e+01    0.2518648    0.1940513 -57.07 0.0006190966    1.471    0.320
        38  -7.5741     23.5466    156.1165   1.1526375912e+02   3.9429568068e+01     0.427433    0.1868175  34.16 0.0006328856    2.093    0.522
        39 -10.6314     29.4929    152.1827   1.1330576586e+02   3.9822810724e+01       0.1783    0.1150794 -84.88 0.0004120411    1.413    0.292
        40 -11.0984    154.9866    150.1305   7.9929094401e+01   2.1422009361e+01    0.2216161    0.1962471 -34.92 0.0003085293    1.140    0.123
        41  -9.7025     20.4125    141.4499   1.1501698049e+02   4.3269994242e+01    0.1315498    0.1075109  77.18 0.0001719938    1.037    0.035
        42 -11.4104    160.5000    127.9994   7.3901236584e+01   2.4640151960e+01    0.3070664    0.2484858 -69.09  0.001566228    1.555    0.357
        43  -9.7139      2.4672    126.6376   1.1937588229e+02   4.8263640753e+01    0.1235608    0.1049332  82.80 0.0004547446    1.045    0.043
        44 -10.4105     25.7592    118.7309   1.1113697961e+02   4.8557577023e+01    0.1845529    0.1645629 -16.50 0.0005121247    1.390    0.281
        45  -9.8902    183.4843    116.4612   6.6479069783e+01   2.2167022201e+01    0.1433169     0.131253 -15.06 0.0001842048    1.037    0.035
        46 -11.0155    167.3710    112.3351   6.8661458759e+01   2.6223719890e+01     0.298235    0.2382015 -74.16 0.0008987922    1.629    0.386
        47 -10.2270      3.7583    112.1650   1.1796426514e+02   5.1836361039e+01    0.1661078    0.1334688 -51.85 0.0004065928    1.350    0.259
        48 -11.1673    205.5011    110.2838   6.1114335931e+01   1.8846825375e+01    0.2487123    0.2293308 -16.26  0.000597425    1.048    0.046
        49 -10.5842     29.0609    111.5138   1.0910971388e+02   5.0129959408e+01    0.1925798     0.134109  28.83  0.001024589    1.570    0.363
        50 -11.0303     11.1188    110.7314   1.1530841881e+02   5.1747011298e+01    0.2895168    0.1715034   1.34  0.001450861    2.289    0.563
        51 -10.3695     25.2176    108.7886   1.1011554722e+02   5.1178442480e+01    0.2492962    0.1478429 -41.36 0.0002826311    1.962    0.490
        52 -10.7311     24.4680    104.9811   1.0988852966e+02   5.2232434860e+01    0.2264369    0.1787398  49.33 0.0007342825    1.309    0.236
        53 -13.1200    112.9234    228.1746   1.0092602438e+02   1.3844169075e+01    0.4378398    0.3019364 -34.79  0.002743586    1.923    0.480
        54 -11.7184      4.2627     95.2244   1.1632996364e+02   5.6147869489e+01    0.2456299     0.208484 -17.20 0.0007993112    1.440    0.305
        55 -10.8667    128.8573     95.2124   7.3046836924e+01   3.7942553399e+01    0.2292998     0.207504 -85.82 0.0004705039    1.206    0.171
        56 -10.7285     19.8046     91.1704   1.0974382807e+02   5.6201593158e+01     0.198956    0.1639369  75.33 0.0004428664    1.198    0.165
        57 -11.4586    149.9241     85.6507   6.5210540704e+01   3.5122578592e+01    0.3450793    0.2303044 -32.20  0.001087239    1.528    0.346
        58 -11.1993    182.9710     82.9969   5.7963492305e+01   2.8048761351e+01     0.229353    0.2141024 -16.15  0.001297325    1.093    0.085
        59 -13.6032      4.6874     76.9677   1.1412755919e+02   6.0817359107e+01    0.5793626    0.3910387 -49.11  0.003294535    1.421    0.296
        60 -14.5156    161.7273     66.2190   5.6957758124e+01   3.5798722445e+01     1.200163    0.9737045  35.63  0.001018006    1.394    0.283
        61 -14.2168    186.9623    244.1599   8.8830189458e+01   2.0387917314e+00    0.7130594    0.3750337  16.51  0.002837395    1.892    0.471
        62 -13.3043    180.7402     45.8138   4.7637289401e+01   3.4288455990e+01    0.4635687    0.3992399 -30.03 0.0008949387    1.151    0.131
        63 -12.2904    211.4409    241.2256   8.4299292848e+01  -5.4487137518e-01    0.2282784   0.09663322 -37.79  0.001321896    2.706    0.631
        64 -12.3875     84.9202    240.0624   1.0765011358e+02   1.5434365955e+01    0.2793696    0.1915831 -57.91  0.001910032    1.833    0.454
        65 -13.6857     14.3747     59.2537   1.0652972931e+02   6.4755346026e+01    0.5213536    0.3590222 -17.73  0.001770168    1.687    0.407
        66 -10.0500     83.6317     51.2629   7.2134412823e+01   5.6841667416e+01     0.147091    0.1180725  86.12 0.0004445906    1.651    0.394
        67 -11.5557     10.6513     49.9048   1.0640847382e+02   6.7300934652e+01    0.2179322    0.1879317  22.12 0.0005715985    1.342    0.255
        68 -11.4877    101.4932    242.7995   1.0461972042e+02   1.2977849851e+01    0.2456316    0.1583559  17.86  0.001529828    1.736    0.424
        69 -11.1296     61.0463     31.4832   7.2416141623e+01   6.5038651212e+01    0.2043263    0.1365352  41.83 0.0005171029    1.537    0.349
