#   1 NUMBER                 Running object number                                     
#   2 MAG_AUTO               Kron-like elliptical aperture magnitude                    [mag]
#   3 X_IMAGE                Object position along x                                    [pixel]
#   4 Y_IMAGE                Object position along y                                    [pixel]
#   5 X_WORLD                Barycenter position along world x axis                     [deg]
#   6 Y_WORLD                Barycenter position along world y axis                     [deg]
#   7 A_WORLD                Profile RMS along major axis (world units)                 [deg]
#   8 B_WORLD                Profile RMS along minor axis (world units)                 [deg]
#   9 THETA_WORLD            Position angle (CCW/world-x)                               [deg]
#  10 FWHM_WORLD             FWHM assuming a gaussian core                              [deg]
#  11 ELONGATION             A_IMAGE/B_IMAGE                                           
#  12 ELLIPTICITY            1 - B_IMAGE/A_IMAGE                                       
         1 -12.3373     60.4616     45.0239   9.8995152978e+01   6.0193157403e+01    0.9491697    0.4624591 -43.21  0.004501885    1.796    0.443
         2 -11.6177    120.5266     57.8515   8.4554954626e+01   4.6923699181e+01     1.963465     1.172907 -71.80  0.006264552    4.291    0.767
         3 -12.0509    124.6065     27.5749   7.2473871111e+01   5.0631764842e+01    0.9522228    0.6961488  23.30  0.001446024    1.457    0.314
         4 -12.9153    120.3185     38.7099   7.7749275623e+01   5.0078490711e+01    0.8734037    0.6050777 -61.60  0.002637668    2.046    0.511
         5 -11.5439    178.3637     21.3480   6.0216178549e+01   3.7774939563e+01    0.6565779    0.3878469  30.99  0.002041099    2.131    0.531
         6 -10.7930    138.5640     32.5339   7.1165817141e+01   4.6615626511e+01    0.6292701    0.5593235 -41.14  0.002748949    1.194    0.162
         7 -12.1643    104.7881     12.8350   7.1390676077e+01   5.6933630685e+01    0.5443124    0.4129001 -26.49  0.001786397    1.342    0.255
         8 -12.5407    113.6533     24.5208   7.3958635997e+01   5.3555850254e+01    0.8779451    0.3998088  60.13  0.001481538    2.449    0.592
         9 -12.1633    105.9716     20.1363   7.4162747156e+01   5.5817580049e+01    0.3152507    0.2386002  -9.96 0.0003811489    1.314    0.239
        10 -11.3737    154.1636     24.9958   6.5383114313e+01   4.3637478793e+01    0.9045507    0.6010777  29.30  0.004012263    1.708    0.415
        11 -11.1450    140.0468     20.6458   6.6518029295e+01   4.7719419640e+01     1.485106    0.3065457  45.42  0.003786783    5.345    0.813
        12 -10.5959    145.4631     16.4444   6.3951916991e+01   4.6823058523e+01     0.467599    0.3129868  73.85 -2.500516e-05    1.609    0.379
        13 -11.5658    199.1713     28.2429   5.9416485254e+01   3.1569420004e+01    0.5118047    0.4191557   3.20   0.00064028    1.425    0.298
        14 -10.7569     66.2343     10.3372   8.2069030411e+01   6.4824327915e+01    0.5326346    0.2327843  35.73   0.00243446    2.382    0.580
        15 -10.0428     63.1307      6.2229   8.1165614787e+01   6.5861180317e+01    0.2850051     0.226848  13.24  0.001125629    1.109    0.098
        16 -10.3703     60.6494     23.2242   9.0165275656e+01   6.3911430155e+01    0.7827946    0.3222646 -27.86  0.002935777    2.692    0.629
        17 -11.7217     68.5216     17.9066   8.4826285769e+01   6.3426153124e+01    0.7148622    0.4090245  52.23  0.003587329    2.219    0.549
        18 -10.7864      4.8171      9.5292   1.0979117680e+02   7.2281431763e+01    0.7530294    0.3487758 -54.86  0.003806183    1.957    0.489
        19 -11.1214      3.1655      1.7879   1.0726134047e+02   7.3695996981e+01    0.3654974    0.1722907   9.25  0.002118142    2.582    0.613
        20 -11.7398     27.3644     28.0042   1.0613969194e+02   6.7205289221e+01    0.5786848    0.5076441 -70.54  0.004009309    1.545    0.353
        21 -12.6117     15.5446     13.7181   1.0599383046e+02   7.0770198629e+01     1.016284    0.4193026 -36.49  0.002627579    2.011    0.503
        22 -11.9390     22.4772     11.0645   1.0133450737e+02   7.0597761599e+01    0.5084817    0.3646136 -14.39  0.002133726    1.244    0.196
        23 -12.3643    237.6637     15.4275   5.1730124609e+01   2.3471873908e+01    0.5595009    0.4833608  31.00  0.002325162    1.405    0.288
        24 -11.7596    244.1006     15.1283   5.1093679075e+01   2.1998879013e+01    0.3824019    0.2503471 -29.45  0.002075895    1.479    0.324
        25 -11.7948    246.1219      7.5118   4.9087214595e+01   2.2341457660e+01    0.5035947    0.3335905 -20.47  0.002020427    1.647    0.393
        26 -11.5155    242.6352      3.8833   4.8484002714e+01   2.3516458496e+01    0.3142796    0.2650214 -87.11  0.001985221    1.127    0.113
        27 -11.3129     91.0055     20.1480   7.8403811458e+01   5.8960162417e+01    0.6174685    0.4902172   3.57  0.003564723    1.204    0.169
        28  99.0000     87.8349      7.6748   7.3744342655e+01   6.1092033640e+01     0.637072    0.3480538  48.95  0.003194531    1.746    0.427
        29 -11.3159     86.0123     13.7446   7.7076316717e+01   6.0758980450e+01     0.450005    0.3080991  -5.87  0.001621155    1.472    0.321
        30 -10.2220     38.5986     21.7205   9.8585126570e+01   6.7128749123e+01    0.4042186    0.1513901 -38.06  0.001849399    2.291    0.563
        31 -11.5401     36.1584     17.5753   9.7839080652e+01   6.8095014828e+01    0.6022253    0.2460002 -33.65  0.002102386    2.244    0.554
        32 -12.0533     49.0730     12.9603   9.0046258917e+01   6.7148195139e+01    0.5888309    0.3829535  37.34  0.003360666    1.694    0.410
        33 -10.4828    121.9178     18.3987   6.9525334068e+01   5.2388133427e+01    0.5572082    0.3534287 -67.62  0.002023166    2.644    0.622
        34 -12.1956    132.0034     14.6295   6.5881021061e+01   5.0375341796e+01     1.277746    0.6007654  73.21  0.004497029    2.819    0.645
        35  -9.4955    141.4113     12.7265   6.3342794511e+01   4.8235613258e+01    0.2607553    0.1413114 -14.49  0.001131736    2.073    0.518
        36 -11.1405    165.1735     17.3691   6.0924197557e+01   4.1653260743e+01    0.4620267    0.2721228  35.44  0.001206879    1.926    0.481
        37  -9.7111    191.4478     16.7829   5.7030230853e+01   3.4866450251e+01    0.3529724    0.2315848   0.38  0.001641422    1.973    0.493
        38  -9.7663    186.2425      9.0680   5.5354153255e+01   3.7011817296e+01    0.6325612    0.2195417 -53.20   0.00192259    4.351    0.770
        39 -11.4939    192.3248      7.8809   5.4276991902e+01   3.5551546250e+01    0.5984314    0.3680854   9.72  0.002055316    2.280    0.561
        40  -9.7503    225.7185     16.2061   5.3047435103e+01   2.6258239475e+01    0.2761332    0.2096773 -28.44  0.001463939    1.332    0.249
        41 -10.7759     42.4989     14.3387   9.3520426468e+01   6.7830726781e+01    0.2997755    0.1969145  34.67  0.001154128    1.706    0.414
        42 -11.6147    211.8082      9.7994   5.2718572984e+01   3.0384677467e+01    0.4780987    0.3344901   4.91  0.001174625    1.880    0.468
        43  -9.8673     31.7420     12.0109   9.7296473569e+01   6.9484253088e+01    0.1815061     0.158699  12.54 0.0004438219    1.324    0.245
        44 -10.5397    169.0921      9.9952   5.7906458274e+01   4.1389981122e+01    0.3648207    0.2192215  42.41  0.001696121    1.721    0.419
        45  -9.1200    162.7882     10.2104   5.8897364426e+01   4.3008873161e+01    0.1974682    0.1543773  35.95 0.0007068672    1.315    0.240
        46  -9.5141    157.1947      8.9632   5.9327497005e+01   4.4578609153e+01    0.3256532    0.1271378 -37.39 0.0008754047    2.617    0.618
        47  -9.5237    151.7739      7.7683   5.9769252845e+01   4.6087889987e+01    0.4578252   0.08889337  54.01  0.001008729    3.669    0.727
        48 -10.5867     77.4499      5.2890   7.5787823418e+01   6.3393917417e+01    0.5384561    0.2659844 -24.59  0.002637792    1.930    0.482
        49  -9.4201     82.0758      1.3610   7.2455152266e+01   6.2904000505e+01    0.1803755    0.1147451  50.75 0.0004235651    1.559    0.359
        50  -9.9599      1.3015      7.2543   1.1074076211e+02   7.2896585879e+01    0.1755592   0.07378526 -49.86 0.0002606992    1.780    0.438
        51 -10.6618     41.8795      4.0725   8.8655226029e+01   6.9381988017e+01    0.4578045    0.2391362  -9.01  0.002040442    2.535    0.606
        52 -11.0473    218.6711      2.9975   5.0237691368e+01   2.9349180221e+01    0.3392526     0.303787 -74.35 0.0009438769    1.012    0.012
        53 -11.7556    223.8188      1.8321   4.9485846352e+01   2.8198172963e+01    0.8508145    0.3736335 -81.06  0.003295605    3.003    0.667
        54  -9.4309    199.1190      5.8358   5.2928507709e+01   3.4001308647e+01    0.2047078    0.1712293 -78.30 0.0002917832    1.158    0.136
        55 -10.6127    176.4920      5.4638   5.5456656323e+01   3.9894152213e+01    0.4698181     0.261474  82.32 0.0008844164    1.926    0.481
        56  -9.9882    162.9825      5.7588   5.7377245042e+01   4.3381415843e+01    0.2872868    0.2097288   3.78 0.0006598708    1.589    0.371
        57  -9.8300    157.8360      2.8284   5.7128682340e+01   4.4976945938e+01    0.3941912    0.2034111  38.99  0.001703334    2.084    0.520
        58  -8.5792    162.6602      1.2781   5.5925424309e+01   4.3864190450e+01    0.1420248     0.100386 -67.49   0.00018204    1.620    0.383
        59 -11.1855    205.4363      2.8632   5.1441943727e+01   3.2675236670e+01    0.4718255    0.3502724  81.31  0.001195862    1.275    0.216
        60  -9.9466     71.2029      4.2163   7.7312604199e+01   6.4676216604e+01     0.428703    0.2458696  27.83  0.002238937    1.756    0.431
        61 -10.4250    142.1338      3.4685   5.9809728201e+01   4.8934328395e+01    0.3653749    0.2587988  75.98  0.001887465    1.464    0.317
        62 -12.0201    133.6743      2.6414   6.0973485657e+01   5.1123346346e+01    0.4072136    0.2550269  53.12 0.0007571179    1.421    0.296
        63 -10.1618    123.2582      1.3469   6.2428920802e+01   5.3781424505e+01    0.3898622    0.1285731  67.11  0.001352918    3.255    0.693
        64 -10.9338    105.3357      1.7554   6.6462862800e+01   5.7926939741e+01     0.513943    0.2704844  72.80  0.001024963    2.565    0.610
        65 -11.0291    111.7396      1.8636   6.5046560868e+01   5.6456304209e+01    0.5263145    0.1938925  63.22  0.001934523    2.742    0.635
        66  -9.5865     54.9880      3.9826   8.3121047798e+01   6.7464548956e+01    0.1673243    0.1483816 -50.21 0.0004569938    1.662    0.398
        67  -9.6915     13.2541      2.1249   1.0180616038e+02   7.2861527108e+01    0.2687832    0.1547651   1.63  0.001549696    1.963    0.491
        68 -11.6082     19.7407     22.9821   1.0771690664e+02   6.8792198867e+01    0.5650594    0.2395449 -49.37  0.002981797    1.876    0.467
        69 -10.8394     14.9965     22.5105   1.0978740409e+02   6.9254486879e+01    0.2371536    0.1774393 -13.22 0.0006812612    1.331    0.249
        70 -10.9928     92.6609    130.4599   1.1153880679e+02   3.7008954989e+01    0.6445729    0.3014898 -58.51  0.002763319    2.077    0.518
        71  -9.8810     62.2215    132.2256   1.1959332291e+02   4.0977572991e+01    0.3751377    0.1588555 -55.71  0.001692294    2.146    0.534
        72 -10.7446     10.5635    127.4148   1.3189824697e+02   4.7188233401e+01    0.4184855     0.149405 -58.87  0.001552467    2.381    0.580
        73  -9.3078     78.5443    128.9860   1.1487476268e+02   3.9493750301e+01    0.2048196    0.1220019 -61.44  0.000664622    1.555    0.357
        74 -10.1640     18.5582    124.7608   1.2965296470e+02   4.7156272580e+01    0.3684162    0.1327954 -63.82  0.001625025    2.149    0.535
        75 -10.9988     55.3777    123.3073   1.1995111970e+02   4.3837672914e+01    0.5170563     0.363744  27.10  0.002067055    1.759    0.431
        76 -10.3293     82.0226    135.0101   1.1505393339e+02   3.7632114503e+01    0.3112548    0.2457209   9.61  0.001021488    1.821    0.451
        77  -9.5401      1.9839    125.4696   1.3379093641e+02   4.8210783029e+01    0.2465353    0.1246303 -87.05   0.00144242    1.634    0.388
        78  -9.8376     80.5329    125.1312   1.1365290983e+02   4.0072377262e+01    0.3746637    0.1968015  43.38  0.001755903    1.971    0.493
        79  -9.4883     84.4977    123.4502   1.1229418395e+02   3.9856683271e+01    0.2357489    0.1784339  25.78 0.0009106479    1.622    0.384
        80  -9.7739    108.2118    146.0581   1.1063771490e+02   3.1010671664e+01    0.2335039    0.1887563  50.06 0.0007447672    1.207    0.172
        81 -11.6156    104.5972    121.5332   1.0666534699e+02   3.6987526648e+01    0.4763134    0.4007359 -62.07  0.001402859    1.146    0.128
        82 -10.5122     45.8316    120.3954   1.2202361379e+02   4.5581516433e+01    0.3593036    0.2267873 -88.32  0.001220237    1.645    0.392
        83  -8.8411     40.6586    122.2526   1.2366416513e+02   4.5704301166e+01    0.1226761   0.08269149  69.55  0.000402977    1.576    0.365
        84  -9.7566      4.3224    121.3258   1.3284424863e+02   4.8956997636e+01    0.2449606    0.1448649  72.03  0.001232145    1.643    0.391
        85  -9.5142    221.1836    120.4181   8.0842898066e+01   1.2548157103e+01    0.1939452     0.141217  63.10 0.0007715403    1.673    0.402
        86  -9.3527    148.1983    119.8123   9.5531438758e+01   2.8790392867e+01    0.2052344    0.1787537   0.03 0.0003922496    1.328    0.247
        87  -9.4770     72.8668    119.8299   1.1468835645e+02   4.2373339706e+01    0.1936357    0.1720594 -41.19 0.0004908324    1.259    0.206
        88 -10.7120     34.1540    119.4631   1.2498386145e+02   4.6976875101e+01    0.2551484    0.2216895 -42.92  0.001051461    1.369    0.269
        89  -9.5916    113.7929    115.9625   1.0304624204e+02   3.6541330201e+01    0.2153266    0.1928437 -27.16 0.0004039766    1.237    0.192
        90 -10.4634     67.1035    111.9603   1.1476095492e+02   4.4949069040e+01    0.5008274    0.2570955 -65.85  0.002312681    1.890    0.471
        91 -10.8378     35.6794     93.2400   1.2037268172e+02   5.2773855168e+01     1.565184     0.881079  69.22  0.007463596    2.629    0.620
        92 -11.5611     18.8590    106.0535   1.2730218877e+02   5.1306893194e+01    0.2808709    0.1728884 -62.30 0.0002768164    1.328    0.247
        93 -12.0932      9.3885     96.1046   1.2866208137e+02   5.4192495608e+01    0.9591336    0.5402831  76.33   0.00540862    2.035    0.509
        94 -12.1871      7.7516     89.1544   1.2819804709e+02   5.5835302005e+01    0.4308619    0.3914041 -79.85 0.0007452226    1.185    0.156
        95 -11.3148     43.7176     85.6181   1.1635298052e+02   5.3695887856e+01    0.4118015    0.3470636  -7.26  0.001798609    1.461    0.316
        96 -11.2110     37.5717     85.9431   1.1837695468e+02   5.4236725850e+01    0.3419044    0.3144555  50.90  0.001465474    1.278    0.217
        97 -13.1362     24.5603    109.2490   1.2616003195e+02   5.0134978516e+01     1.465828    0.7723484 -48.48  0.006838964    1.929    0.482
        98 -11.8979     28.4625    113.0267   1.2561662437e+02   4.8950222359e+01    0.7174399    0.3398915  23.12  0.003648863    2.793    0.642
        99 -12.0846     20.5332     95.4560   1.2530430033e+02   5.3556985076e+01    0.5476093    0.4061508  -9.75  0.003475212    1.871    0.466
       100 -12.6810     18.0606     90.4598   1.2527103782e+02   5.4858786668e+01    0.5103294    0.3008462 -48.82 0.0005738924    1.578    0.366
       101  -9.8410      6.9932    114.3137   1.3146953362e+02   5.0316839759e+01    0.2110852    0.1549269  88.30  0.001364205    1.158    0.136
       102 -11.3628      2.4698    112.1309   1.3241533123e+02   5.1087973000e+01     0.305262    0.2014898 -77.67 0.0008640006    1.148    0.129
       103 -12.0770      3.9594    105.2728   1.3129467597e+02   5.2503828742e+01    0.4064118    0.3009129 -82.26  0.001471983    1.068    0.063
       104  -9.3608     87.3114    114.3044   1.0968349419e+02   4.1481371670e+01    0.2871292    0.1503343  58.13  0.001168151    2.581    0.613
       105 -11.0982     79.5582    108.6143   1.1059972246e+02   4.3953457741e+01    0.6304237    0.4166278  46.31  0.002930586    1.625    0.385
       106 -10.0986     91.4476    103.9877   1.0622929488e+02   4.3124973465e+01      0.43302    0.3669127  39.47  0.002410873    1.273    0.214
       107 -10.5005     86.1153    104.4852   1.0784061356e+02   4.3875751091e+01     0.429784    0.2932307 -32.63  0.001934239    1.772    0.436
       108  -8.9578    126.9780    113.7513   9.9172327910e+01   3.4456771863e+01    0.1940513    0.1260056  44.43 0.0008786548    1.560    0.359
       109 -10.3141    107.9298    112.2054   1.0369491117e+02   3.8443777501e+01    0.3995166    0.2894149  85.00  0.001583311    1.877    0.467
       110 -10.7598    102.8515    107.8838   1.0402505002e+02   4.0306635592e+01    0.5774675    0.4164678 -36.12  0.000892882    1.517    0.341
       111 -10.7072    170.3320    110.3592   8.8195377430e+01   2.5727004445e+01    0.4427837    0.4186642   1.83  0.001614645    1.074    0.069
       112 -10.2158    175.3700    107.8749   8.6479620957e+01   2.5033056656e+01    0.3964045    0.2654644 -33.61  0.001790398    1.516    0.340
       113  -9.8514     94.0120    111.4017   1.0723161720e+02   4.1047482254e+01    0.3134302    0.2452555  84.21  0.001639523    1.506    0.336
       114  -9.7309     48.9842    112.0898   1.1982886274e+02   4.7127732221e+01    0.2201738    0.1817774  43.15  0.000967278    1.367    0.268
       115  -9.8713    120.1375    109.2865   9.9810219608e+01   3.6765218630e+01    0.2574039    0.1968419 -36.86 0.0006295423    1.368    0.269
       116  -9.2101    150.3858    109.1548   9.2352147931e+01   3.0452558948e+01    0.2252088    0.1395915 -52.38 0.0009510026    1.761    0.432
       117  -9.5162    130.4829    108.0068   9.6863854423e+01   3.4950833464e+01    0.2404153    0.1454087 -46.03  0.001045986    1.632    0.387
       118 -10.3143    157.7391    105.9766   8.9833148468e+01   2.9432896015e+01     0.342682    0.2711486  -4.51  0.001159969    1.565    0.361
       119 -10.4254    143.5455    106.1359   9.3182561528e+01   3.2559322217e+01    0.3738948    0.3219941 -23.23  0.001061235    1.246    0.197
       120 -11.1006    145.8074    100.1058   9.1036757687e+01   3.3269015728e+01     0.484772    0.3777849 -30.44  0.001752188    1.342    0.255
       121 -11.6863     48.2473    103.1618   1.1845765455e+02   4.9244519422e+01    0.4854507    0.2775041 -31.79 0.0003615979    2.559    0.609
       122 -10.0012     52.5256     96.4982   1.1589873450e+02   5.0278163570e+01    0.2873005    0.1903205 -54.82 0.0009062588    1.305    0.234
       123  -9.2959     82.0825    102.7116   1.0857539215e+02   4.4901575583e+01    0.1831549    0.1758656 -65.00 0.0004850752    1.058    0.055
       124 -10.0052     57.4942    101.9945   1.1553635048e+02   4.8441972475e+01    0.2330556     0.181875 -81.12 0.0007022914    1.281    0.219
       125 -10.0441     57.6062     97.7287   1.1463096061e+02   4.9397107127e+01    0.3374255    0.2239182 -73.38  0.001800424    1.527    0.345
       126  -9.4145    120.5087    101.5039   9.7732736771e+01   3.8346785604e+01    0.1470794    0.1430757 -45.85 0.0008105743    1.015    0.015
       127 -11.7716     67.9171     96.7735   1.1135076032e+02   4.8285915102e+01     0.553586    0.3440164 -50.86 0.0007279735    1.444    0.307
       128  -9.3807     96.0093    100.0068   1.0398802747e+02   4.3237123072e+01    0.2043555    0.1674923 -12.81            0    1.528    0.345
       129 -11.1663     89.3644     90.1490   1.0337329330e+02   4.6520022383e+01    0.4504141    0.2933101 -41.65   0.00104374    1.494    0.331
       130  -9.5432     92.9277     85.5112   1.0107377081e+02   4.6917070490e+01    0.2587951    0.1805874  40.60 0.0005990258    1.539    0.350
       131  -9.6914     66.6787     74.1009   1.0606028242e+02   5.3455876268e+01    0.4117494    0.2563846 -74.85  0.001854108    2.396    0.583
       132 -10.4490     78.0107     96.9893   1.0841901730e+02   4.6799779494e+01    0.3058142    0.2014766 -63.74 -0.007547014    1.509    0.337
       133 -11.0107     80.9994     92.7372   1.0650465916e+02   4.7292471462e+01    0.6565557    0.6134174  80.27  0.003970465    1.151    0.132
       134 -10.8550     66.7318     81.8065   1.0810745275e+02   5.1778411620e+01     0.388352    0.3375354  18.00  0.002353963    1.326    0.246
       135 -11.0002     79.7831     82.9634   1.0433335861e+02   4.9621265724e+01    0.5953038     0.491697  82.32  0.002738903    1.505    0.336
       136 -11.2337     73.5829     77.3207   1.0472606506e+02   5.1776919009e+01    0.6380414    0.4638855 -20.30  0.003329532    1.683    0.406
       137  -9.6393    210.2930     97.9929   7.7156145513e+01   1.8610939131e+01    0.2185167    0.1971447 -24.66  0.001178538    1.065    0.061
       138  -9.5072    140.8977     96.0852   9.1119096810e+01   3.5159020765e+01    0.2476137    0.1910359   3.89  0.001132838    1.708    0.414
       139  -9.5307    160.5765     93.6720   8.5854380959e+01   3.1133812380e+01    0.2614317    0.1945333  75.52  0.001167574    1.726    0.421
       140  -9.8303    137.8879     93.4887   9.1134452547e+01   3.6340872816e+01    0.3932817    0.2615945  18.16  0.001195318    2.251    0.556
       141 -10.0812    117.3495     92.9952   9.6282831484e+01   4.0767225184e+01    0.4792629     0.241127  38.15  0.001488203    2.208    0.547
       142 -10.2978    122.2487     89.0348   9.3870014242e+01   4.0587062748e+01    0.4583609    0.3033247  32.67  0.001873738    1.730    0.422
       143 -10.3771    126.3494     93.1155   9.3947501944e+01   3.8897233539e+01    0.3810208    0.3262037  36.52  0.001101894    1.215    0.177
       144 -10.3125    122.4902     93.5191   9.5065239430e+01   3.9615386360e+01    0.3077582    0.2054434 -36.62 0.0008294737    1.530    0.347
       145 -11.3732    102.3721     90.2058   9.9638856987e+01   4.4231986104e+01    0.5145116    0.4481992 -20.32 0.0008781423    1.249    0.200
       146 -10.4212    152.7644     92.1640   8.7204836491e+01   3.3238917773e+01    0.3946216    0.2977475  37.54  0.001868379    1.384    0.277
       147 -10.5953     50.5640     90.1433   1.1516847486e+02   5.1937550141e+01    0.5465778    0.3060054 -43.38  0.002767169    1.781    0.438
       148 -11.8024     52.8022     75.7387   1.1108458046e+02   5.4878637194e+01    0.8339744    0.2808599 -56.77  0.003295504    2.587    0.613
       149 -10.1488    183.7599     86.2580   7.8913094468e+01   2.6912505880e+01     0.575597    0.1881517 -39.88  0.001831799    2.948    0.661
       150 -10.0810    104.5810     76.7269   9.5124084663e+01   4.6625871219e+01    0.4790314    0.2937039 -34.74  0.002096283    1.673    0.402
       151 -10.7622    113.3791     83.2209   9.4582459219e+01   4.3581259301e+01    0.6806195    0.3182894 -36.92  0.002209487    2.271    0.560
       152 -11.3308    109.3174     80.4578   9.4896927741e+01   4.4949116287e+01    0.3612571    0.3545003 -47.82 0.0009875644    1.049    0.046
       153  -9.4622     67.1847     88.1127   1.0954601254e+02   5.0324573005e+01    0.2131239    0.1637091 -37.20 0.0007796938    1.328    0.247
       154  -9.2889    212.2005     87.5622   7.4093717380e+01   1.9846767091e+01    0.2080338    0.1348245  41.95 0.0006146846    1.636    0.389
       155 -10.5403    120.3137     85.2551   9.3295571130e+01   4.1756813053e+01    0.4461161    0.2407538  42.93  0.001577313    1.926    0.481
       156 -10.3620    165.5332     83.2565   8.1799069059e+01   3.1868474489e+01    0.4493373    0.3514736 -56.70  0.001755703    1.426    0.299
       157 -11.3107    143.3492     84.0989   8.7100479183e+01   3.6948682542e+01    0.3687431    0.3293802 -16.30   0.00191377    1.165    0.142
       158 -10.3696    127.4332     83.2570   9.0833327243e+01   4.0653545083e+01    0.3232782    0.2959481 -61.36  0.001493537    1.153    0.133
       159  -9.5584     60.1976     83.1951   1.1053588560e+02   5.2334387624e+01    0.2067011    0.1687375 -40.08  0.001230752    1.185    0.156
       160 -10.6207     58.8061     78.3418   1.0976814473e+02   5.3578140444e+01     0.273293    0.2634081  43.37 0.0009229296    1.192    0.161
       161 -10.0324     20.4862     71.7056   1.2113854905e+02   5.8836437183e+01    0.2483761    0.1681113  -7.18  0.001116584    1.975    0.494
       162 -11.8127     14.1120     74.5713   1.2384726233e+02   5.8651098502e+01    0.4993905    0.2956157 -64.41  0.001682613    1.304    0.233
       163  -9.9420      9.3412     76.2385   1.2571870049e+02   5.8585542575e+01    0.1573541      0.13394 -56.30  0.000331708    1.145    0.127
       164 -11.7517      1.9951     71.4411   1.2736580002e+02   6.0040546017e+01    0.6040907    0.1462061 -68.29   0.00252204    2.945    0.660
       165 -12.1351      6.1314     62.3333   1.2433133844e+02   6.1786278776e+01    0.7418796    0.3012881 -48.17  0.003946572    1.986    0.497
       166 -11.1282     14.2238     66.4142   1.2225120832e+02   6.0421643128e+01    0.2916164     0.206761 -64.63  0.001035336    1.128    0.114
       167 -11.4693     12.7698     62.1514   1.2189788755e+02   6.1433496262e+01    0.2315642    0.1835736 -33.91 0.0003655126    1.308    0.236
       168 -10.6219     93.6086     76.4100   9.8256972569e+01   4.8714116708e+01    0.5031933    0.3781036  23.07  0.001499757    1.558    0.358
       169 -11.6997     85.9641     73.6045   9.9753946599e+01   5.0611205692e+01    0.6644925    0.6305382  56.09   0.00399068    1.181    0.154
       170 -11.3823     78.6504     67.2015   1.0012316322e+02   5.3122485880e+01     1.001717    0.6074423 -57.46  0.004749345    1.802    0.445
       171 -11.0631     91.5248     62.3968   9.4488527306e+01   5.1899826175e+01    0.5012608    0.3593511  40.00  0.002501875    1.487    0.327
       172 -11.6141     89.4613     57.4534   9.3468430088e+01   5.3217737378e+01    0.8518175     0.532611  40.90  0.004163797    1.704    0.413
       173 -11.7557     74.5061     53.0049   9.6840059957e+01   5.6588720861e+01    0.6033646    0.3715929 -35.43   0.00190109    1.512    0.339
       174 -10.4301     72.6633     47.0239   9.5344733776e+01   5.8001553383e+01    0.8524728    0.5259528 -63.54  0.003755309    2.667    0.625
       175  -8.9929     37.8589     78.6190   1.1673861582e+02   5.5841407557e+01    0.1594151    0.1137533  43.44 0.0009493972    1.670    0.401
       176  -9.3291      5.0868     78.3586   1.2744058182e+02   5.8367646879e+01    0.1467979    0.1265812 -72.86  0.000464914    1.130    0.115
       177  -9.2730    170.1035     77.5311   7.9158985797e+01   3.1764131611e+01     0.234764    0.1526508  55.45  0.001020633    1.564    0.361
       178  -9.2285    134.4892     77.4795   8.7291247603e+01   4.0220639809e+01    0.2537228    0.1496299  61.26 0.0008936817    2.087    0.521
       179  -9.7127    126.9427     76.9266   8.9051055194e+01   4.1996969092e+01    0.2251883     0.218459 -19.76  0.000341563    1.002    0.002
       180 -11.8904    186.4498     70.5543   7.3912551498e+01   2.8867979847e+01    0.8453397    0.6584369 -28.58  0.003306068    1.283    0.221
       181  -9.0279    230.3556     73.6659   6.7609665537e+01   1.7706910567e+01    0.1542932    0.1053714 -62.42 0.0007043445    1.795    0.443
       182  -9.3690    151.4755     73.5087   8.2000215725e+01   3.7000800786e+01    0.2782588      0.13481  42.00 0.0008914524    2.225    0.551
       183 -11.9098    122.7705     68.8957   8.7623241027e+01   4.4430639004e+01    0.5971657    0.5030518  50.94  0.001964196    1.241    0.194
       184  -9.2856     60.9859     72.9746   1.0762947989e+02   5.4462953087e+01    0.1893242    0.1552818  84.30 0.0004410411    1.559    0.358
       185 -10.0325    161.5483     70.3806   7.8812863982e+01   3.5100218233e+01    0.3174114    0.2642226  89.18  0.001082008    1.442    0.306
       186 -10.3773    171.9716     67.6859   7.5838063636e+01   3.2963192244e+01    0.4591383    0.3005962 -44.19  0.001819809    1.564    0.361
       187 -11.3060    219.7080     66.4591   6.7258576851e+01   2.1279867847e+01    0.6077042     0.359867  65.08  0.002304489    1.844    0.458
       188  -9.6802    208.5365     68.0038   6.9395896002e+01   2.3771447507e+01    0.2766674    0.1993628  41.02 0.0007255766    1.492    0.330
       189  -9.5048    192.3722     65.6428   7.1423654637e+01   2.8157381689e+01    0.2335392    0.1724532 -64.47 0.0009525975    1.617    0.382
       190 -10.2619     81.8583     49.3036   9.3052659742e+01   5.6066134612e+01    0.7825562    0.3624299 -28.12  0.002997743    2.769    0.639
       191 -10.9662     58.2875     61.7405   1.0532029985e+02   5.7182624380e+01    0.4954835    0.3345092 -58.39  0.002696803    1.479    0.324
       192 -10.4265    143.0889    249.3291   1.1811027050e+02   7.0611396649e+00    0.1848173    0.1168865  35.12  0.001205493    1.444    0.308
       193 -11.2631     60.8598     36.2608   9.5538635211e+01   6.1726773536e+01     0.375873    0.2046625 -39.61 0.0008859764    1.623    0.384
       194  -9.9848     51.8911     48.1813   1.0330578292e+02   6.0720808250e+01    0.2632827    0.1994372 -38.29 0.0006530163    1.118    0.106
       195 -11.0212     20.9022     47.3541   1.1520689529e+02   6.3980551741e+01     0.615629     0.301149 -30.24  0.003140109    2.341    0.573
       196 -10.6605     26.9492     47.5476   1.1283705978e+02   6.3454572674e+01    0.4436462    0.2389839 -14.68  0.001155884    2.749    0.636
       197 -11.0814     34.2645     42.9370   1.0845974382e+02   6.3708801480e+01    0.5415219    0.3346702 -38.23  0.001913046    1.377    0.274
       198 -10.2791     33.9745     57.9480   1.1305231903e+02   6.0678413514e+01    0.3580548    0.1888007 -30.01  0.001770515    2.272    0.560
       199 -12.4165     49.4435     60.3351   1.0804747581e+02   5.8560347474e+01    0.6609945    0.5306251  74.52  0.001780846    1.743    0.426
       200 -11.4364     40.2421     55.8025   1.1010297311e+02   6.0510233894e+01    0.4439731    0.3968806 -64.92   0.00205108    1.222    0.181
       201 -10.4348     26.0685     59.9573   1.1651515100e+02   6.0943343237e+01    0.3797695    0.2600965  27.99  0.001982671    1.772    0.436
       202 -11.8339     26.2202     54.1930   1.1497767696e+02   6.2145687378e+01     0.858738    0.4123419   8.65   0.00409558    3.197    0.687
       203 -11.6567     42.2110     45.2096   1.0603611289e+02   6.2436375496e+01    0.4478205    0.3074928  14.99 0.0009287394    1.710    0.415
       204  -9.8275     21.4209     65.1446   1.1942325521e+02   6.0193551804e+01    0.2544271       0.1741  69.33  0.001202116    2.021    0.505
       205  -9.1016     25.8974     65.2631   1.1784645379e+02   5.9820622154e+01    0.1772785    0.1423862 -30.42 0.0004417842    1.302    0.232
       206 -10.1823     98.0811     63.0698   9.2705647956e+01   5.0561030349e+01    0.3755157    0.2656354   3.83  0.001747784    1.940    0.484
       207 -11.4164     40.8943     70.3019   1.1376701798e+02   5.7366406064e+01    0.5573689    0.2533503 -60.54  0.002642428    1.938    0.484
       208 -10.5600    159.2252     61.7478   7.6619993429e+01   3.7120755542e+01    0.4915203    0.2879539  39.32  0.002025056    1.871    0.466
       209 -10.2541    113.5488     61.5269   8.7704935740e+01   4.7763696511e+01    0.4643056    0.2316456 -41.13  0.001740991    1.941    0.485
       210  -9.6384    175.4864    246.4933   1.1231070717e+02   2.4555737857e+00    0.1143644   0.08686349  40.77 2.115966e-05    1.046    0.044
       211  -9.8789    199.0542    244.5093   1.0809795400e+02  -9.4934996890e-01    0.1801475   0.08718847  41.15  0.001032627    1.595    0.373
       212 -11.0996    113.4262     49.6777   8.3611988502e+01   4.9869840865e+01    0.6627105    0.3777863  27.61  0.002688706    2.330    0.571
       213 -11.1708    127.5572    242.7383   1.2004972263e+02   1.0316178342e+01    0.2982685    0.1763969 -72.97  0.001804674    2.404    0.584
       214 -10.3436    105.8872     62.4048   9.0176555317e+01   4.9170211208e+01    0.3310678    0.2497279 -47.94  0.001680131    1.355    0.262
       215 -11.6306     32.6336     72.0225   1.1702921056e+02   5.7779020007e+01    0.5412119    0.2611603  33.40  0.002530822    2.422    0.587
       216  -9.3212    146.9241     60.5595   7.8942251021e+01   4.0338986016e+01    0.2318938    0.1484155  53.44  0.001017629    1.567    0.362
       217  -9.2919    236.0410     59.5436   6.3180904508e+01   1.8389332546e+01    0.2085474    0.1408709  67.37  0.001031298    1.612    0.380
       218  -8.8109    228.3104     59.6288   6.4222336982e+01   2.0195688826e+01    0.1563017    0.1007363 -58.25 0.0007034251    1.772    0.436
       219 -10.5417    133.0512     50.3368   7.8766937226e+01   4.5331561416e+01    0.7894396    0.2879845  57.91  0.002588468    3.140    0.682
       220 -10.1653    139.6683     43.6166   7.4868568599e+01   4.4784250059e+01    0.5251414    0.2448764  43.30  0.001919424    2.220    0.550
       221 -10.9058    136.5015     56.2051   7.9941855639e+01   4.3559578137e+01    0.5825329    0.3995053  -2.24  0.001652874    1.953    0.488
       222 -11.4202    145.6770     47.9717   7.5029142833e+01   4.2657833494e+01     1.046714    0.4808952 -23.81  0.003803712    2.551    0.608
       223 -11.6397    156.4371     52.4202   7.4204758938e+01   3.9300843980e+01    0.8880587    0.4281528 -44.39  0.002578582    2.237    0.553
       224  -9.4183      1.9578     56.2615   1.2467936315e+02   6.3296736959e+01    0.1479872    0.1212838 -50.90 0.0004912057    1.133    0.117
       225  -9.3363    187.4845     55.3150   6.9230714957e+01   3.0961240969e+01    0.2700321    0.1377938  60.55  0.001070994    1.976    0.494
       226  -9.9670     66.9567     54.7476   1.0004476886e+02   5.7399914274e+01    0.2532184    0.1824986 -52.80  0.000769722    1.393    0.282
       227 -11.4067     45.9659     49.0546   1.0584893424e+02   6.1256522050e+01    0.4510055    0.3318631  -5.37  0.001482933    1.571    0.364
       228 -11.0915    240.1943     50.2022   6.0274571507e+01   1.8682239423e+01    0.3470743    0.2872592 -36.11 0.0008201518    1.116    0.104
       229 -10.5167    249.0264     52.9991   5.9952872107e+01   1.6301855468e+01     0.294246    0.2450829 -87.54  0.001703518    1.312    0.238
       230 -12.6650    116.6324     42.4935   8.0118989113e+01   5.0331446710e+01    0.9696149    0.6898732  84.52  0.004341315    2.253    0.556
       231 -10.8421    174.2893     48.3035   6.9409061481e+01   3.5371450051e+01    0.4781953    0.3578498  81.35  0.001335047    1.542    0.352
       232 -10.7521    201.5634     47.0515   6.4546481894e+01   2.8543146648e+01    0.5470321    0.4000313 -52.33  0.002689519    1.418    0.295
       233  -9.7631    195.1418     46.7449   6.5434016721e+01   3.0224812541e+01    0.5017607    0.2500601  89.27  0.001510318    4.246    0.764
       234  -9.5939     90.8962     48.2258   8.9736111475e+01   5.4644556117e+01      0.23966      0.18301 -50.26  0.001164197    1.442    0.307
       235 -10.0766     13.3193     47.1056   1.1819437709e+02   6.4565298170e+01     0.426724     0.148065 -36.12  0.001827243    3.293    0.696
       236  -9.3944      2.4186     49.0685   1.2300948327e+02   6.4783040326e+01    0.2118643    0.2086496  84.94  0.001738047    1.317    0.240
       237  -9.7736      2.9775     44.4944   1.2174538756e+02   6.5700395785e+01    0.3979239    0.1930375  -8.94  0.001571638    2.915    0.657
       238 -11.3230      4.2059     35.8819   1.1904103087e+02   6.7380111038e+01    0.3625588    0.2132403 -53.83 0.0004458695    1.251    0.201
       239  -8.7361      6.5153     30.6582   1.1650742983e+02   6.8279945755e+01    0.4568194    0.2070072 -15.16  0.002259737    3.189    0.686
       240 -10.0695    233.5264     45.4510   5.9843039887e+01   2.0867415636e+01    0.3491238    0.1683148  64.61  0.001359874    2.155    0.536
       241  -9.0294    132.4703     45.4679   7.7198644642e+01   4.6233169049e+01    0.1483157    0.1403096  12.94 2.130406e-05    1.017    0.017
       242 -10.0888    101.3362     43.9335   8.4946981636e+01   5.3350648679e+01    0.3038086    0.2423216 -57.76  0.001074092    1.556    0.357
       243 -11.1137     94.1394     41.4301   8.6168031145e+01   5.5189328992e+01    0.6465169    0.2861378  45.13  0.002679848    2.324    0.570
       244  -9.5102    176.9483     43.7894   6.7521461701e+01   3.5324311943e+01    0.2571019    0.1722105 -77.71   0.00109125    2.031    0.508
       245  -9.1286    162.7097     43.8377   7.0135165272e+01   3.8983143738e+01    0.2856007    0.2111209  57.38  0.001221055    1.326    0.246
       246 -11.5801    156.2849     41.7722   7.0705844466e+01   4.0912964356e+01    0.3960111    0.3674237  21.70 0.0007648553    1.085    0.079
       247 -10.6900    153.3466     36.2584   6.9419677363e+01   4.2419032669e+01    0.3493796    0.2900269 -45.95 0.0006286201    1.276    0.216
       248 -10.6741    189.0169     42.2513   6.5052586050e+01   3.2413388828e+01    0.3121383    0.2053212 -29.86  0.000608694    1.519    0.342
       249 -10.1847     69.6124     32.5561   9.0817363196e+01   6.1013783397e+01    0.6364936    0.2654725  43.30  0.001763221    2.626    0.619
       250 -11.1801     81.3162     39.6778   8.9609878323e+01   5.7852546858e+01    0.5288255    0.4144486  46.56  0.002457889    1.450    0.310
       251 -10.8220     77.6925     34.4264   8.8745211728e+01   5.9355502757e+01    0.3893178    0.2242038  36.36  0.001209622    1.823    0.451
       252 -10.5643     81.9152     31.1307   8.5969392925e+01   5.9129944462e+01    0.5931333    0.3770925  51.20  0.003020992    1.839    0.456
       253 -10.2389     18.5506     41.2999   1.1444047109e+02   6.5382760371e+01    0.3188028    0.2469896 -46.26   0.00213998    1.009    0.009
       254 -10.4110    231.5108     39.5135   5.8531849884e+01   2.2108828088e+01     0.275414    0.2182498 -60.77 0.0006529799    1.254    0.203
       255 -10.6009    176.5760     29.7899   6.3162621382e+01   3.7250523143e+01    0.4657448    0.2760998  39.22  0.001560179    1.879    0.468
       256 -11.5445    183.2448     24.9181   6.0622243065e+01   3.6092685153e+01    0.6748083    0.2893878  52.12  0.002642059    2.221    0.550
       257 -10.9855    176.5131     36.9315   6.5436219776e+01   3.6361748192e+01    0.4394365    0.3266311 -28.75  0.001630115    1.366    0.268
       258 -10.1221    172.0683     33.0049   6.4926451002e+01   3.8023271807e+01    0.3114165    0.2547055 -52.14 0.0008961649    1.291    0.226
       259 -10.0412    131.2164    240.5990   1.1919449930e+02   1.0072946191e+01     0.235984    0.1174597  39.96  0.001346913    1.670    0.401
       260  -9.7371    180.9683     16.2717   5.8254351961e+01   3.7649441481e+01    0.2092729    0.2008058 -86.53 0.0004939085    1.029    0.028
       261 -10.7163     22.7611     36.9036   1.1129140110e+02   6.5924456853e+01    0.3105741    0.2330482  47.49   0.00142762    1.876    0.467
       262  -9.0344    218.3310     38.6878   5.9898229584e+01   2.5428880840e+01     0.152365    0.1008156 -62.07 0.0007043746    1.674    0.403
       263  -9.6441    133.6424     37.3688   7.4018223863e+01   4.7149822818e+01    0.3881396    0.2638809 -71.20   0.00166456    2.274    0.560
       264  -9.6898    206.9454     37.0266   6.0911570661e+01   2.8498265374e+01    0.2216813    0.2104749 -62.47  0.000740791    1.018    0.017
       265 -10.3333    150.5235    237.3506   1.1547472867e+02   7.5504774982e+00    0.2098401    0.1535915   2.27  0.001289536    2.181    0.541
       266  -8.9095     29.3540     40.2579   1.0960005164e+02   6.4698985237e+01    0.1219219   0.07718156 -25.94 0.0004498993    1.611    0.379
       267  -8.3570     98.8088     28.5744   7.9649818602e+01   5.6225589594e+01    0.5620778    0.4457651 -87.59  0.002907897    1.962    0.490
       268  -9.3822     15.1751    233.8624   1.3794678378e+02   2.5978254925e+01    0.1211941    0.0984761  85.24  0.001071163    1.357    0.263
       269 -11.9362    105.6430     33.0084   7.9484148994e+01   5.4154341530e+01    0.7788995    0.4429551   4.04  0.001389684    3.003    0.667
       270 -10.7959    242.4413    231.5528   9.9071080508e+01  -6.1128824135e+00    0.2632973    0.1521634  48.51  0.001557637    2.079    0.519
       271  -9.2505     23.4951    231.5091   1.3653936398e+02   2.5533668887e+01    0.1023898   0.06929588  68.78 0.0008105173    1.021    0.020
       272 -10.2834    144.5362     25.2427   6.7298402482e+01   4.6053636900e+01    0.5700606     0.333786  84.08  0.002276749    2.521    0.603
       273 -10.9797    147.4828     31.7172   6.9012298119e+01   4.4501696749e+01    0.2682403    0.2615571 -34.75 0.0003139954    1.076    0.071
       274  -8.9235    190.2321    229.9942   1.0758019880e+02   2.1713667021e+00      0.12869   0.09879407 -33.43 0.0007237239    1.597    0.374
       275  -9.3781    181.2827    228.3366   1.0890793244e+02   3.8357106184e+00    0.1155956   0.08194086  15.25  0.000426844    1.622    0.384
       276  -9.0347      9.4667    227.4741   1.3855474178e+02   2.7598970247e+01   0.09873959   0.06799363  71.45 2.871212e-05    1.029    0.029
       277 -11.4529    159.9258     30.1369   6.6094822337e+01   4.1529639505e+01    0.5377341    0.3259699 -42.61 0.0004528307    1.741    0.426
       278 -11.1658    164.0131     27.4486   6.4473425602e+01   4.0803677256e+01    0.3490709    0.2793157 -31.82 0.0003937488    1.281    0.219
       279 -10.7282    240.8764     31.3122   5.5411133186e+01   2.0899937732e+01    0.4663838    0.2875535 -17.93  0.002275174    1.818    0.450
       280 -10.3725    189.1688     28.0506   6.0731475993e+01   3.4180490953e+01    0.4394203    0.3009349   1.46  0.002035346    1.871    0.466
       281  -9.7113    234.5296    222.5189   9.8920745036e+01  -3.9741099751e+00    0.1176481   0.09024005  20.86 3.279555e-06    1.006    0.006
       282  -9.6463     10.0030    217.9634   1.3805013299e+02   2.9183352155e+01    0.1258477   0.08449017  78.08 0.0008217755    1.088    0.081
       283  -9.2640    165.6749    212.3569   1.0943330574e+02   8.6797404024e+00    0.1233666   0.09084166  70.19 0.0007045062    1.773    0.436
       284  -9.3472    152.5226    207.5267   1.1119620869e+02   1.1668645314e+01     0.125939    0.1057925  45.03 0.0002989815    1.004    0.004
       285 -11.0159     56.2940     30.8926   9.5130119333e+01   6.3305768166e+01     0.305623    0.2609411  31.52 0.0009917062    1.347    0.257
       286 -11.8347     48.1107     30.5789   9.8267304319e+01   6.4456233113e+01    0.7714646    0.3109859  31.11  0.003477816    2.869    0.651
       287 -10.2663     66.1708     21.8828   8.7490382314e+01   6.3243060257e+01    0.2401931    0.1936128  25.56  0.000418457    1.247    0.198
       288 -10.0000      4.2737    205.0773   1.3839985528e+02   3.2003656590e+01    0.1967923    0.1029486 -72.82  0.001098566    1.788    0.441
       289  -9.3974     35.9966     31.2171   1.0358532901e+02   6.5756529605e+01    0.1729381    0.1389723  64.64  0.001059379    2.059    0.514
       290  -9.5990    238.5234    204.4921   9.5226641299e+01  -2.5590662717e+00    0.2270835    0.1118067 -29.01  0.001203136    2.146    0.534
       291 -10.5943    245.4910    200.8580   9.3431868555e+01  -3.2486115641e+00    0.1806002    0.1563289  33.48 0.0008037018    1.349    0.259
       292 -10.9940      5.7654    197.8445   1.3779821422e+02   3.3200745858e+01    0.2486979    0.1099356 -79.80  0.001569768    1.872    0.466
       293  -9.9268    233.8513    197.2659   9.4729636132e+01  -9.2760418074e-01    0.1986521    0.1623784 -27.43 0.0009550874    1.395    0.283
       294  -9.6931    169.6304    191.4611   1.0541708971e+02   1.1234646515e+01    0.3476467    0.1633353  33.30  0.001110828    2.316    0.568
       295  -9.7722    182.8462     32.1235   6.2915825313e+01   3.5328384296e+01    0.2279022    0.1951258 -68.72 0.0005207006    1.233    0.189
       296  -9.0580    221.5246     29.4720   5.7015209978e+01   2.5775341007e+01    0.1391468    0.1290939 -63.55 7.452336e-05    1.010    0.010
       297  -9.8068    230.1023     26.7712   5.5361282764e+01   2.3999265170e+01    0.2411842    0.1868907 -34.42 0.0006911527    1.237    0.192
       298 -10.6873    250.4834     24.8241   5.2890037658e+01   1.9450422728e+01     0.379346     0.109726 -29.75  0.001404456    2.984    0.665
       299 -10.7829    214.6297     23.3626   5.6137678206e+01   2.8207039330e+01    0.4783933    0.3359975  -6.93  0.002276372    1.737    0.424
       300 -10.4304    241.8631     22.3996   5.3085010569e+01   2.1710200785e+01    0.2372329    0.2247861  -7.41 0.0008112881    1.209    0.173
       301 -11.0964    246.2818     20.7476   5.2275607788e+01   2.0873656471e+01    0.2565868    0.2412827 -50.04  0.001089005    1.091    0.083
       302  -9.5805     16.9072    192.0867   1.3550546561e+02   3.3270007757e+01    0.1595791    0.1194416  79.79 0.0004465808    1.053    0.051
       303 -12.1249      4.9154    184.6063   1.3725942372e+02   3.5784139244e+01    0.5953539    0.3539552  66.82  0.004268406    1.322    0.244
       304  -9.2831    239.9671    184.7705   9.1388811199e+01  -3.9085550913e-01    0.1647951   0.09269167  39.32 0.0008147244    1.626    0.385
       305  -9.3659     28.2882    176.0369   1.3223487281e+02   3.5326309851e+01     0.164117    0.1201933  87.15  0.001166367    1.081    0.075
       306  -9.0313    169.4778     23.5250   6.2273309074e+01   3.9846416790e+01    0.1446716    0.1370936  51.10 4.171954e-05    1.029    0.028
       307  -8.6997     57.2702    175.0145   1.2622101386e+02   3.2314228606e+01    0.1412941   0.09210991 -75.34 0.0003992415    1.401    0.286
       308  -9.9183     39.3430    173.0729   1.2974935184e+02   3.4782765386e+01    0.2044295    0.1388958 -69.34   0.00103458    1.401    0.286
       309 -10.7228     82.4700     18.9573   8.0541221664e+01   6.0781117276e+01    0.4865864    0.1933282  46.13  0.001253165    2.476    0.596
       310 -10.2755     35.8495    170.0840   1.3020234998e+02   3.5771273619e+01    0.2888922    0.1594134  89.38  0.001684017    1.657    0.397
       311  -9.5185    248.4212    173.4023   8.7781361494e+01  -3.8240286920e-01     0.260942   0.08826368  33.97 0.0009641297    3.422    0.708
       312  -9.7562     51.5262    173.0189   1.2721682614e+02   3.3417332041e+01    0.1724558   0.08395266  81.99 0.0006003627    2.487    0.598
       313 -10.1706      8.8234    155.9477   1.3468853333e+02   4.1218559747e+01    0.2502128     0.145616 -71.35  0.001641289    1.459    0.314
       314  -9.9314    221.0209     19.0287   5.4268243203e+01   2.7103034879e+01    0.2249709    0.1825107 -49.55  0.001272638    1.166    0.142
       315 -11.8743      9.9381    165.5790   1.3513788909e+02   3.9140732182e+01    0.5202798    0.3150188 -71.84  0.002638616    1.451    0.311
       316 -10.7803     13.9271    158.0829   1.3377832918e+02   4.0351010342e+01    0.3671898    0.1713409 -81.40  0.001455195    1.754    0.430
       317  -9.4719    198.1340    167.8405   9.5580634173e+01   9.6621209063e+00    0.1928855    0.1841263  37.89 0.0005865447    1.152    0.132
       318  -8.8815      1.4807     20.5597   1.1566286406e+02   7.0490579774e+01     0.112316    0.0816153 -42.62 0.0004230042    1.014    0.013
       319  -9.0424    211.2771     18.9988   5.5310237965e+01   2.9541591391e+01    0.1869095    0.1723157 -49.72 0.0002995249    1.067    0.063
       320 -10.3716     18.6728    165.4422   1.3335698328e+02   3.8407668396e+01     0.239815    0.2115929 -29.53  0.001430409    1.755    0.430
       321  -9.9419    205.1152    163.2043   9.3326298550e+01   9.0348773703e+00     0.234092    0.2048652  14.63 0.0006538901    1.055    0.052
       322 -10.4687    186.3903     15.1864   5.7196834337e+01   3.6350664367e+01    0.2662711    0.2336978  69.97 0.0004763251    1.084    0.077
       323  -9.5491    188.8110    163.9779   9.6609968486e+01   1.2115203632e+01     0.218943    0.1762816   8.46 0.0008762833    1.349    0.259
       324 -10.2100     28.3470    162.8619   1.3113433973e+02   3.8034981419e+01    0.3041927     0.132945 -68.33  0.001654957    1.949    0.487
       325 -10.7760    104.9855    153.7635   1.1274502432e+02   2.9913915546e+01    0.5601726    0.3777401 -72.86  0.002892741    1.615    0.381
       326  -9.3257    115.8153     17.2080   7.0475914419e+01   5.3950005611e+01    0.2040638    0.1525469  22.25 0.0006683475    1.350    0.259
       327  -9.0905    223.6689    156.6946   8.8585246455e+01   6.4260682958e+00    0.1427921   0.09721821  12.65 0.0004847242    1.659    0.397
       328 -10.7502     31.5046    153.9671   1.2963129626e+02   3.9610447082e+01    0.4105902    0.2242576  68.77  0.001930533    1.818    0.450
       329 -10.6873     47.2934     18.5593   9.3430584813e+01   6.6550967431e+01     0.354143    0.2550028  -6.12  0.001446058    1.347    0.258
       330 -10.4884     30.6056    149.2897   1.2936933625e+02   4.0705360903e+01    0.2543832    0.1472026  72.43 0.0007929195    1.689    0.408
       331 -11.7486     12.3081    138.5659   1.3252255604e+02   4.4630768794e+01     0.731735    0.3094932  79.44  0.003486451    2.700    0.630
       332 -10.3282     14.3553    133.4999   1.3157590630e+02   4.5569289762e+01    0.2959597    0.1430108  70.65   0.00155579    2.241    0.554
       333 -10.2231     22.7011    154.8535   1.3164224798e+02   4.0257297722e+01    0.2730253    0.1757973  21.97  0.001618603    2.192    0.544
       334 -12.0255     23.0942    149.1997   1.3104689599e+02   4.1428356478e+01    0.5377224    0.3416979 -31.22  0.002366708    2.792    0.642
       335 -10.9103     16.5970    148.1563   1.3239665987e+02   4.2220451612e+01    0.3986211    0.1802275  43.57  0.002244826    2.171    0.539
       336 -10.2780     72.6575    152.4620   1.2006314188e+02   3.5106698040e+01    0.4257456    0.2172258  55.86  0.002040889    2.080    0.519
       337  -9.7764     47.9945    151.8342   1.2568783819e+02   3.8326104445e+01    0.2547008    0.1849633 -69.16 0.0008382363    1.256    0.204
       338 -10.6411     44.0936    150.4429   1.2642126235e+02   3.9063396311e+01    0.3852471    0.2188095  86.96 0.0004062523    1.792    0.442
       339 -10.9124     46.7978    146.0393   1.2527502457e+02   3.9728610855e+01    0.4238928    0.2418582 -78.34  0.001863457    1.591    0.371
       340 -11.7549      3.7610    147.4873   1.3514701223e+02   4.3381167425e+01    0.5970873    0.3171345 -83.38  0.003447647    1.464    0.317
       341 -10.7246      7.7545    145.0044   1.3408814364e+02   4.3604750118e+01    0.2979841    0.1496164  88.02  0.001040312    1.713    0.416
       342 -11.5551      3.8597    141.7675   1.3469633755e+02   4.4582716310e+01    0.3111703    0.2851438  23.03   0.00131804    1.538    0.350
       343 -11.9582      3.8637    136.6885   1.3429474502e+02   4.5665473719e+01    0.2336264    0.1747114 -76.57 0.0003073355    1.147    0.128
       344 -10.9918     62.4591    149.7465   1.2207241516e+02   3.7045879634e+01    0.4722909    0.3715686  70.69  0.002453414    1.181    0.153
       345  -9.7214     85.5801    149.7778   1.1662935184e+02   3.3841460983e+01    0.1875648     0.118855 -75.29 0.0009535166    1.647    0.393
       346  -9.3968    223.4851     22.4397   5.4918732287e+01   2.6112406781e+01    0.2316371    0.1908684 -83.55 0.0006695655    1.197    0.165
       347 -10.2171     56.1559    148.9109   1.2343925787e+02   3.8010212673e+01    0.1945516    0.1454327  79.05 0.0003877254    1.236    0.191
       348 -10.6904    249.6270    143.0425   8.1270445536e+01   3.4643128420e+00    0.6185609    0.2116679 -32.85  0.002426757    2.705    0.630
       349  -9.1590     74.4684    145.4974   1.1861399764e+02   3.6384446666e+01     0.130886    0.1136365  88.50 0.0008097864    1.016    0.016
       350 -10.7000     33.0677    144.2687   1.2828185092e+02   4.1556985010e+01     0.255133    0.1940901  75.48 0.0007960633    1.172    0.147
       351  -9.7345    133.5309    140.7234   1.0365284945e+02   2.7500314397e+01    0.3032962    0.2278629 -18.01  0.001282393    1.856    0.461
       352 -11.9837     22.6376    135.5068   1.2980758564e+02   4.4443838205e+01    0.7136272    0.3390957  51.98  0.003888074    2.165    0.538
       353 -11.7521     29.8377    132.8274   1.2777271361e+02   4.4388175820e+01    0.6192214     0.327744  86.93 0.0004820965    1.968    0.492
       354 -10.5579     47.6219    134.5078   1.2359440615e+02   4.2198720450e+01    0.3965621    0.2190197 -54.44  0.001607276    1.764    0.433
       355  -9.0252     44.3132    132.7442   1.2418071747e+02   4.2956030058e+01    0.1567171    0.1354752 -67.37 0.0003904116    1.169    0.144
       356 -10.7208     71.1363    134.1089   1.1763976100e+02   3.9381560363e+01    0.5155712    0.3400137  15.75  0.002556467    2.383    0.580
