#   1 NUMBER                 Running object number                                     
#   2 MAG_AUTO               Kron-like elliptical aperture magnitude                    [mag]
#   3 X_IMAGE                Object position along x                                    [pixel]
#   4 Y_IMAGE                Object position along y                                    [pixel]
#   5 X_WORLD                Barycenter position along world x axis                     [deg]
#   6 Y_WORLD                Barycenter position along world y axis                     [deg]
#   7 A_WORLD                Profile RMS along major axis (world units)                 [deg]
#   8 B_WORLD                Profile RMS along minor axis (world units)                 [deg]
#   9 THETA_WORLD            Position angle (CCW/world-x)                               [deg]
#  10 FWHM_WORLD             FWHM assuming a gaussian core                              [deg]
#  11 ELONGATION             A_IMAGE/B_IMAGE                                           
#  12 ELLIPTICITY            1 - B_IMAGE/A_IMAGE                                       
         1 -14.0934    226.9552      5.3244   3.5053045076e+01   2.7853243526e+01     1.888557     1.158907  45.72  0.005649552    2.127    0.530
         2 -14.0573    183.3454     49.5512   5.1800814732e+01   3.2995271959e+01      1.91589     1.257141  25.31 0.0008122448    2.135    0.532
         3 -14.1033    194.7134     40.4081   4.7550000098e+01   3.1452028888e+01     1.348039     1.070153 -35.33  0.003549655    1.172    0.147
         4 -14.5564    203.1770     31.4016   4.3995277359e+01   3.0534558791e+01      1.43851     1.224141  10.99  0.001352546    1.417    0.294
         5 -12.8972     31.7653     16.5971   8.5642755024e+01   7.2406031263e+01    0.4361845    0.2984559  15.42  0.002423816    1.597    0.374
         6 -12.9696     41.5708      7.5760   7.4057229344e+01   7.2518889202e+01    0.4684202    0.3530601  10.87  0.002714743    1.363    0.266
         7 -12.0802     61.7527      2.2490   6.0566767016e+01   6.9395300287e+01    0.4728124    0.2086781  48.08  0.002077051    2.097    0.523
         8 -11.5578    183.7602    206.3792   8.7381157546e+01   7.8332306806e+00    0.3332512    0.1794092  21.68  0.001772671    1.882    0.469
         9 -11.5296    140.0329    250.0364   1.0106959727e+02   7.9395662743e+00    0.4341528    0.1744982  39.49  0.002411724    1.883    0.469
        10 -11.9223    140.1965    245.3707   1.0055717264e+02   8.5307880944e+00    0.2607701    0.2347637 -78.45  0.002092757    1.588    0.370
        11 -19.0959     24.3279    207.6413   1.2095378755e+02   2.8640217191e+01     11.38687     5.416533  88.21   0.06566916    2.084    0.520
        12 -10.5549    150.5729    188.2135   9.1152876830e+01   1.5633965525e+01    0.2167491    0.1283232 -52.47  0.001125238    2.066    0.516
        13  -9.6087     93.2355    185.6572   1.0363294358e+02   2.4853375530e+01    0.2064758    0.1320998  47.36  0.001131944    1.372    0.271
        14 -11.1663     98.9427    181.0304   1.0170980316e+02   2.4952004066e+01    0.3553254    0.2515429  12.43   0.00188976    1.840    0.456
        15 -11.3689    150.6121    179.0562   8.9678498715e+01   1.7187459605e+01    0.4107852    0.2732428 -72.05  0.001913596    2.610    0.617
        16 -11.8724    143.8510    178.4740   9.1047283713e+01   1.8397241639e+01    0.3995456    0.3173194 -72.10  0.001808565    1.694    0.410
        17 -15.5174     72.7516    149.3028   1.0416056324e+02   3.5599393984e+01     3.833724     1.860878  70.97   0.01081236    3.512    0.715
        18 -11.7384     52.5969    167.2185   1.1164020701e+02   3.4070156954e+01    0.4983737    0.2287903 -51.21  0.002248327    2.676    0.626
        19 -10.2822    188.8750    178.1324   8.1777425498e+01   1.1101161721e+01    0.2739565    0.2343994  61.30  0.001199872    1.662    0.398
        20 -10.6874    187.8776    173.4687   8.1130696920e+01   1.1966021685e+01    0.4231846    0.2499667 -56.82  0.001934818    2.973    0.664
        21 -11.9217    111.8086    197.0266   1.0079000283e+02   2.0015130328e+01     0.453321    0.2848468  -2.48  0.002027324    3.153    0.683
        22 -11.1458    138.8548    170.8417   9.0897085252e+01   2.0613395780e+01    0.3550456     0.256431  33.86  0.001100837    1.260    0.206
        23 -11.0207    230.4193    166.9493   7.2426047350e+01   6.1976371556e+00    0.2336658     0.143578 -43.56  0.001296962    2.068    0.516
        24 -12.4714     47.4326    172.7104   1.1344755943e+02   3.3444266582e+01    0.5229545    0.4522588  17.11  0.001120124    1.416    0.294
        25 -12.2666     92.2999    152.7369   9.9363549316e+01   3.1949949950e+01    0.6462849    0.4892448 -18.11  0.003294313    1.887    0.470
        26 -11.6386    133.8380    145.2810   8.7415102796e+01   2.6477440910e+01     1.114787    0.3212953 -55.24   0.00303825    5.375    0.814
        27 -10.9465     51.9023    171.7847   1.1224295872e+02   3.3140088551e+01    0.3446485    0.2117423  73.57 0.0008859239    1.634    0.388
        28 -10.5917    187.5155    152.1057   7.7104148951e+01   1.5391374270e+01    0.2427573    0.1863048  34.50  0.001133194    1.253    0.202
        29  -9.4438    112.2448    150.8256   9.3841574844e+01   2.9133501751e+01    0.2098011    0.1801068  63.40 0.0005473319    1.190    0.160
        30 -10.6304    174.3955    148.8726   7.9062275844e+01   1.8300373355e+01    0.2706397    0.2464123  73.51 0.0008769429    1.409    0.290
        31 -10.8722    143.9572    146.1693   8.5184918050e+01   2.4435057382e+01     0.332302    0.2033523 -65.51  0.001408227    2.456    0.593
        32 -11.1247    104.8103    138.7624   9.3606058873e+01   3.3047577148e+01    0.5259343    0.3463227 -27.17  0.002317406    2.222    0.550
        33 -12.3964     92.5927    138.4675   9.6916589131e+01   3.5145588228e+01    0.2632191    0.2560878   2.38 0.0002852897    1.155    0.134
        34 -12.4541    204.5069    199.7219   8.2573163901e+01   5.7368714560e+00    0.7485158    0.3486796 -25.73  0.003790348    2.459    0.593
        35 -10.9677    134.6590    107.9079   7.8778091755e+01   3.4083461441e+01     1.274231    0.1394343 -45.76  0.002306435    9.568    0.895
        36 -11.6001    135.8263    128.3071   8.3362001209e+01   2.9590742742e+01    0.6360922    0.2106329 -49.54   0.00198955    3.250    0.692
        37 -10.4661     81.5521    194.7080   1.0734544738e+02   2.4671264324e+01    0.3325298    0.2626002  64.92  0.002135845    1.200    0.167
        38 -10.9950    105.9597    130.8344   9.1750435096e+01   3.4636922515e+01    0.3453248    0.3108014  89.49  0.001239397    1.159    0.137
        39 -11.0581    113.6094    129.4948   8.9382917294e+01   3.3561258509e+01     0.460016     0.300979  35.96  0.001517751    1.532    0.347
        40 -11.8048    119.5737    123.4745   8.6473482474e+01   3.3776173475e+01    0.6928577    0.4149666 -25.68  0.002657873    2.656    0.624
        41 -10.6634    160.8400    128.1570   7.7468686214e+01   2.4645496959e+01    0.3436012     0.306437 -80.21  0.001860859    1.380    0.275
        42  -9.3685     96.4950    128.4985   9.3951089228e+01   3.6813070439e+01    0.1466512    0.1363178  70.66 0.0008102715    1.044    0.043
        43 -11.0812    100.4964    125.5231   9.2205752460e+01   3.6814366951e+01    0.2741178    0.2395428 -11.13 5.871952e-05    1.383    0.277
        44 -10.1533    151.3990    195.4672   9.2084938990e+01   1.4310761024e+01    0.2771083    0.1076076  36.96  0.001218636    2.201    0.546
        45 -10.1405    108.9868    118.7486   8.8328736511e+01   3.6834796130e+01    0.2284762    0.2099265 -61.73 0.0003686879    1.099    0.090
        46  -8.8628    114.6362    118.3124   8.6648975301e+01   3.5865675119e+01    0.1574879    0.1165072  75.79 0.0007040103    1.757    0.431
        47 -10.0139    167.8549    112.8403   7.2302366035e+01   2.6055767011e+01      0.34817    0.2657843 -79.73  0.001630645    1.929    0.482
        48 -10.6868    127.3948    193.2414   9.6866519836e+01   1.8372718284e+01    0.2640203    0.1920655  80.31  0.001454029    2.001    0.500
        49 -12.2346    118.4235    109.6021   8.3521380445e+01   3.7062295343e+01    0.7130653    0.5315566  76.69  0.002842709    1.765    0.433
        50 -12.4020    194.0802    196.9776   8.4001588322e+01   7.6107315561e+00     1.033231    0.6991851 -52.13  0.005766968    2.259    0.557
        51 -10.3657    205.3167    110.2567   6.4572502627e+01   1.8761994167e+01     0.289699    0.2242914  29.13 0.0008288735    1.370    0.270
        52  -9.7240    156.5541    190.0493   9.0193834660e+01   1.4387409091e+01    0.1655173    0.1250412 -39.98 0.0002983088    1.494    0.331
        53 -10.9150     53.1320     91.3050   1.0054004956e+02   5.2510930787e+01    0.2908111    0.2009128 -71.03 0.0008694274    1.395    0.283
        54 -12.6274    109.4079    201.9379   1.0191205335e+02   1.9475790912e+01    0.5582955    0.3606384  26.10  0.001056738    1.538    0.350
        55 -10.1785    156.8846     81.8677   6.6315212288e+01   3.4207247091e+01    0.2314048    0.2064374   8.10 0.0005191982    1.235    0.190
        56  -9.6024    184.5083     76.9975   5.9564441881e+01   2.8566488329e+01    0.2249606    0.1390411 -31.71 0.0005649304    1.547    0.354
        57 -10.4345     39.1545     88.8205   1.0543802148e+02   5.4761533506e+01    0.2067287    0.1798915  79.01 0.0006648753    1.146    0.127
        58  -9.5106     62.5567     69.4780   9.1228449783e+01   5.6572733182e+01    0.1446805    0.1352804 -53.94 0.0001216444    1.006    0.006
        59  -8.9523    168.4295    248.4442   9.5773565443e+01   4.5290436244e+00    0.1084019   0.08018965  27.94 1.920269e-05    1.063    0.059
        60 -11.3666    113.2523    205.9961   1.0155837212e+02   1.8213383801e+01    0.2535182    0.2132556  59.16 0.0009340623    1.218    0.179
        61  -9.8354    158.3925    235.7790   9.6102338891e+01   7.4116016308e+00    0.1337685    0.0999795 -19.98  0.000773165    1.589    0.371
        62  -9.3241    168.9821    234.8325   9.4039165634e+01   6.1275245632e+00    0.1493297    0.1167091  22.36 0.0004653272    1.038    0.037
        63 -11.0247    150.9119     54.4665   5.9018433907e+01   4.0381938304e+01    0.3105974    0.2589703 -75.26 0.0004359466    1.327    0.247
        64 -11.2312    107.8475    210.9637   1.0327578767e+02   1.8110906638e+01    0.4100451      0.15674  35.45  0.001905395    2.125    0.529
        65 -10.2037    189.7075     15.0095   4.0607346356e+01   3.5655810040e+01    0.2318972    0.1958764  83.82 0.0006283061    1.173    0.147
        66 -10.3133    134.0342    196.3356   9.5860832730e+01   1.6825281935e+01    0.2006619    0.1877036 -87.94 0.0004023165    1.299    0.230
