#   1 NUMBER                 Running object number                                     
#   2 MAG_AUTO               Kron-like elliptical aperture magnitude                    [mag]
#   3 X_IMAGE                Object position along x                                    [pixel]
#   4 Y_IMAGE                Object position along y                                    [pixel]
#   5 X_WORLD                Barycenter position along world x axis                     [deg]
#   6 Y_WORLD                Barycenter position along world y axis                     [deg]
#   7 A_WORLD                Profile RMS along major axis (world units)                 [deg]
#   8 B_WORLD                Profile RMS along minor axis (world units)                 [deg]
#   9 THETA_WORLD            Position angle (CCW/world-x)                               [deg]
#  10 FWHM_WORLD             FWHM assuming a gaussian core                              [deg]
#  11 ELONGATION             A_IMAGE/B_IMAGE                                           
#  12 ELLIPTICITY            1 - B_IMAGE/A_IMAGE                                       
         1 -13.9255      5.4536    163.5844   1.0163139004e+02   3.9620785036e+01     2.817945    0.9745599 -67.23   0.01259137    2.104    0.525
         2 -12.6587    249.8269     61.6698   2.8484358356e+01   1.8655804338e+01     1.287833    0.2977436 -41.63  0.004778524    3.522    0.716
         3  -9.6976      7.2648      9.2445   6.2814846427e+01   6.8652339107e+01     0.292083   0.09627438 -31.76  0.001621533    2.631    0.620
         4  -9.7472    165.3604      7.2807   2.6257975734e+01   4.2373747496e+01    0.2979684    0.1505434 -58.19  0.001582445    2.402    0.584
         5 -10.5625    235.3247      2.3859   1.8771475421e+01   2.8991795865e+01    0.3514586    0.1763364 -89.44  0.002114597    1.865    0.464
         6  -9.6392    249.5186      2.6412   1.7828095694e+01   2.6338205051e+01    0.1911173    0.1437483  61.15  0.001433833    1.702    0.412
         7 -10.8243     13.7600    241.0204   1.0794234491e+02   2.1039088691e+01    0.3776755    0.2672075  40.82 0.0009220202    1.747    0.428
         8  -9.0383    141.7773    250.4074   8.5575394770e+01   1.2425194489e+00    0.1758041     0.119577  30.59 0.0009472506    1.602    0.376
         9 -11.9528    110.8809    245.1646   9.0746891384e+01   7.1513093003e+00    0.6789389    0.5510001  60.58    0.0033721    1.177    0.150
        10 -11.7679    121.7954    244.7030   8.8580318739e+01   5.5349896184e+00    0.6030504    0.4346109   9.86  0.003084648    2.216    0.549
        11  -9.2660     15.2621    248.9220   1.0832672190e+02   1.9213499034e+01    0.3353955    0.2620078  47.03  0.002423485    1.556    0.357
        12  -9.4964      3.1188    249.9301   1.1034833211e+02   2.0295477224e+01    0.1698999    0.1206679 -88.24 0.0005573481    1.075    0.069
        13 -11.1655     13.3848    231.8638   1.0724006843e+02   2.3053913532e+01     1.258965    0.4011947 -60.32  0.005757131    2.740    0.635
        14 -10.7447      8.1456    220.4312   1.0715944572e+02   2.6121060401e+01    0.6697732    0.3033791  42.20   0.00366892    2.372    0.578
        15 -10.4829     15.9419    219.6317   1.0568527139e+02   2.5501842769e+01    0.7097056    0.3039562 -89.01  0.003168477    2.584    0.613
        16  -9.4466     20.9468    217.9652   1.0460690642e+02   2.5347235295e+01    0.5047192    0.2254497  65.54  0.002322647    2.674    0.626
        17 -11.9508    138.5537    235.8093   8.3957837367e+01   4.6506755428e+00    0.5916001     0.307489  38.42  0.002746385    1.975    0.494
        18 -10.7148     89.9550    236.9445   9.3674117345e+01   1.2082479578e+01    0.3489227    0.2265135  77.19  0.001807131    1.749    0.428
        19 -10.6351    118.2649    238.0410   8.8301107830e+01   7.4677728503e+00    0.2835336    0.2404942  40.53  0.001706499    1.246    0.197
        20  -9.5065    105.6600    235.6711   9.0436549621e+01   9.9578540860e+00    0.3305889    0.1397296 -47.75  0.001362823    2.618    0.618
        21 -10.2889    103.9794    233.2258   9.0420606867e+01   1.0747388491e+01    0.2710123    0.2089987 -26.56  0.001276265    1.880    0.468
        22  -9.8514     26.3989    234.6325   1.0521948005e+02   2.1018277369e+01    0.4317203    0.2301276 -83.34  0.001994209    1.615    0.381
        23  -9.4979      1.9671    226.1615   1.0872520317e+02   2.5462735845e+01    0.2699107    0.1408846 -75.87  0.001353597    1.443    0.307
        24 -11.2289     99.1990    234.1589   9.1494515632e+01   1.1285161430e+01    0.4970802    0.2762069 -74.73  0.002299773    2.088    0.521
        25 -10.4096    110.9119    233.7756   8.9127530080e+01   9.5398162944e+00    0.2698267    0.2264331  73.61  0.001117088    1.165    0.142
        26  -8.6675    228.2359    232.9828   6.6376146658e+01  -8.9808527465e+00    0.1675915   0.09481784 -39.62 0.0004406861    1.593    0.372
        27  -8.5451    177.7581    232.0111   7.5616323721e+01  -1.0311465937e+00     0.179905    0.1082218 -46.36 0.0008873402    1.619    0.382
        28 -11.7113    129.8996    238.0113   8.6008382932e+01   5.6063769571e+00     0.474722    0.3470735  63.72  0.002269907    1.495    0.331
        29  -9.4033      2.7960    231.2295   1.0899274307e+02   2.4276776779e+01    0.2840767    0.2097181 -30.75  0.001769636    2.606    0.616
        30  -9.6419      7.5709    226.6068   1.0779650961e+02   2.4808301537e+01    0.2522353    0.1618285 -63.78 0.0009097821    1.491    0.329
        31 -11.2730    127.8419    230.1675   8.5200646538e+01   7.5832095615e+00    0.4656034    0.2399235 -61.29  0.001936615    2.064    0.515
        32 -11.2373    123.2608    229.8868   8.6076507414e+01   8.3915343151e+00    0.3685326    0.2727243 -45.20   0.00200649    1.431    0.301
        33 -11.5399    122.7719    223.4786   8.5163177362e+01   9.8621162587e+00    0.5415908    0.3280946  61.74  0.002497034    2.020    0.505
        34 -11.9187      3.4057    109.8909   9.3735572420e+01   5.2136487927e+01     1.174306     0.411303 -41.51  0.005274491    2.635    0.620
        35 -13.7205      8.4816    128.1704   9.5658279032e+01   4.7684190138e+01     1.874364     1.185002  85.69   0.01012387    2.104    0.525
        36 -10.7114     90.0526    248.4407   9.5119627676e+01   9.6314624259e+00     0.377049    0.3105024  88.40  0.001933561    1.092    0.085
        37 -11.4466      7.5315    210.9357   1.0640410031e+02   2.8326030080e+01    0.6128412     0.502649  85.04     0.004358    1.175    0.149
        38  -7.9646    207.3124    210.6754   6.5996813875e+01  -1.7401633126e+00    0.1314603    0.1085722 -77.39 0.0007040616    1.660    0.398
        39  -9.7281     83.6737    209.2849   9.1062742965e+01   1.9303917141e+01    0.2822923    0.1638223 -79.20  0.001270992    1.949    0.487
        40  -9.6568     98.8475    208.7229   8.7776288373e+01   1.7100007303e+01    0.2094455    0.1890621  10.17  0.001200001    1.450    0.310
        41  -9.9848    124.0135    206.0130   8.1970904760e+01   1.3588960536e+01    0.2044027    0.1890631 -66.00            0    1.030    0.030
        42 -10.3625     92.7564    225.2659   9.1525773014e+01   1.4239250801e+01    0.2491286    0.1863913 -65.81  0.001399122    1.230    0.187
        43  -9.3148     29.1272    181.8728   9.8826598515e+01   3.2990309903e+01    0.2033331    0.1500879 -88.16  0.001050641    1.226    0.184
        44 -10.3370    101.0050    175.9959   8.1561197553e+01   2.4660716392e+01    0.2144283    0.1874854 -65.70            0    1.010    0.010
        45 -13.3828     34.2456    211.5862   1.0140809343e+02   2.5330902035e+01     3.390202     1.524679 -87.35   0.01408552    2.772    0.639
        46  -9.4253    146.8000    224.1767   8.0392606940e+01   5.6980280389e+00    0.1895815    0.1622465 -22.93  0.001065085    1.338    0.252
        47 -10.6446     73.7601    222.1928   9.4908547711e+01   1.7743960808e+01    0.4063355    0.2179306  64.02  0.001850483    2.235    0.553
        48 -11.5594     12.4123    178.1387   1.0193385672e+02   3.5545745347e+01    0.6210921    0.5187417  73.19  0.003423139    1.292    0.226
        49 -11.2614     58.6955    127.9897   8.2213253275e+01   4.2610640473e+01    0.5859466    0.2907929 -48.91  0.002666817    1.667    0.400
        50 -10.9050    249.6365    122.2233   4.0642340258e+01   8.3540134215e+00    0.3675315    0.2484226 -43.43  0.002016356    1.232    0.188
        51  -8.5724     22.2146    239.1776   1.0635578116e+02   2.0505042124e+01    0.1669576    0.1086268  76.50 0.0005623656    1.310    0.237
        52  -9.1077     67.1216    216.2269   9.5449823121e+01   2.0056940575e+01     0.271935     0.202134   5.97  0.001397233    2.393    0.582
        53 -11.7792      4.7818    201.0452   1.0596951922e+02   3.0858408376e+01    0.7781485    0.6361317 -67.45  0.005465765    1.290    0.225
        54 -12.9412    244.4751    105.6354   3.7921162940e+01   1.2339980140e+01     1.320747    0.6745519 -44.85  0.006388921    1.603    0.376
        55 -12.1785      6.5304    188.4727   1.0433278639e+02   3.3631436051e+01     1.037959    0.8389748  21.67  0.007020714    1.816    0.449
        56 -10.2516     14.4921     98.0172   8.8059783783e+01   5.3846135335e+01    0.4284549    0.1660526 -41.08  0.002003054    2.231    0.552
        57 -10.3994     15.2024     93.7118   8.6862964601e+01   5.4679226177e+01    0.4391129    0.2357832 -39.70  0.002189442    1.552    0.355
        58 -11.8424    240.9615     91.1018   3.5375079198e+01   1.5570487934e+01    0.6645262    0.3022951 -55.37  0.002954095    2.095    0.523
        59 -11.1666    249.6824     83.5598   3.2790539911e+01   1.5203230421e+01    0.3258656    0.2693263  80.75  0.002107702    1.310    0.236
        60 -11.0028      7.4797     69.8331   8.3340287934e+01   5.9899483227e+01    0.5949106    0.4043521 -63.10  0.003783232    1.769    0.435
        61  -8.1038      8.3324    247.3147   1.0932593545e+02   2.0292611404e+01    0.1037225    0.0773913 -58.84 0.0006282801    1.683    0.406
        62  -9.8516    233.6846     46.6645   2.7209969015e+01   2.3941959367e+01    0.1967534    0.1141837 -39.96  0.001105672    1.686    0.407
        63 -10.2736    248.7047     44.0638   2.5253338655e+01   2.1413534760e+01    0.2139398    0.1622323  77.58   0.00117327    1.345    0.256
        64  -8.9555     22.8011     55.4106   7.3903750165e+01   6.1049688842e+01     0.149013   0.09713183   5.06 0.0008114416    1.621    0.383
        65 -10.2256    238.1165     15.2601   2.0860830486e+01   2.7057704956e+01    0.2580158    0.1728681  33.87  0.001443322    3.232    0.691
        66 -11.1387    145.5375    240.1630   8.3273718638e+01   2.6345691270e+00    0.3960619    0.2433623  36.92  0.001928654    1.667    0.400
        67  -8.4268     41.9550    243.7824   1.0335098237e+02   1.7183316123e+01    0.1685515     0.132855  80.18 0.0007500576    1.064    0.060
        68  -8.0306     30.6602    243.7108   1.0530889009e+02   1.8563134107e+01    0.1064457   0.08644082 -53.50 0.0007022473    1.643    0.391
