#   1 NUMBER                 Running object number                                     
#   2 MAG_AUTO               Kron-like elliptical aperture magnitude                    [mag]
#   3 X_IMAGE                Object position along x                                    [pixel]
#   4 Y_IMAGE                Object position along y                                    [pixel]
#   5 X_WORLD                Barycenter position along world x axis                     [deg]
#   6 Y_WORLD                Barycenter position along world y axis                     [deg]
#   7 A_WORLD                Profile RMS along major axis (world units)                 [deg]
#   8 B_WORLD                Profile RMS along minor axis (world units)                 [deg]
#   9 THETA_WORLD            Position angle (CCW/world-x)                               [deg]
#  10 FWHM_WORLD             FWHM assuming a gaussian core                              [deg]
#  11 ELONGATION             A_IMAGE/B_IMAGE                                           
#  12 ELLIPTICITY            1 - B_IMAGE/A_IMAGE                                       
         1 -11.7035    104.5221     11.7299   3.5833650257e+02   5.6997671652e+01    0.4967571    0.2913907 -23.32  0.001532757    1.936    0.483
         2 -12.7788    105.5694     19.8619   1.3792570783e+00   5.5875665385e+01    0.3550543    0.2775786 -69.52 0.0006988496    1.313    0.239
         3 -12.5237    164.6019     27.4820   3.5530880467e+02   4.0786164199e+01    0.4669178    0.3133469  65.52 0.0009601895    1.529    0.346
         4 -11.2296     20.5564     21.6959   3.6842751915e+01   7.3616770934e+01    0.5535112    0.3193949 -28.65  0.002132737    1.943    0.485
         5 -12.1075    191.4819     10.7047   3.4859846154e+02   3.6758847877e+01    0.5823988    0.3175532 -12.16  0.002838406    2.967    0.663
         6 -11.4025    186.4899     14.8825   3.4998157737e+02   3.7375138280e+01    0.2761601    0.2522302   3.26  0.001505568    1.527    0.345
         7 -11.5032     35.4956     17.3411   2.4393619988e+01   7.1957232414e+01    0.4627706    0.2557462 -31.74   0.00139708    1.954    0.488
         8 -11.6512     23.2998     10.7312   2.8031580149e+01   7.5045849896e+01    0.8000221    0.3723003  35.88  0.003797699    2.036    0.509
         9 -11.8449     16.8920     10.0683   3.2448859338e+01   7.6128639924e+01    0.6145408    0.3034621  47.10  0.001852662    2.526    0.604
        10 -12.0829    164.6006     17.9667   3.5263453908e+02   4.1871967317e+01    0.4249997    0.2787132  43.31  0.002291509    2.071    0.517
        11 -11.7059     16.4848     14.0843   3.5426313557e+01   7.5518593484e+01    0.4552964    0.2668857 -18.97  0.002034252    2.161    0.537
        12 -11.7781    236.4542     15.7136   3.4717701156e+02   2.7588086060e+01    0.2317914     0.193515 -75.91  0.001079584    1.260    0.206
        13 -11.5406    127.2571     15.2013   3.5606537174e+02   5.1036148141e+01     0.488158    0.2868258 -19.24  0.001468727    2.075    0.518
        14 -11.3511    134.4016     14.5446   3.5489796479e+02   4.9362135718e+01    0.6568383    0.2429163  63.62  0.002769437    2.404    0.584
        15 -11.0040     85.9850     14.5785   3.4115446373e+00   6.1254694831e+01    0.4222721       0.3484 -37.92  0.001632099    1.306    0.234
        16 -10.2757    225.7260     13.3466   3.4722268126e+02   2.9760370025e+01    0.1960311     0.114186 -49.75 0.0004899458    1.261    0.207
        17 -11.0641    242.9887     14.5057   3.4662645760e+02   2.6588356161e+01    0.2063881    0.1718791  10.51  0.001191251    2.035    0.509
        18 -12.2019     48.7956     12.7927   1.4804965101e+01   6.9976015080e+01    0.7164564    0.2392862  51.48  0.002812783    2.634    0.620
        19 -11.0291    156.6316     12.3720   3.5178935804e+02   4.4296784865e+01    0.3330142    0.1946986  30.38  0.001517999    3.056    0.673
        20 -11.7626    212.0110      9.8891   3.4719057373e+02   3.2706367863e+01    0.3985631    0.2366682 -24.03  0.001308071    1.926    0.481
        21 -10.5522      5.5842     10.1050   4.2479457302e+01   7.7542618392e+01    0.3787177    0.1334418 -50.38  0.001651127    2.748    0.636
        22 -10.4786    121.0615     11.2107   3.5552290348e+02   5.2961842545e+01    0.3056767    0.1653519  83.05  0.001458838    1.813    0.448
        23 -11.5081     63.6784     10.0020   7.4584891000e+00   6.7020337233e+01    0.3402817    0.2176284  54.98  0.001159776    1.383    0.277
        24 -10.4524     62.5011      6.4912   5.9116046692e+00   6.7652651374e+01    0.2776538    0.1804502  43.38 0.0008942025    1.452    0.311
        25 -12.2849    168.1996      9.3523   3.4992775460e+02   4.1955489784e+01    0.5304405    0.2209953  67.37  0.002538577    2.297    0.565
        26 -10.3718      1.3006      7.6993   4.5232912706e+01   7.8407707663e+01     0.320005   0.09531268 -52.41  0.001317483    3.130    0.681
        27 -10.2609      1.9135      1.8301   4.0496694211e+01   7.9380138798e+01    0.2176563     0.143282 -23.07 0.0008261231    1.478    0.323
        28 -11.9184    185.5112      6.4275   3.4792364884e+02   3.8451065809e+01    0.3546209    0.1963639 -52.39  0.001825406    1.466    0.318
        29 -11.4115    154.3572      6.6756   3.5032466870e+02   4.5388742094e+01    0.3342963    0.1640183  77.43 0.0008432657    1.880    0.468
        30  -9.6080     78.1582      7.3743   1.9343946179e+00   6.3874899757e+01    0.1851697     0.116576  78.62 0.0004955206    1.634    0.388
        31 -11.0031    236.0596      4.7753   3.4498461485e+02   2.8784736979e+01    0.2772226   0.08647076 -45.13  0.001490284    2.044    0.511
        32 -10.8979     40.9356      4.2818   1.3083265409e+01   7.2611983031e+01    0.3600722    0.2185095  25.53  0.001498561    1.899    0.473
        33 -10.2044    248.0199      4.9596   3.4455889837e+02   2.6718731710e+01    0.1398161    0.1280088  14.51  0.001150552    1.785    0.440
        34 -10.4138     88.9428      7.9992   3.5976017604e+02   6.1196275733e+01     0.261213    0.2274261 -27.35 0.0009296485    1.283    0.221
        35 -10.7179    148.5234      5.3715   3.5045656126e+02   4.6879084964e+01    0.2145384    0.1080279  77.82 0.0009968581    1.815    0.449
        36 -10.0215    128.9703      4.7594   3.5225287820e+02   5.1628466494e+01    0.1883318    0.1661921 -83.79  0.001208178    1.038    0.036
        37 -11.6187    133.9171      2.4943   3.5095580099e+02   5.0627986232e+01    0.5797497    0.2808907  82.58  0.002522676    1.913    0.477
        38  -9.9502     21.9199      3.6314   2.3917362640e+01   7.6290764072e+01    0.2820461    0.1540468 -25.13    0.0014411    2.066    0.516
        39 -11.0147    218.6768      3.1407   3.4538295576e+02   3.2111446821e+01    0.2362764     0.180207 -73.07  0.001134143    1.164    0.141
        40 -10.3816    223.6858      2.2663   3.4497890408e+02   3.1262433867e+01    0.1978381    0.1691536 -57.14 0.0006087978    1.222    0.182
        41 -10.7566    141.9099      2.9715   3.5032563221e+02   4.8666471370e+01    0.2637188    0.1927262 -56.34   0.00159235    1.242    0.195
        42 -11.9927      9.0400     19.5210   4.4816650363e+01   7.5412874265e+01    0.4345045    0.2571067  -9.06 0.0003488831    1.999    0.500
        43 -11.8936    206.9511      2.0842   3.4569520170e+02   3.4476093190e+01    0.5343324    0.1861546  85.15  0.002551185    2.933    0.659
        44 -11.0075    113.8003      2.2211   3.5319914474e+02   5.5571202899e+01    0.3800566     0.223647  85.29  0.001101785    1.585    0.369
        45 -10.3098    241.9935      1.9813   3.4420287635e+02   2.8032128714e+01    0.1335242   0.09274301 -54.61  0.001007525    1.001    0.001
        46 -10.0998    105.2996      1.7841   3.5421530867e+02   5.7707685320e+01    0.2165261    0.1566761 -87.71 0.0005257244    1.294    0.227
        47  -9.2130     33.3766      2.2977   1.5617013472e+01   7.4355307129e+01     0.136201   0.08404642  26.34 0.0007025354    1.752    0.429
        48  -9.8959     11.5989      1.9560   3.0966853802e+01   7.8142723407e+01    0.2442721    0.1602834  35.92  0.001446107    1.456    0.313
        49  -9.4664    160.3235      1.3314   3.4829558409e+02   4.4507047918e+01    0.1180774   0.08906976  45.89 0.0007050232    1.702    0.413
        50 -10.2515    152.5129      1.4548   3.4893629662e+02   4.6300226948e+01    0.2363489    0.1094691  80.32 0.0006241779    1.974    0.493
        51 -10.6732     50.6392    100.4496   4.8291356263e+01   5.1320722038e+01    0.5906627    0.2886979 -45.80  0.002275767    2.117    0.528
        52 -10.3047    249.5242    250.0430   2.8158706992e+01  -5.1207177460e+00    0.1606546    0.1187771 -27.04  0.001361502    1.540    0.351
        53 -11.3615    242.4933    247.4913   2.8836085686e+01  -4.2832324147e+00     0.218381   0.08969108 -25.34  0.001345064    2.048    0.512
        54 -10.3843     91.6506    102.4618   3.3705166262e+01   4.3903694254e+01    0.3306608    0.3148552   4.95  0.001753765    1.135    0.119
        55  -9.7884     85.9698    103.2948   3.5798464532e+01   4.4774602986e+01    0.2153247    0.1976596  34.48 0.0005079882    1.124    0.111
        56 -10.2224      8.2827     95.7347   6.6079352647e+01   5.6884327186e+01    0.3335209    0.2768973  31.70  0.001864447    1.291    0.225
        57 -10.8937     12.3322     97.3157   6.4447236676e+01   5.6188462000e+01    0.3061802    0.1519363 -49.59  0.001180469    1.903    0.474
        58 -10.3438    210.2696     98.0329   7.1782883788e+00   2.1305398151e+01    0.1823584    0.1667726 -52.58 0.0003411416    1.130    0.115
        59  -9.1215    156.6546     98.7578   1.6016601712e+01   3.1362522262e+01    0.1351782    0.1117927  13.21 0.0003662822    1.567    0.362
        60 -10.1254     81.1558     83.9006   3.1956481416e+01   5.0298373439e+01    0.7306819    0.4595488 -23.39  0.002823433    2.473    0.596
        61 -11.5487     74.8244     78.8718   3.2698996601e+01   5.2674002104e+01    0.6267955    0.4326825  61.22  0.001561915    1.748    0.428
        62 -10.2881     76.4114     75.2805   3.0948321257e+01   5.3176896164e+01    0.3340221    0.2527544  81.65  0.001528391    1.769    0.435
        63 -10.9262     77.2634     96.5881   3.7022635278e+01   4.8013886964e+01    0.4739344     0.278059  42.07  0.001645712    1.720    0.418
        64 -11.2452     79.1617     93.1806   3.5396760522e+01   4.8493599033e+01    0.6423935     0.506328  48.57  0.003131668    1.299    0.230
        65  -9.9658     59.4422     97.0387   4.3901137666e+01   5.0912407594e+01    0.2419226    0.1950779  30.61 7.344291e-05    1.279    0.218
        66 -11.5462     22.9724    114.0109   6.2245341846e+01   5.0740792177e+01    0.5867631    0.3220127   0.15  0.002410191    2.375    0.579
        67 -10.3160     43.0693     94.6208   5.0137281890e+01   5.3881258045e+01     0.314128    0.2692821  38.79   0.00127812    1.202    0.168
        68 -11.9879     68.3272     95.3050   3.9981779746e+01   4.9903236909e+01    0.5239623    0.4012153  16.78  0.000703276    1.521    0.342
        69  -9.2007    125.5525     93.6131   2.1552853813e+01   3.8928149283e+01    0.1481273    0.1407667 -78.23 0.0001139169    1.041    0.039
        70 -10.2665     35.8081     92.3816   5.2844144804e+01   5.5365778502e+01     0.291541    0.2279217 -81.30  0.001004571    1.341    0.254
        71 -10.6876     98.3062     90.6950   2.8302786179e+01   4.5309415890e+01    0.2593994    0.2517135  10.38 0.0003540766    1.107    0.097
        72 -11.1471     52.1550     87.1536   4.4328523733e+01   5.4555581202e+01    0.3682449    0.2128887 -56.67 0.0009592202    1.667    0.400
        73 -11.5656      6.1489     88.1022   6.6042970005e+01   5.9087159037e+01    0.6291749    0.3526668  15.73  0.002534193    1.924    0.480
        74 -10.8060      2.5967     80.8902   6.6789958979e+01   6.1214045894e+01    0.6483002    0.2662786  77.43  0.002224075    3.539    0.717
        75 -10.8950      2.1922     71.1702   6.5516235524e+01   6.3802160902e+01    0.4499893    0.2029906 -62.99  0.001981035    1.864    0.464
        76 -13.3502      5.9625     61.0482   6.1422434763e+01   6.6201859659e+01    0.8280063      0.49647 -21.60  0.001506822    1.789    0.441
        77  -9.9386     66.8834     88.2514   3.8582992346e+01   5.1898701606e+01    0.2911556    0.1830774 -32.18 0.0006096941    1.987    0.497
        78 -11.3564     28.3032     85.3970   5.4791635501e+01   5.8046504010e+01    0.6837488    0.4923322  34.86  0.001617776    1.442    0.307
        79 -10.0570     36.7432     85.5916   5.0839495997e+01   5.7048191740e+01    0.2674254    0.1475086  20.39 0.0009691993    1.992    0.498
        80  -9.2313    104.4603     86.7835   2.5293129581e+01   4.4882186959e+01    0.2065428    0.1454745 -35.29 0.0003666216    1.546    0.353
        81 -10.4751     18.7673     86.2811   5.9594806570e+01   5.8699505371e+01    0.3950911    0.2263265   6.41  0.001751049    2.027    0.507
        82 -13.4999    247.9296     78.5115   3.5901162208e+02   1.8020097598e+01    0.9476624    0.2560224 -39.90  0.004262828    2.539    0.606
        83  -9.7436     89.9629     85.3964   2.9394643867e+01   4.8204290630e+01     0.343622    0.1987488 -67.51  0.001270331    2.507    0.601
        84 -11.6999     44.7278     84.0733   4.6779618840e+01   5.6408119992e+01    0.5246061    0.4389049  85.30   0.00200179    1.357    0.263
        85  -9.2600    118.4899     85.5334   2.1044722027e+01   4.2116525249e+01    0.1490356    0.1450896 -61.17 0.0002771509    1.039    0.037
        86 -12.4286     60.8838     83.4228   3.9593417280e+01   5.4101303596e+01    0.3489944    0.2986087  49.67  0.000413791    1.212    0.175
        87  -9.4018    143.4695     84.0961   1.4807040577e+01   3.6914878416e+01    0.2066203    0.1363046 -43.07 0.0003840647    1.428    0.300
        88  -9.4649     72.4749     83.9407   3.5156804308e+01   5.1936827328e+01    0.2199161     0.148489 -51.91 0.0003312761    1.463    0.317
        89 -10.1484    113.1524     82.7494   2.1633061479e+01   4.3853841193e+01    0.2729331    0.2043226 -57.30  0.001308038    1.368    0.269
        90 -10.2080     67.3292     81.4729   3.6401246563e+01   5.3455384068e+01    0.3648388    0.2815057 -23.84  0.001733755    1.545    0.353
        91  -9.0967    118.7572     78.3197   1.8822460719e+01   4.3502015424e+01    0.1483009    0.1122293 -71.18 0.0006889544    1.520    0.342
        92 -10.4672     89.1564     77.1035   2.7067266438e+01   5.0196100879e+01    0.4588393    0.2523781  50.79  0.001773681    1.889    0.471
        93 -10.2517     94.5134     75.4509   2.4798534606e+01   4.9414878411e+01     0.417619    0.3184085 -66.71 0.0006453464    1.483    0.326
        94 -11.3756     53.0995     76.0374   4.0705224479e+01   5.7165616838e+01    0.4209656    0.3768754  63.67  0.001709284    1.218    0.179
        95  -9.9458     47.6617     74.2868   4.2638573876e+01   5.8429829421e+01    0.5032845    0.2572485 -30.24  0.001764401    3.026    0.669
        96  -9.2184     38.3132     77.6572   4.8045954161e+01   5.8894532598e+01    0.1521226    0.1117029  67.89 0.0007046916    1.705    0.413
        97 -11.0552     14.1236     74.6365   5.9668672395e+01   6.2153715142e+01    0.3823971    0.2747712 -79.99   0.00182607    1.422    0.297
        98 -11.1991    237.8025     73.8020   3.5898870282e+02   2.0249798940e+01    0.2616467    0.1226076 -59.43  0.001296541    2.511    0.602
        99  -9.5321    103.5075     74.4705   2.1760367653e+01   4.7659710851e+01    0.1497533    0.1448884 -83.93 -2.785689e-06    1.002    0.002
       100 -11.6394     27.6518     73.2403   5.2203221211e+01   6.1276160431e+01    0.3739983    0.2749918  -3.22 0.0002842253    1.534    0.348
       101 -10.5075     34.4174     71.2672   4.8184233722e+01   6.0990116835e+01    0.4564303    0.2209223  32.83  0.001423557    2.060    0.515
       102 -10.3593     40.9111     72.9633   4.5448348175e+01   5.9722547815e+01    0.3246645    0.2530679   7.63 0.0006932784    1.425    0.298
       103 -10.4884     40.0723     68.7528   4.4581243982e+01   6.0866093653e+01    0.3055262    0.2465389  30.36 0.0008271477    1.261    0.207
       104  -9.7042     80.8765     71.3000   2.7997064297e+01   5.3151539457e+01    0.2642088    0.1877496 -29.11  0.001120679    1.670    0.401
       105 -11.7231    122.7659     68.4107   1.4777801147e+01   4.4466734693e+01    0.4163186    0.2477236  48.37  0.001107407    1.746    0.427
       106  -9.6257     13.9362     67.3385   5.8181998417e+01   6.4054849336e+01    0.5399825    0.2004635   8.49  0.001890877    3.439    0.709
       107  -9.9326    218.7920     67.3985   3.5947520118e+02   2.4373567220e+01    0.1499404    0.1130294  54.18 0.0009561729    1.677    0.404
       108 -10.4445    101.9516     66.8830   1.9715409987e+01   4.9502062137e+01    0.2336314    0.2108526 -49.13 0.0003939507    1.108    0.097
       109 -10.4059    105.5961     63.4588   1.7532726996e+01   4.9321741272e+01    0.2541716    0.2259858 -59.23 0.0005994213    1.119    0.106
       110 -11.7078     39.6633     56.6133   4.0698853352e+01   6.3764480981e+01    0.3784864    0.2383857  37.75 0.0007985923    1.605    0.377
       111 -11.6224     43.3988     60.6594   4.0227368722e+01   6.2288919436e+01    0.4906046     0.253509 -54.58 0.0009408719    1.933    0.483
       112 -11.8565     46.4526     59.5044   3.8293963040e+01   6.2075753541e+01    0.6738042    0.2717844  44.44  0.002225531    2.730    0.634
       113 -10.6227     92.7242     62.5924   2.1006478521e+01   5.2389409284e+01    0.3372684    0.2523486  72.17 0.0008929516    1.554    0.356
       114  -9.7560    202.1039     63.3099   3.2506512720e-01   2.8059522440e+01    0.1889027    0.1398212 -37.55  0.001141929    1.232    0.188
       115  -9.3805    150.9680     60.7373   6.7534961801e+00   3.9284782176e+01     0.186068    0.1703304 -74.41 0.0004946283    1.032    0.031
       116  -9.5303    113.5875     60.2252   1.4350677101e+01   4.8058382738e+01    0.2012198    0.1425468 -28.21 0.0009467536    1.625    0.385
       117  -9.9178     29.5981     60.2208   4.7392319765e+01   6.4272255998e+01    0.3204741    0.1965007 -55.34  0.001345007    1.552    0.356
       118  -9.6156     25.9940     59.4775   4.9183943369e+01   6.4868860362e+01    0.3334865    0.2198835   5.20   0.00151434    1.730    0.422
       119 -11.2198     24.3843     56.1667   4.9062688885e+01   6.5838485571e+01    0.5782663    0.3601191   8.06   0.00274695    1.830    0.453
       120 -11.6803     75.6705     55.1177   2.4034454402e+01   5.7522918937e+01    0.6240091     0.260033 -47.84  0.002229055    2.552    0.608
       121 -11.3561     72.8472     47.3047   2.1966402799e+01   5.9576531595e+01    0.8301671    0.4628488 -62.86  0.003123097    2.974    0.664
       122 -10.1976     87.9936     55.9828   2.0110892521e+01   5.4686574201e+01    0.4814865    0.1945125 -32.58  0.001583043    3.354    0.702
       123 -10.4199    124.4566     56.8603   1.0701925209e+01   4.6081537900e+01    0.2505529    0.2157865  32.21 0.0002730328    1.383    0.277
       124 -10.1068    118.5522     56.5081   1.1914224550e+01   4.7532995619e+01    0.3414584    0.1999916 -89.21  0.001261587    2.945    0.660
       125 -10.5199    106.3866     58.2413   1.5529338488e+01   5.0084356976e+01    0.2721508    0.2237631  79.99 0.0004548582    1.292    0.226
       126 -12.1841    243.8967     51.8417   3.5403238119e+02   2.2127872855e+01     0.473076    0.2389261 -68.34  0.001665856    2.302    0.566
       127  -9.6214      2.3047     54.9697   6.2362023439e+01   6.7929921616e+01    0.1915548    0.1522573 -49.51 0.0004214993    1.114    0.103
       128  -9.8951    156.3076     53.5285   3.8115787450e+00   3.9182362488e+01    0.3220426     0.180988 -82.77  0.001339325    2.548    0.608
       129 -11.5626     57.1895     50.0358   2.9536945873e+01   6.2212247945e+01    0.6751416     0.359327  47.82  0.001109248    1.941    0.485
       130 -10.0680     61.7523     46.3109   2.5979415135e+01   6.2048175032e+01    0.3214807    0.2109461 -26.40   0.00127499    1.848    0.459
       131  -9.2314    202.3032     52.3248   3.5772419155e+02   2.9553231220e+01    0.1124023   0.09758075   5.75 0.0004323772    1.640    0.390
       132  -9.7772    126.2678     51.8140   8.6690605349e+00   4.6469423842e+01    0.2703921    0.1774071  -9.90  0.001145402    2.492    0.599
       133  -9.9844    112.5278     50.1882   1.1171056517e+01   5.0002079188e+01    0.4308356    0.3358953   5.71  0.002124681    1.822    0.451
       134 -11.9975    119.6941     37.4261   5.1225978305e+00   5.0191522741e+01    0.7325352    0.3486083 -46.83  0.002745731    2.135    0.532
       135 -11.1741    117.1900     47.2340   9.0712339210e+00   4.9355317965e+01    0.4661847    0.3267213  19.26  0.002029183    2.240    0.554
       136 -10.9779    116.5072     43.4874   7.9145426787e+00   5.0089650848e+01    0.3332239    0.3150051  26.62  0.001246567    1.225    0.183
       137  -9.8743    155.3596     48.4059   2.4829855078e+00   4.0151750668e+01    0.2427178    0.1295784 -17.85 0.0008068354    3.073    0.675
       138 -10.9756     31.9352     52.6483   4.3478500647e+01   6.5738866261e+01    0.4634269    0.2626321  12.16  0.001990517    2.239    0.553
       139  -9.5243     81.6792     49.6811   1.9780952500e+01   5.7231228327e+01    0.1519898    0.1431327  84.17 0.0004569452    1.093    0.085
       140  -9.5926     83.1717     46.6025   1.8056505723e+01   5.7436719629e+01     0.239356    0.1991326  18.06 0.0007783197    1.425    0.298
       141 -12.4350     41.4385     44.2757   3.4853070534e+01   6.6136484950e+01    0.9484779    0.4245591  39.30  0.002443251    2.196    0.545
       142 -11.1278     26.2555     42.6968   4.3022666767e+01   6.8673955286e+01    0.3780741    0.3046465  65.49  0.001300692    1.643    0.391
       143 -10.1165     22.8308     37.0910   4.2871091174e+01   7.0295558484e+01     0.532787    0.1914047  38.27  0.002062533    2.888    0.654
       144 -10.3486     13.1423     46.5875   5.2980337283e+01   6.9204097336e+01    0.4055091    0.1818822 -37.57  0.001701203    2.315    0.568
       145  -9.5600      2.4843     48.6587   6.0762605067e+01   6.9468644495e+01    0.2068565    0.1211306  10.04 0.0006545268    1.782    0.439
       146 -10.1711     20.5069     45.8580   4.7900210446e+01   6.8651951125e+01    0.2294411    0.1874038  11.18 0.0005398557    1.221    0.181
       147  -9.7377    144.9465     43.0511   2.4917073043e+00   4.3338784856e+01     0.249108    0.1269274  43.41   0.00102121    2.660    0.624
       148 -10.8551    109.9636     39.6689   7.9971500764e+00   5.2233897902e+01    0.5530232    0.3003917 -16.13  0.001726086    3.036    0.671
       149  -9.7782    156.0790     42.1455   5.6379573906e-01   4.0866080233e+01    0.1890702    0.1872442  18.29  0.001052735    1.246    0.197
       150 -10.8442     56.7768     41.8223   2.6201613843e+01   6.3858725595e+01    0.2598074    0.2141302  49.10 0.0004406612    1.218    0.179
       151 -10.8453     18.1584     40.5630   4.7447554325e+01   7.0086627564e+01    0.3100738    0.2107782 -31.79  0.001140949    1.456    0.313
       152 -11.0383      3.7339     36.6776   5.6415696523e+01   7.2211468214e+01    0.4781812    0.3512361 -54.34  0.002796533    1.253    0.202
       153 -10.7417    249.7150     38.8499   3.5106380498e+02   2.2753626462e+01    0.2017127    0.1293231 -59.89 0.0005570973    1.298    0.230
       154 -11.0551     79.1890     35.0090   1.4512399497e+01   6.0215243579e+01    0.6123787    0.4375552 -33.22   0.00251778    1.495    0.331
       155 -10.7436    227.7884     37.4487   3.5221664635e+02   2.6661666128e+01    0.1958691    0.1060967  84.96  0.001141374    2.109    0.526
       156  -9.9515     60.5268     36.9491   2.2346605747e+01   6.3968401213e+01    0.2613285    0.2252975 -36.91 0.0006776536    1.210    0.173
       157 -10.6337     63.4568     33.3673   1.9462761644e+01   6.3946714586e+01    0.4761366    0.1996611  45.51 0.0009667453    2.268    0.559
       158 -10.6858    153.1251     35.6407   3.5906057536e+02   4.2419413814e+01    0.2368429    0.2063172 -62.87 0.0005917721    1.041    0.039
       159 -10.1673    175.8938     34.5748   3.5603167297e+02   3.7389821150e+01    0.2736748    0.1572329 -58.67  0.001166219    1.618    0.382
       160 -10.6965    219.3071    248.3171   3.2530217883e+01  -2.4348128571e+00    0.1911502    0.1196858  -8.56  0.001344344    1.248    0.199
       161 -12.1895    112.6839     25.1443   2.0344245892e+00   5.3504838311e+01    0.7101951    0.3229112  59.69  0.003092218    1.996    0.499
       162  -9.4036    202.3322    250.3178   3.5613185135e+01  -1.1531298348e+00     0.113387   0.06318726  -7.68 0.0007047832    1.690    0.408
       163  -9.5618    217.0008     32.0281   3.5180816092e+02   2.9294962631e+01     0.144946    0.1080161 -51.44 0.0003850563    1.044    0.043
       164 -10.7855      9.6463     30.2227   4.9416369123e+01   7.3170208505e+01    0.4735069    0.3053069  14.97  0.002587586    1.541    0.351
       165 -10.0477     60.0000     23.9156   1.6197686158e+01   6.6111123169e+01    0.3055784    0.1311173 -30.79  0.001239077    2.637    0.621
       166 -11.6976     57.8588     29.6391   1.9979631403e+01   6.5711199848e+01    0.4632126    0.2916451  34.14  0.001509894    1.688    0.407
       167 -11.1243     47.8591     30.4571   2.5008214610e+01   6.7570588850e+01    0.6810234    0.2611576  37.96  0.002312378    2.774    0.639
       168 -10.5624    177.2418     29.0462   3.5442821702e+02   3.7773131266e+01    0.2992596    0.1700449 -21.20  0.001480116    2.215    0.548
       169 -10.7304    171.3521     30.0378   3.5529276458e+02   3.8956340518e+01    0.4074125    0.1748256  84.17   0.00161279    2.802    0.643
       170 -10.6998    131.9283    240.4996   4.7777986753e+01   7.6155740815e+00    0.1862587    0.1007057  24.93 0.0008548709    1.564    0.361
       171 -10.9279    157.2376     29.0242   3.5659117651e+02   4.2293393533e+01    0.2654652    0.1982879 -33.85 0.0007639596    1.379    0.275
       172 -12.1255    127.3247     28.4779   6.2975968999e-01   4.9505684533e+01    0.6835958    0.3632569  79.77  0.001855485    2.026    0.507
       173 -11.7608     26.4103     27.5459   3.5909817439e+01   7.1711616013e+01    0.4727546    0.3414986 -57.77  0.001880117    1.668    0.401
       174 -10.5063    189.0865     27.3103   3.5289294691e+02   3.5431953522e+01    0.2810338    0.2119024  44.55   0.00161144    1.824    0.452
       175 -11.1680    183.4138     26.3526   3.5314795639e+02   3.6752174984e+01    0.3798264    0.1682492 -43.74  0.001875693    1.847    0.459
       176 -10.8989    150.0625     27.4365   3.5700214583e+02   4.4163998740e+01    0.5041879    0.1585955  59.77  0.001945544    2.963    0.663
       177 -10.9287    143.5347     25.4044   3.5722030997e+02   4.5956379469e+01    0.3572171    0.1553818  73.61   0.00153169    2.276    0.561
       178 -11.8438    149.3235     22.5372   3.5560525254e+02   4.4912492740e+01    0.5397702    0.2314622  78.05  0.001625219    2.406    0.584
       179 -11.0498    230.2002     26.5752   3.4976020719e+02   2.7501496925e+01    0.1868285    0.1802633 -60.29  0.001494932    1.387    0.279
       180 -10.4506    200.5216     27.5069   3.5200456188e+02   3.3047994875e+01    0.1666461    0.1098454 -25.72 2.855754e-05    1.695    0.410
       181 -10.3391    206.0793     25.2954   3.5106899367e+02   3.2192567812e+01    0.1945423    0.1394417 -48.39 0.0004596151    1.128    0.113
       182 -10.7444    169.4263     23.3558   3.5366351961e+02   4.0176987225e+01    0.2707608    0.2064301 -44.50 0.0009960177    1.214    0.176
       183  -9.4362     97.0124     25.7605   5.6010431241e+00   5.7269798465e+01    0.1894509     0.109056  63.93 0.0008838534    1.618    0.382
       184 -11.1763    248.6007    224.1667   2.4614314744e+01  -2.0484294636e+00    0.1960242    0.1046768 -13.63  0.001309967    1.647    0.393
       185 -10.6514    134.5430     22.2464   3.5742978737e+02   4.8489381877e+01    0.3092934    0.2854227   7.42  0.001923993    1.363    0.266
       186 -10.4610     46.4403     23.9995   2.2318881999e+01   6.8884972019e+01    0.3149315    0.2331768  20.36  0.000839194    1.478    0.323
       187 -12.0707    245.5764     21.3267   3.4784890169e+02   2.5420802838e+01     0.442686    0.1954375  67.85   0.00263839    2.676    0.626
       188 -10.8549      5.3967    200.7883   7.4838623598e+01   2.9309744671e+01    0.1774225    0.1073385 -70.49 0.0009568424    1.724    0.420
       189 -11.4458      6.3471    185.7245   7.3928771415e+01   3.2852804460e+01    0.3710225    0.2132635  37.80  0.001936686    1.529    0.346
       190 -10.6599    177.0425     21.9915   3.5258229796e+02   3.8639418231e+01    0.2391375    0.2200244  37.78 0.0007526024    1.454    0.312
       191 -10.8877    181.5977     19.2365   3.5147183272e+02   3.7953691438e+01    0.3516893    0.2059196  66.77   0.00122647    1.779    0.438
       192 -10.5326     68.7045     20.6385   1.1308747645e+01   6.4621576788e+01    0.3371109    0.2476688 -51.25   0.00171099    1.562    0.360
       193  -9.3493     39.4699     15.4557   2.1012369422e+01   7.1494179331e+01    0.2155811    0.1646563  47.70 0.0008235645    1.273    0.214
       194  -9.6781     32.2540     20.9928   2.8514355461e+01   7.1946936001e+01    0.1799304    0.1629148 -15.34 0.0005048978    1.102    0.092
       195  -9.8480     38.7045     21.3580   2.4926222982e+01   7.0755140779e+01    0.2314629     0.207543  44.73  0.001189115    1.171    0.146
       196 -11.2056      3.1502    182.0354   7.4647497200e+01   3.3999479204e+01    0.3892105    0.1844213 -57.41   0.00178066    2.306    0.566
       197  -9.1494     50.6046    170.4691   5.9815970105e+01   3.2529036474e+01    0.1424546    0.1307386  66.67 8.580821e-05    1.032    0.031
       198 -11.8438      9.4349    166.5237   7.2007424294e+01   3.7489263942e+01    0.3380082    0.2861812 -19.52  0.001421578    1.432    0.302
       199  -9.7261     46.8084     19.9862   1.9910876687e+01   6.9413080441e+01    0.1978848    0.1830074 -83.37 0.0009521109    1.330    0.248
       200  -9.6422    216.7820     19.8029   3.4911700631e+02   3.0734173588e+01    0.1693351   0.09918115 -55.37 0.0005190696    1.332    0.249
       201 -12.0877     13.1971    159.9628   7.0413618673e+01   3.8928086226e+01    0.4439488    0.3281129 -36.85  0.002359961    1.605    0.377
       202  -9.8507    205.0587    162.9910   2.1183527323e+01   1.1462418443e+01    0.1940846    0.1566767 -26.54 0.0008508735    1.024    0.024
       203  -9.3154     74.9611     19.1697   8.5708161362e+00   6.3359931224e+01    0.2310004     0.130477  38.74 0.0007383149    1.955    0.489
       204  -9.7570     28.6837    160.3490   6.5538936627e+01   3.7495156664e+01    0.1585525   0.09263864  59.15 0.0007047631    1.729    0.421
       205 -10.0382    104.4014    154.4152   4.1521049416e+01   2.8999101710e+01    0.2781756    0.2426237 -44.25   0.00147997    1.151    0.131
       206 -12.1166     22.0401    149.6035   6.6692731050e+01   4.0986170121e+01    0.7443712    0.3548704 -33.97   0.00192055    3.015    0.668
       207  -9.9764     16.4399    147.7028   6.8402137243e+01   4.1966750742e+01     0.296187    0.1071009 -67.38  0.001117357    2.440    0.590
       208 -11.1169    228.7791     15.7640   3.4757399090e+02   2.8948138256e+01     0.213025    0.1388045 -57.41 0.0004691687    1.159    0.138
       209 -10.3094      4.2791    153.3948   7.2824358961e+01   4.1314582039e+01    0.1960589    0.1134713  34.62 0.0009514659    1.649    0.394
       210 -10.0967    147.3231     16.3127   3.5393031607e+02   4.6072840613e+01    0.1259607   0.09540153  42.57 0.0005901621    1.657    0.397
       211  -9.4194    240.5384    152.5148   1.3964650520e+01   8.4629561526e+00    0.1163055   0.08795563 -30.28  0.000201949    1.034    0.032
       212 -10.9585    240.6266     32.1952   3.5028957512e+02   2.5038268340e+01     0.239494    0.1560667 -26.88  0.001570047    1.664    0.399
       213 -10.8723     47.0255    146.5126   5.7925914668e+01   3.9277993057e+01    0.5267302    0.2202343 -55.32   0.00199426    2.293    0.564
       214 -11.8508      4.0464    142.3088   7.2195249726e+01   4.4314419308e+01     0.658372    0.3186998  39.19  0.002641687    1.953    0.488
       215 -10.8470     32.8298    143.7749   6.2407130273e+01   4.1570206263e+01     0.285373    0.2674269 -87.17 0.0006213685    1.032    0.031
       216 -10.6119     40.3354    137.5187   5.8977824032e+01   4.2494238587e+01    0.3353342    0.2323963 -85.56 0.0002685904    1.479    0.324
       217 -11.1324     23.8932    137.2274   6.4792837152e+01   4.4213855626e+01    0.5101708    0.2348612 -44.26   0.00197593    2.493    0.599
       218 -11.4496    107.1979     31.3419   5.4981161168e+00   5.4065083761e+01    0.5597066    0.3094473  41.39  0.002450814    2.175    0.540
       219  -9.9500     20.5962    133.8923   6.5617494004e+01   4.5419170967e+01    0.2580433    0.2247151 -70.51  0.000962114    1.101    0.092
       220 -11.8881     12.1039    134.9317   6.8793014095e+01   4.5791994928e+01    0.6693603    0.3412337 -66.17  0.002354009    1.781    0.439
       221 -10.9976     30.1562    132.7822   6.2000259452e+01   4.4861578237e+01    0.4729813    0.3210568 -82.21  0.001913462    1.441    0.306
       222 -10.3048     26.1524    131.1942   6.3271340629e+01   4.5679904907e+01     0.244565    0.2218533 -87.62 0.0003541889    1.028    0.027
       223 -10.9384     10.9567    125.6201   6.8350428514e+01   4.8446810344e+01    0.6862941    0.2465146 -45.84  0.002408398    3.096    0.677
       224  -9.5131     39.8060    133.1865   5.8548748550e+01   4.3744228295e+01    0.2003789    0.1700184 -29.49 0.0004366235    1.321    0.243
       225  -9.1390     22.7246    126.3586   6.3963286661e+01   4.7328113408e+01     0.156029   0.09995919  64.49 0.0007006133    1.655    0.396
       226 -10.7162    104.2100    122.4948   3.4857440647e+01   3.6721343721e+01    0.3442781    0.2852094  42.12  0.001568492    1.229    0.186
       227  -8.9263     59.6612    123.2880   4.9666162112e+01   4.3936423734e+01    0.1610608    0.1126726  62.48 0.0003087494    1.638    0.389
       228  -9.8258     49.0299    122.4941   5.3420986283e+01   4.5583520683e+01    0.2276591    0.1504643  26.83 0.0004727542    1.568    0.362
       229 -10.5309     43.7528    117.2722   5.4488772828e+01   4.7668476486e+01    0.5849546    0.2533504 -78.81  0.001932286    3.030    0.670
       230  -9.1635    218.4744    116.4617   9.9804059274e+00   1.7045344364e+01    0.1257156    0.1008027 -40.32 3.286991e-05    1.040    0.039
       231 -10.2286     79.0404    114.6425   4.0973505946e+01   4.3173457170e+01    0.3031972    0.2244066 -46.63 0.0008360045    1.357    0.263
       232 -11.1501     35.3280    102.8788   5.5226220549e+01   5.2587883881e+01    0.4125417    0.2492618  -3.19 0.0003397415    2.255    0.556
       233 -11.8893     26.7995    105.8773   5.9402847933e+01   5.2644637705e+01    0.7859161    0.6554899 -45.71   0.00420076    1.199    0.166
       234 -11.5784     27.4659    112.5001   6.0186114815e+01   5.0750130020e+01    0.5364937    0.3196219  45.52  0.002404785    1.746    0.427
       235 -11.9594      2.6893    111.4817   7.0267710768e+01   5.2866645822e+01    0.4729987    0.3597959  86.68  0.001375971    1.230    0.187
       236 -11.5022      3.4828    104.7897   6.9277977891e+01   5.4670037662e+01    0.4864163    0.3470365  48.79  0.001211457    1.460    0.315
       237 -10.0687     48.8742    111.7671   5.1440392421e+01   4.8524170074e+01    0.2195185    0.2070521 -25.99  0.000462968    1.123    0.110
       238 -10.7362      8.0067    114.1330   6.8357684012e+01   5.1825845963e+01    0.3409788    0.2319008 -60.52 0.0009064053    1.362    0.266
       239 -11.5654     79.4255    108.2688   3.9302328035e+01   4.4723085236e+01    0.6303094     0.428093   5.24  0.002557559    2.223    0.550
       240 -10.1922     58.8131    109.6781   4.7148153028e+01   4.7698782743e+01    0.2721435    0.2196837 -79.14 0.0007589954    1.301    0.231
       241 -11.7547     22.5615     94.8288   5.9371360087e+01   5.6062733061e+01    0.5800949    0.3081507 -29.07  0.002337725    2.363    0.577
       242 -10.4643     16.5712    108.7486   6.4173143409e+01   5.2726210994e+01     0.443435    0.3594832  41.81   0.00204447    1.281    0.219
       243 -11.6829     17.8225    101.9441   6.2669139296e+01   5.4510311912e+01    0.5230281    0.3190393 -76.93  0.001226062    1.563    0.360
       244  -9.8429    104.6862    108.4529   3.1253335562e+01   3.9956527364e+01    0.4198504      0.21704  28.72  0.001497979    2.649    0.622
       245 -10.0761     46.3212    103.3699   5.0717648025e+01   5.1124528103e+01    0.5825567    0.1294641 -48.74  0.001512295    4.574    0.781
