#   1 NUMBER                 Running object number                                     
#   2 MAG_AUTO               Kron-like elliptical aperture magnitude                    [mag]
#   3 X_IMAGE                Object position along x                                    [pixel]
#   4 Y_IMAGE                Object position along y                                    [pixel]
#   5 X_WORLD                Barycenter position along world x axis                     [deg]
#   6 Y_WORLD                Barycenter position along world y axis                     [deg]
#   7 A_WORLD                Profile RMS along major axis (world units)                 [deg]
#   8 B_WORLD                Profile RMS along minor axis (world units)                 [deg]
#   9 THETA_WORLD            Position angle (CCW/world-x)                               [deg]
#  10 FWHM_WORLD             FWHM assuming a gaussian core                              [deg]
#  11 ELONGATION             A_IMAGE/B_IMAGE                                           
#  12 ELLIPTICITY            1 - B_IMAGE/A_IMAGE                                       
         1 -15.3122      6.3751     69.2722   1.1792399794e+02   6.0364115624e+01      1.47367    0.8922957 -72.86  0.005293647    1.398    0.285
         2 -14.2583      7.1502     47.0721   1.1287318828e+02   6.5030918648e+01     1.053312     0.900375 -88.35  0.007808525    1.443    0.307
         3 -13.6558     58.7048     63.8842   9.8012818441e+01   5.6846927763e+01     1.587498    0.8594617 -25.86  0.003862123    2.531    0.605
         4 -14.8365    119.8345     54.7439   7.5531491310e+01   4.7755163183e+01     1.040191    0.8609121  37.18  0.001674637    1.213    0.175
         5 -14.8015    121.0065     37.5496   6.8950708173e+01   5.0233279277e+01     1.603397    0.7096942  48.39  0.006126352    2.160    0.537
         6 -13.2352    232.8446      2.0507   4.0560017213e+01   2.6088548031e+01     1.329108    0.2650017  65.25  0.004488118    3.937    0.746
         7 -15.5619    190.2730     24.3674   5.1165576090e+01   3.4382951421e+01     3.950981     1.857588  76.30   0.01531116    2.389    0.581
         8 -13.2339    187.4588     12.4603   4.7983545437e+01   3.6447648090e+01    0.6026475    0.5701993  -3.94  0.002275903    1.183    0.155
         9 -13.2962    223.7357     21.0816   4.6212569593e+01   2.6216152183e+01    0.6226283    0.4291386  56.53  0.001046578    1.513    0.339
        10 -14.5981    217.5224     42.0207   5.2538890610e+01   2.5116049462e+01     1.599389    0.8421727  64.94   0.00507699    1.907    0.476
        11 -14.3741    218.5299     15.1897   4.5206023500e+01   2.8186296478e+01     1.037999    0.6640165  40.46   0.00474868    1.942    0.485
        12 -14.0406    215.0424      9.9377   4.4168898347e+01   2.9632501374e+01     1.187625    0.5717057  50.45  0.003529574    2.274    0.560
        13 -13.8511    242.2793     34.8568   4.7776542755e+01   2.0039997386e+01    0.9158174    0.6412571  84.23  0.003175733    1.501    0.334
        14 -13.6149      2.9498     10.4782   1.0302113737e+02   7.2206955824e+01    0.7076778    0.2959444 -51.69  0.004006061    1.922    0.480
        15 -13.2425      7.7811      2.6185   9.6864564726e+01   7.3165993473e+01    0.5980284    0.3877528  31.76  0.002681428    2.068    0.516
        16 -15.1049      9.0063     29.3316   1.0698545740e+02   6.8435542229e+01      1.03043    0.7078217  17.55  0.007163614    1.761    0.432
        17 -15.2849     13.8567     20.0320   1.0134242194e+02   6.9813877690e+01     1.022915    0.8716145   1.75  0.006655071    1.341    0.254
        18 -14.8908     23.4632     13.9340   9.4071880973e+01   7.0040578438e+01     0.783493    0.4910046  22.62  0.002761822    1.763    0.433
        19 -13.1747    139.2926     22.2889   5.9052391877e+01   4.7834775479e+01    0.8442453     0.577816  66.50  0.002118244    1.499    0.333
        20 -14.7420    166.6308     30.1566   5.6639474424e+01   3.9875572039e+01     1.603412    0.9850913  67.51  0.004918245    1.628    0.386
        21 -12.6521    120.1070     26.7479   6.5041106268e+01   5.1921271659e+01    0.6984032    0.4189721  43.71  0.003286747    1.584    0.369
        22 -12.8807     71.8611     16.7793   7.5022398783e+01   6.3086425629e+01     0.604363    0.3037366 -31.65  0.001960649    1.865    0.464
        23 -14.4478    146.0477     30.3392   6.0568158846e+01   4.5152435050e+01     1.169077    0.6252609  51.86  0.003810292    1.739    0.425
        24 -15.5418     98.0498     12.6957   6.4987489867e+01   5.8502431906e+01     1.693609    0.7518918  49.71  0.003763384    2.063    0.515
        25 -11.2586     33.2912      1.1751   8.2954262652e+01   7.0847597923e+01    0.1912449    0.1017682  28.83 0.0006177681    1.922    0.480
        26 -12.4832     39.2736     14.8495   8.7113596978e+01   6.8189966591e+01     0.430849    0.2689987  21.68  0.002606245    1.674    0.403
        27 -14.4587     42.7774      5.4099   8.0874020591e+01   6.9072425550e+01    0.8808416    0.6383267 -18.79  0.004461303    1.140    0.123
        28 -11.4888    152.9720      8.5961   5.1676754044e+01   4.5813126269e+01    0.2275476    0.1944841  14.09 0.0006904354    1.258    0.205
        29 -11.0792     59.5273      6.7495   7.4701083523e+01   6.6417226274e+01    0.2398235    0.1561549  57.41  0.001290632    2.350    0.574
        30 -10.3454    161.3159      6.2985   4.9610385324e+01   4.3876235305e+01    0.1473494   0.09569998  38.74 0.0007017382    1.611    0.379
        31 -11.7057    119.9643      3.7721   5.5952174077e+01   5.4445303432e+01    0.2750444    0.1755848  58.34 0.0007224975    1.445    0.308
        32 -12.3084    116.9271      1.4915   5.5666721374e+01   5.5359720038e+01    0.2809666     0.236303  60.24 0.0008635967    1.187    0.158
        33 -12.7040     79.2078      2.2015   6.5661873560e+01   6.3415817321e+01    0.5599846    0.2162358  45.95  0.002510658    2.294    0.564
        34 -11.6493    183.3070      2.6015   4.5543968404e+01   3.8500150167e+01    0.3664472    0.1982753 -62.62   0.00159098    2.204    0.546
        35 -12.4829     61.9592      1.9925   7.1370389963e+01   6.6560397983e+01    0.3388981    0.1969864  46.19  0.001891688    1.800    0.445
        36 -10.9411     28.4262      1.7581   8.5613782188e+01   7.1343740104e+01    0.1628752   0.08616813 -25.38 0.0009426581    1.597    0.374
        37 -13.1056     74.0649    153.3207   1.1260629309e+02   3.4379189876e+01    0.5455076    0.4514904  33.63  0.002694642    1.446    0.308
        38 -12.8259     57.0743    246.9173   1.2524247174e+02   1.8169802989e+01    0.4385797    0.3054598  40.61  0.003229281    1.617    0.382
        39 -12.0869     40.5061    243.9449   1.2768368785e+02   2.0650795119e+01    0.3321094    0.1601743 -85.24  0.002160113    1.960    0.490
        40 -13.7677     27.8710    245.7146   1.2972876100e+02   2.1775345941e+01     0.624113    0.2818236  79.91  0.004006904    1.958    0.489
        41 -11.8410      2.7122    249.8371   1.3359969864e+02   2.3680587086e+01    0.2596272    0.1360311  51.94  0.001751676    1.457    0.314
        42 -13.9912      9.0248    245.7611   1.3253821957e+02   2.3728309083e+01    0.6673596    0.3074213  59.74  0.003178934    1.499    0.333
        43 -11.9746    121.2005    156.8020   1.0210768518e+02   2.5915206192e+01    0.1917986    0.1757001  -3.58  0.001078825    1.368    0.269
        44 -10.9446    112.4982    157.4819   1.0424771683e+02   2.7333639183e+01    0.1413341    0.1283703  78.74 0.0008103526    1.017    0.017
        45 -12.3189    210.7191    155.1970   8.2623565256e+01   8.0971914878e+00    0.3730518    0.2251472  30.05  0.001688968    1.801    0.445
        46 -11.1786     56.1838    155.9635   1.1713914717e+02   3.6138324545e+01    0.2034111     0.123574 -49.17 0.0009780083    1.930    0.482
        47 -11.8375     85.8033    152.8305   1.0974743265e+02   3.2769230448e+01    0.4063214     0.234431 -51.78  0.001981226    1.785    0.440
        48 -11.9487    103.3413    150.1943   1.0511167928e+02   3.0533132136e+01     0.377823     0.289631 -34.65  0.001965923    1.665    0.399
        49 -12.3089    244.3023    147.1039   7.4810291348e+01   2.7287408655e+00    0.3410771    0.1504453 -37.88  0.001440073    2.188    0.543
        50 -13.3425     22.3829    181.2027   1.2677327514e+02   3.4386402949e+01    0.4898156     0.318898 -81.16  0.002326029    1.262    0.208
        51 -11.4443     63.4649    147.5032   1.1428808955e+02   3.7138860244e+01    0.1308031    0.1118795 -83.26 1.689585e-06    1.035    0.034
        52 -10.5723    212.3201    200.3504   9.1301471447e+01   7.7290377564e-01    0.1364063   0.09042374  10.79 0.0007048181    1.742    0.426
        53 -12.4270     44.1753    132.8365   1.1696963232e+02   4.2815409914e+01    0.3241168     0.266719 -81.48  0.001398598    1.006    0.006
        54 -12.8318    246.0085    134.2396   7.1631336337e+01   4.3617711681e+00    0.4303437    0.3278667 -57.71  0.002249451    1.749    0.428
        55 -10.8341     81.1351    135.8645   1.0803860207e+02   3.7365127828e+01    0.1745451    0.1525451 -47.70  0.001016534    1.261    0.207
        56 -14.3784    233.5423    127.5155   7.2152141155e+01   7.9517955967e+00    0.7600177    0.7137272 -48.26  0.004425315    1.204    0.170
        57 -10.9026     63.1142    134.2970   1.1237358237e+02   4.0235940722e+01    0.1892954     0.178472  -4.66  0.001206869    1.386    0.279
        58 -10.4303     11.2930    134.2925   1.2518982170e+02   4.5488957300e+01    0.1105876   0.07321845 -55.57 0.0004643337    1.553    0.356
        59 -12.5304    134.3453    102.7986   8.6629993232e+01   3.5108070908e+01       1.1737    0.3214602  49.33  0.002670522    4.007    0.750
        60 -13.0877    120.8464    102.2681   8.9999299439e+01   3.8064075377e+01    0.6387699    0.3544763  42.18  0.002651535    1.887    0.470
        61 -12.6866     76.9963    116.9453   1.0553038986e+02   4.2393830884e+01    0.6501959    0.4113616 -64.13  0.003234973    1.473    0.321
        62 -13.8480     86.3112    113.1759   1.0214875535e+02   4.1856028761e+01     1.666091    0.9336686 -31.09   0.00623218    2.831    0.647
        63 -15.0584    106.2394    106.2408   9.4986306393e+01   4.0022925901e+01     1.661952     1.348845 -21.24  0.008433956    1.478    0.323
        64 -12.9622     28.7750    122.5790   1.1952485691e+02   4.6704741379e+01    0.3443581    0.2260809 -69.35  0.002093459    1.221    0.181
        65 -11.3325     59.4072    125.6581   1.1191944562e+02   4.2723425160e+01    0.1918292    0.1609942 -18.40  0.000598259    1.619    0.382
        66 -11.6708    181.0309    121.2982   8.0640767578e+01   2.0731020065e+01    0.2890015    0.2064356  58.50 0.0008692094    1.528    0.345
        67 -11.8185      3.6973    119.8575   1.2561171598e+02   4.9247080641e+01    0.4426253     0.156154  18.44  0.002065458    4.213    0.763
        68 -14.2387     18.1246    110.8398   1.2080492318e+02   5.0277500665e+01    0.8860646    0.6763554 -29.54  0.005866283    1.705    0.414
        69 -13.7561    171.4020    242.9558   1.0532253976e+02   1.8526500861e+00    0.7820771    0.4068225  38.16  0.004426355    1.558    0.358
        70 -12.2685    147.2011    238.9235   1.0909455611e+02   6.3387345062e+00    0.1829375    0.1396857  60.10  0.001051936    1.259    0.206
        71 -11.6699    176.6192    110.8250   7.8887662998e+01   2.3788590700e+01    0.3607356    0.3042247   0.78  0.001753743    1.362    0.266
        72 -11.5875    121.5237    112.3422   9.2430842781e+01   3.5706637429e+01    0.2562794     0.142644  44.14 0.0006796758    1.853    0.460
        73 -14.3810    105.1020    122.1173   9.9055142284e+01   3.6615407335e+01     1.618722     1.035784  35.46  0.007518345    1.744    0.427
        74 -11.7699     45.5378    110.2317   1.1307693752e+02   4.7935331516e+01     0.349806      0.24629 -89.87  0.001982944    1.487    0.327
        75 -13.3821      2.2490     97.1066   1.2344857407e+02   5.4425584547e+01    0.6871443    0.2156907 -73.73  0.003106707    2.474    0.596
        76 -11.7803     62.0197    110.3061   1.0839806058e+02   4.5994706876e+01    0.1887016    0.1738268 -80.20  0.001178987    1.082    0.075
        77 -10.0731     77.3223    103.2711   1.0247155063e+02   4.5530510804e+01    0.1354452    0.1054779 -24.87 0.0001880304    1.570    0.363
        78 -12.4201     62.4543     99.4536   1.0601051286e+02   4.8467726939e+01    0.6941504    0.4214612  61.20  0.003092932    2.257    0.557
        79 -11.7437     56.3966     93.0931   1.0644479495e+02   5.0686737956e+01    0.2621258    0.2118987 -23.96  0.001537418    1.447    0.309
        80 -12.9606     52.4570     98.0362   1.0871984026e+02   5.0009476059e+01    0.7817429    0.4617674   1.37  0.003424642    3.191    0.687
        81 -12.5795     49.4729     94.4924   1.0888863481e+02   5.1163954095e+01    0.4487228    0.3714268 -55.81  0.001918898    1.054    0.051
        82 -13.4018    249.1849     97.9397   6.2554107336e+01   9.3497964945e+00    0.5989575    0.2134751 -34.67  0.002227257    2.448    0.592
        83 -12.7137    137.1005     95.6036   8.3934249141e+01   3.6017252779e+01     0.440987    0.3616896  67.40  0.001303234    1.379    0.275
        84 -11.1069     25.3636    127.1617   1.2098043407e+02   4.5954609089e+01    0.1989993    0.1660307 -37.18  0.000821908    1.537    0.349
        85 -11.6827     43.0054     91.1878   1.1020539452e+02   5.2610861748e+01    0.3712631    0.1661996 -68.68   0.00124775    2.235    0.553
        86 -10.4709    144.6513     92.6753   8.1216935639e+01   3.4907475088e+01     0.163963    0.1248346   8.05 0.0005932366    1.750    0.429
        87 -12.5011     89.6790     88.3011   9.5019097141e+01   4.6970589902e+01    0.4986202    0.3718883  45.48  0.002577043    1.472    0.321
        88 -12.4437    127.0543     85.8698   8.3704375874e+01   4.0240640455e+01    0.4738226    0.4052031   4.04  0.002377297    1.344    0.256
        89 -12.8957    132.1028     85.6823   8.2325900637e+01   3.9169134961e+01    0.4067854    0.3401392 -34.80  0.001348147    1.178    0.151
        90 -13.1187    135.4854     80.0118   7.9736616929e+01   3.9539286315e+01     0.769611    0.4764955  48.43  0.002637863    1.648    0.393
        91 -11.4249     34.5218     86.6501   1.1195791050e+02   5.4463214404e+01    0.2043229    0.1766253 -43.62 0.0006534376    1.179    0.152
        92 -12.9677    188.6174     84.2942   6.9150835343e+01   2.5815122837e+01    0.8207013     0.345715  41.85  0.002545197    2.823    0.646
        93 -12.2353    149.4939     85.1334   7.7833901223e+01   3.5273705014e+01    0.6238542    0.3286584  35.37  0.002269142    2.380    0.580
        94 -13.7607    237.2473     80.0935   5.9854261924e+01   1.4754025845e+01    0.6760038    0.4411213  83.21  0.003031879    2.130    0.531
        95 -13.9853    164.8211     71.2432   7.0142402318e+01   3.4097460686e+01     1.561615    0.9016488  56.66  0.006393002    1.772    0.436
        96 -13.6680    160.8665     80.4684   7.3809697899e+01   3.3412142914e+01     0.892081    0.6317807  23.36  0.002574755    1.803    0.445
        97 -14.4659    169.3427     77.1504   7.0971293125e+01   3.1914189438e+01     1.600466    0.6151512  52.98  0.005380119    2.580    0.612
        98 -12.0545     24.8944    217.4219   1.2868744446e+02   2.7046679917e+01    0.5713658     0.349178  67.81  0.004114521    1.217    0.178
        99 -13.7527     87.5797     65.3345   8.8750455264e+01   5.2184605731e+01    0.9239838    0.6207212  -5.66  0.003776592    2.158    0.537
       100 -13.0418     70.7860     75.6140   9.7377979818e+01   5.2704005067e+01    0.5881396    0.4679218 -28.34  0.002288183    1.276    0.216
       101 -12.5229     77.1254     73.5288   9.4699153580e+01   5.2204845137e+01    0.6348788    0.3356505 -31.98  0.002660284    2.269    0.559
       102 -12.9571     54.8677     82.0888   1.0433347895e+02   5.3367774452e+01    0.6059876    0.3514694 -42.25  0.003064168    1.624    0.384
       103 -13.7942     61.0863     75.4731   1.0054826497e+02   5.4061128219e+01    0.6834713    0.4226783 -41.31 0.0009622482    1.482    0.325
       104 -12.6311    218.3025     74.8545   6.1339616409e+01   2.0053237269e+01    0.5714836    0.3446383 -60.39  0.002353731    2.120    0.528
       105 -12.1887    216.8241     80.8028   6.3171331559e+01   1.9453162634e+01    0.5586656    0.3838896 -25.00  0.001827292    1.494    0.330
       106 -12.7156    210.6196     77.8055   6.3383533484e+01   2.1455645455e+01    0.6990578    0.4573516 -76.59  0.002848664    2.278    0.561
       107 -12.1634    114.1072     80.0109   8.5464655958e+01   4.4176520364e+01    0.4347579    0.3352487 -48.07  0.001326268    1.274    0.215
       108 -11.7553     94.6214     79.2728   9.0932394765e+01   4.8069151298e+01    0.5232802    0.1753467  44.87  0.001772946    3.301    0.697
       109 -13.2372     90.9161     57.3011   8.4958076497e+01   5.3154713312e+01    0.7140722    0.4578081 -51.43  0.002410732    1.711    0.416
       110 -11.4396     42.2457     77.0080   1.0728628747e+02   5.5892717392e+01    0.2353844    0.2027741 -32.64  0.001271996    1.195    0.163
       111 -13.8890    198.5907     69.9891   6.3250469263e+01   2.5735569932e+01     1.008791    0.7113855  30.70  0.003223913    1.723    0.420
       112 -13.4486    133.3918     67.0597   7.6156270582e+01   4.2483131826e+01     1.019246    0.7344269   7.14  0.003775911    1.869    0.465
       113 -12.1692    240.8895     70.8577   5.7003611127e+01   1.5327976840e+01    0.3915204    0.2635288 -78.72  0.001813662    1.987    0.497
       114 -10.9474    100.8289     70.0534   8.6185605730e+01   4.8825199106e+01    0.2243456     0.198682 -65.84  0.001212603    1.288    0.224
       115 -12.4653     38.5227     68.1003   1.0635970617e+02   5.8218681216e+01    0.6672554     0.358767  19.67  0.003434939    2.383    0.580
       116 -11.1959     43.8942     62.1231   1.0280249945e+02   5.8954324540e+01    0.1765005     0.155327 -61.55  0.001146325    1.200    0.167
       117 -14.0050    177.9615     57.9120   6.3401471733e+01   3.2965673606e+01    0.9228561    0.7104715 -46.09  0.002271417    1.318    0.241
       118 -12.7292    135.4180     50.7518   7.0136251320e+01   4.4820119747e+01     0.596593    0.3487918  32.98  0.002439152    2.034    0.508
       119 -13.8378     25.6890    227.4912   1.2912292691e+02   2.5139965511e+01    0.5598191    0.3036003 -64.82   0.00376993    2.106    0.525
       120 -12.8739    109.8174     42.3532   7.3774790567e+01   5.1993021224e+01    0.4564959    0.2539892  48.44  0.001343393    1.809    0.447
       121 -13.4347     20.7317    225.2032   1.2980099555e+02   2.6069443482e+01    0.3722221    0.2845627  72.41  0.002106067    1.167    0.143
       122 -12.5115     79.5455     60.9236   8.9905654818e+01   5.4413335740e+01    0.4824607     0.398704  20.70  0.002536097    1.304    0.233
       123 -13.2681     82.1763     54.6766   8.6877344674e+01   5.5185631671e+01    0.7842351    0.5509512  12.59  0.003735717    1.743    0.426
       124 -12.0280     24.3468     60.0989   1.0947702957e+02   6.1172545144e+01    0.2701918    0.1859574 -50.01  0.001016997    1.133    0.118
       125 -11.7348    100.3896     65.0622   8.4676679559e+01   4.9894947839e+01     0.389915    0.2965412 -21.49  0.001312184    1.381    0.276
       126 -13.3169    248.1840     51.6629   5.1291504814e+01   1.6427447841e+01    0.7067307    0.4528359 -28.35  0.003547722    1.517    0.341
       127 -12.0331    230.5639     55.3575   5.4390967879e+01   2.0038152457e+01    0.4481525    0.1861184  70.63  0.001613554    2.997    0.666
       128 -13.5999    103.0451     50.5358   7.8788110588e+01   5.2049516110e+01    0.7653921    0.4827229 -53.82 0.0008937225    2.016    0.504
       129 -12.5625     97.5683     50.2576   8.0344235382e+01   5.3185436002e+01    0.7239085    0.3198065 -46.48   0.00267118    2.497    0.600
       130 -13.2709     66.0641     48.9790   9.0426650164e+01   5.8806589875e+01    0.5045214    0.4573335 -59.07  0.003142342    1.337    0.252
       131 -15.1020     21.1013     97.1752   1.1798442913e+02   5.3175008626e+01     1.820535     1.196328 -16.11   0.01063133    2.212    0.548
       132 -12.8692     57.3861    201.9721   1.2176247077e+02   2.6243165783e+01    0.7521723    0.2671207 -72.65  0.003506388    2.800    0.643
       133 -13.3234     66.3240    223.1852   1.2194360392e+02   2.1080697888e+01    0.6765789    0.4966218  44.01  0.004733935    1.428    0.300
       134 -14.1554     62.8331    214.5078   1.2184244058e+02   2.3135406701e+01    0.8787107    0.4112111  48.63   0.00498618    1.764    0.433
       135 -14.1634     96.1860    238.6562   1.1806688620e+02   1.4261953629e+01    0.6311198      0.39605  58.35   0.00240668    1.272    0.214
       136 -13.0235     94.5744    218.8379   1.1641285540e+02   1.7910233204e+01    0.3195631    0.2188745  61.08  0.001535802    1.215    0.177
       137 -13.3938    205.3353     40.3426   5.3720108596e+01   2.8439024088e+01    0.7371835    0.4229528 -89.14    0.0029615    2.355    0.575
       138 -11.2556     85.4940    215.9896   1.1781003467e+02   1.9757287584e+01    0.2451137     0.131215  56.11  0.001378672    1.594    0.373
       139 -11.8627    185.5096    213.5334   9.8506515068e+01   3.6040933090e+00    0.2035541    0.1224544 -55.00  0.001039337    2.377    0.579
       140 -10.6081     82.8494     45.8688   8.3428707594e+01   5.6677522113e+01     0.171968    0.1555603 -45.78 0.0002692048    1.248    0.199
       141 -11.7232    169.8884     43.3277   6.0326855511e+01   3.7256459841e+01    0.4094296    0.1520279  53.34  0.001426179    2.492    0.599
       142 -11.5414     55.6488     41.1117   9.1407958175e+01   6.1720542957e+01    0.2024646    0.1697673  26.17 0.0003031775    1.337    0.252
       143 -10.7372     51.5185     40.2616   9.2692777037e+01   6.2411744162e+01    0.1703861    0.1118881 -52.90 0.0009246368    1.646    0.392
       144 -13.3438      9.0227    210.9487   1.3098469661e+02   2.9833935620e+01    0.6159717    0.4080945  43.05  0.004675057    1.635    0.388
       145 -12.6824     76.0086     37.4742   8.2495552011e+01   5.9286736294e+01    0.3358835    0.2489816  35.08 0.0009123683    1.415    0.293
       146 -11.7968     69.9246     36.4470   8.4242994757e+01   6.0454116353e+01    0.3779655    0.2103261  29.19  0.001601088    2.004    0.501
       147 -13.2537    131.9905     32.9168   6.4549078667e+01   4.8292148339e+01    0.6221648     0.465086  10.89  0.002096586    1.511    0.338
       148 -11.8832     58.6927     35.3820   8.8005888059e+01   6.2321428528e+01     0.500429    0.2236767  32.99  0.002297804    2.489    0.598
       149 -12.3229     46.0578     34.0374   9.2488984727e+01   6.4209841888e+01    0.4664416    0.2458136 -30.89  0.002387526    1.783    0.439
       150 -12.3494     29.4452     32.3749   9.8883243001e+01   6.6286804342e+01    0.5790756    0.3221867  -2.00  0.002097324    2.449    0.592
       151 -10.8450    157.3481    213.6607   1.0384612210e+02   8.5311631598e+00    0.1309833    0.0919711  69.32 0.0007046337    1.788    0.441
       152 -11.1883    136.6847    211.1739   1.0746924383e+02   1.2520666150e+01    0.1877621    0.1515988  86.24 0.0009759679    1.395    0.283
       153 -11.8775     45.4246    209.1312   1.2456221102e+02   2.6313750023e+01    0.2535595    0.1291373  87.39  0.001458754    1.878    0.468
       154 -11.2854     80.4917    208.4888   1.1799552278e+02   2.1877278278e+01    0.2190842    0.0837064  50.15  0.001028933    2.233    0.552
       155 -11.1404    150.6515    206.6078   1.0409674714e+02   1.0877239244e+01    0.2679522    0.1103044  38.74  0.001138389    2.272    0.560
       156 -12.9767     40.3334    195.4276   1.2443531502e+02   2.9589807202e+01    0.4356863    0.1695095  89.03  0.001907167    3.194    0.687
       157 -13.7344     18.4760    161.5979   1.2603060095e+02   3.8891459223e+01     1.068497    0.5994858  46.06  0.006683625    1.777    0.437
       158 -11.2027     90.9529     33.7598   7.6023885687e+01   5.7174970831e+01    0.2908686    0.1936935  12.93  0.001414313    1.785    0.440
       159 -10.8719     35.8358     34.1954   9.6813555427e+01   6.5324431626e+01       0.1728    0.1182929 -24.34 0.0003944756    1.329    0.247
       160 -12.8802    152.6215     31.5638   5.9686082012e+01   4.3322930151e+01    0.4658655    0.3810058  -1.69  0.001516524    1.342    0.255
       161 -12.8366     16.7969    195.7768   1.2879774900e+02   3.1993415078e+01    0.6008783    0.2213916 -68.86  0.002934435    2.365    0.577
       162 -10.5715     89.4164     30.4146   7.5134592035e+01   5.7971235266e+01    0.1357108     0.120208  -1.00 3.032427e-05    1.011    0.011
       163 -13.5515     29.8883    169.4374   1.2432264352e+02   3.6113317717e+01    0.6297572    0.3870702 -49.55    0.0015852    2.137    0.532
       164 -12.8826     56.4686     27.5280   8.5613407878e+01   6.3946557701e+01    0.5367281    0.2833417  42.93  0.001844157    2.263    0.558
       165 -13.0131     67.8483     24.5246   7.9968021123e+01   6.2676275970e+01    0.6247549    0.3723945  37.67  0.003333183    1.732    0.422
       166 -15.4308      9.0830    180.1712   1.2924165689e+02   3.5833396593e+01     1.681977      1.00667 -81.24   0.01150838    1.326    0.246
       167 -10.9125     97.8977     27.1522   7.1187775748e+01   5.6744493120e+01    0.1976253     0.195358 -57.09  0.001220018    1.254    0.202
       168 -12.1478     46.3632     20.9431   8.6845191159e+01   6.6363420424e+01    0.3441503    0.2399311 -26.30  0.001499012    1.192    0.161
       169 -11.6425     45.4635    198.2917   1.2369963497e+02   2.8425289425e+01    0.2801796   0.09966198 -75.49  0.001321446    2.696    0.629
       170 -11.4395     60.2658     17.6347   7.9695998591e+01   6.4877994993e+01    0.2331724    0.1392787 -38.74 0.0008436047    1.705    0.413
       171 -12.6294    164.2508    195.0169   9.9578048022e+01   1.0399631151e+01    0.5581686    0.3185941 -65.68  0.002405865    2.938    0.660
       172 -12.3009    201.1432    191.9446   9.1852544783e+01   4.0342846681e+00    0.3366542    0.2746017  -3.55  0.002000853    1.285    0.222
       173 -10.5564    107.6859    192.6626   1.1074048373e+02   2.0813442720e+01    0.1189049    0.1042755 -10.83 0.0007046933    1.694    0.410
       174 -11.9758     49.0479    181.5181   1.2150509638e+02   3.1433582482e+01     0.357809    0.2190106 -58.97  0.002125405    1.760    0.432
       175 -13.1254    157.6580     43.8861   6.2863383254e+01   4.0338408575e+01    0.8747774    0.4934062  34.04  0.003461277    2.190    0.543
       176 -12.6876    198.6534    181.6511   9.0390458337e+01   6.1214069877e+00    0.2748806    0.2522559  71.03  0.001411531    1.356    0.263
       177 -12.3167     85.0863    180.3367   1.1384951166e+02   2.6860600841e+01    0.3134485    0.1944758  85.11  0.001622885    1.807    0.446
       178 -10.5421     54.2241     19.8143   8.3086631503e+01   6.5463667459e+01    0.1733364    0.1255478  -1.78 0.0005787594    1.314    0.239
       179 -10.7719    218.4885    176.5330   8.5635712791e+01   3.1548120898e+00    0.1358905    0.1203496  15.11 0.0001281627    1.024    0.024
       180 -12.8895    124.5949    167.7989   1.0330019216e+02   2.2960160913e+01    0.5824081    0.2608063 -53.37  0.002422062    2.325    0.570
       181 -12.5894    121.6808    164.3377   1.0335123935e+02   2.4216692985e+01    0.2855773     0.207228 -86.08  0.001417542    1.640    0.390
       182 -12.3087     91.6463    168.4699   1.1078780502e+02   2.8399733538e+01     0.498791    0.3057603  65.51  0.002491732    1.761    0.432
       183 -12.0666     77.3760    156.9612   1.1236369703e+02   3.3086480343e+01    0.3781575     0.263734  34.16  0.001552781    1.661    0.398
