#   1 NUMBER                 Running object number                                     
#   2 MAG_AUTO               Kron-like elliptical aperture magnitude                    [mag]
#   3 X_IMAGE                Object position along x                                    [pixel]
#   4 Y_IMAGE                Object position along y                                    [pixel]
#   5 X_WORLD                Barycenter position along world x axis                     [deg]
#   6 Y_WORLD                Barycenter position along world y axis                     [deg]
#   7 A_WORLD                Profile RMS along major axis (world units)                 [deg]
#   8 B_WORLD                Profile RMS along minor axis (world units)                 [deg]
#   9 THETA_WORLD            Position angle (CCW/world-x)                               [deg]
#  10 FWHM_WORLD             FWHM assuming a gaussian core                              [deg]
#  11 ELONGATION             A_IMAGE/B_IMAGE                                           
#  12 ELLIPTICITY            1 - B_IMAGE/A_IMAGE                                       
         1 -13.3702     48.4690     98.9119   1.1631221699e+02   5.2495016758e+01     5.116637     1.541244 -48.20   0.01594792    3.439    0.709
         2 -12.3873     14.7298     38.2664   1.1751705565e+02   7.0909569416e+01     1.262525    0.6847014 -50.29  0.003535359    1.636    0.389
         3 -12.3502     55.3462      5.8139   7.5198121254e+01   6.9952784394e+01     1.152699    0.5972009  35.21  0.003182438    1.985    0.496
         4 -13.4252    140.4305     56.9665   7.3301606557e+01   4.2042359885e+01     3.277545      1.40526  43.44  0.001705047    2.870    0.652
         5 -12.9510     54.4811     68.2377   1.0530451037e+02   5.9177118113e+01      2.70346     1.385402  42.12  0.005352764    1.992    0.498
         6 -13.2408     14.4914    102.8217   1.3137635811e+02   5.4859739718e+01     2.866137    0.9981937 -56.32   0.01114154    2.505    0.601
         7 -11.2375      6.9192     55.9642   1.2758010281e+02   6.7289665292e+01     1.213111    0.8323317  88.88  0.006545827    1.656    0.396
         8 -12.5213      8.6084     25.9503   1.1739930084e+02   7.4062856516e+01    0.9554997    0.6718681 -20.63  0.004366779    1.330    0.248
         9 -13.2759     71.3116     30.4023   8.2206079237e+01   6.3228136674e+01     3.672534      1.40685  46.19   0.01385742    2.390    0.582
        10 -12.4871     67.9966     20.2750   7.8386838357e+01   6.5398691702e+01    0.9248348     0.654649  20.39  0.002631013    1.622    0.384
        11 -13.6084     90.0770     53.2512   8.5284780108e+01   5.5154092659e+01     4.706068     1.167831  52.98    0.0115235    4.334    0.769
        12 -12.8915     54.3829     36.2373   9.2513960020e+01   6.5794968471e+01     1.713072     1.097371  36.61  0.008423993    1.490    0.329
        13 -11.6555     24.8521      5.4615   9.2327802146e+01   7.5900057814e+01    0.6209794    0.3586165 -31.98  0.003346243    1.767    0.434
        14 -13.3417     16.6457     10.0068   1.0213488563e+02   7.6344145157e+01     1.596357     1.018512  51.87  0.008159527    2.484    0.597
        15 -12.5396      3.2611     17.5460   1.1835943403e+02   7.6186821209e+01    0.3601749    0.2796374 -23.12 0.0003105564    1.110    0.099
        16 -13.1157      3.7870      9.6930   1.1388678360e+02   7.7708222973e+01    0.5630165    0.3454899 -48.95 0.0006803369    1.512    0.338
        17 -12.8561    100.7340     75.6471   8.9795558770e+01   4.8384551301e+01     2.575569     1.514476 -58.17   0.01021306    2.126    0.530
        18 -12.7629     26.1876     79.7481   1.2221237370e+02   5.9942632419e+01     1.714256     1.036969 -44.83  0.008219832    1.610    0.379
        19 -12.7629     46.1205     21.1574   8.8915060750e+01   6.9864335533e+01     1.455659     1.273723 -68.46  0.008551593    1.567    0.362
        20 -12.6531     27.9087     24.1619   1.0187904949e+02   7.2351065318e+01     2.726389     1.326484 -44.68   0.01284048    2.033    0.508
        21 -11.1158    135.4952     33.2411   6.6356506267e+01   4.6690741619e+01    0.6617886    0.4656872  -9.01 0.0007361431    1.881    0.468
        22 -11.0256    129.2623     20.2437   6.2834171736e+01   4.9856453630e+01     2.372329    0.4021034  59.27  0.006995354    3.959    0.747
        23 -10.2354    131.6642     13.3104   5.9974365713e+01   4.9933387251e+01    0.9895468    0.1715064  60.20  0.003009375    3.857    0.741
        24 -10.7536     94.6059     14.0302   6.7166427995e+01   5.9604999822e+01    0.6774232    0.2842981  59.81 0.0005294797    1.997    0.499
        25 -11.7320    103.3142     36.1215   7.4432716411e+01   5.4671847193e+01     1.871208     0.979914  23.15   0.00581952    4.319    0.768
        26 -11.8852    112.5711      7.7810   6.0851433331e+01   5.5501273324e+01     1.108529    0.4770818  82.81  0.004207192    2.628    0.620
        27 -11.9936    111.7938     20.3789   6.6077906571e+01   5.4453870078e+01     1.210694    0.6101329 -44.76  0.005202721    2.162    0.538
        28 -10.9283    117.1518     15.3444   6.3060521684e+01   5.3572683041e+01    0.4326647    0.3021284 -73.34 0.0001270393    1.558    0.358
        29 -12.5052    100.0933      6.6552   6.2661048181e+01   5.8881156018e+01    0.6083258    0.4589739 -26.42 0.0007614748    1.495    0.331
        30 -10.6508     93.8907      7.6428   6.4406775458e+01   6.0404938285e+01    0.6971207    0.3812457  32.07  0.001047407    2.235    0.553
        31  -9.6624    248.6640     25.9805   5.2832822348e+01   2.1647424540e+01    0.3114834    0.2460439  -2.06  0.002118998    1.847    0.458
        32 -11.7391    214.2130      4.6607   5.0122213903e+01   3.0674402980e+01    0.8891774      0.41276  73.56  0.003578218    2.121    0.528
        33 -10.7629    223.4505     10.2640   5.0891742264e+01   2.8190215642e+01     0.779553      0.38981  62.41  0.004261821    2.260    0.558
        34 -10.6789    232.1071     19.2954   5.2386971835e+01   2.5513775501e+01    0.7153248    0.4186962 -32.40   0.00344312    1.563    0.360
        35 -10.5458    243.5038     10.6587   4.9954904323e+01   2.4199931862e+01    0.6540765    0.2662471 -23.33  0.003169976    2.861    0.650
        36 -11.0740    215.4249     23.9605   5.4533296849e+01   2.8433563519e+01    0.5749536    0.4434105 -40.35  0.002437507    1.208    0.172
        37 -11.0439    212.5004     17.0771   5.3120973927e+01   2.9796799136e+01    0.5288697    0.4041371 -30.80  0.003043273    1.371    0.270
        38 -10.4240    233.1359     10.8437   5.0504364688e+01   2.6180767243e+01    0.2682369    0.1600282 -63.51 0.0003766047    1.406    0.289
        39 -10.3749    233.8549      7.1876   4.9687203049e+01   2.6402020318e+01    0.2156789    0.1532312 -57.81 0.0003123985    1.084    0.077
        40  -9.8469    198.5073     32.9615   5.8125583550e+01   3.1120920373e+01    0.5443423    0.1856789 -25.57   0.00203676    3.375    0.704
        41  -9.2626    187.2426     19.2381   5.5592010749e+01   3.5269683384e+01    0.7856333    0.3029487 -70.60   0.00280027    3.654    0.726
        42 -12.0668    179.2855     26.0257   5.8182092129e+01   3.6425795878e+01     1.097328     1.003105  13.90  0.006742957    1.409    0.290
        43 -11.0834    149.4956     15.9021   5.8494592979e+01   4.5003760438e+01     1.175485    0.7304127  26.22  0.004305686    2.427    0.588
        44 -11.8960    167.0112     24.4594   5.9063592901e+01   3.9622548312e+01    0.5993011     0.395795  61.00 0.0004421633    1.508    0.337
        45 -10.9810    158.4087     20.8326   5.8973863940e+01   4.2194842788e+01    0.8736082    0.4003357 -32.01  0.002004953    2.154    0.536
        46 -10.5558    169.0253     13.4881   5.5656376527e+01   4.0282530458e+01    0.8374166    0.4084021 -82.00  0.003465867    2.222    0.550
        47 -11.1652    163.8698      4.5681   5.3519520000e+01   4.2415757826e+01    0.9717674    0.6897621  -6.13  0.002435851    1.878    0.467
        48 -11.5071    242.1517     20.7885   5.2127059662e+01   2.3412852700e+01    0.7528799    0.6080769  51.40  0.005337692    1.689    0.408
        49 -10.5709    202.4212     18.5230   5.4184672965e+01   3.1855951443e+01     0.563547    0.4352409  20.43  0.003324518    1.942    0.485
        50  -9.0984    141.6537     11.4466   5.7992762394e+01   4.7485089590e+01    0.1904674    0.1823987 -70.28 0.0009359558    1.139    0.122
        51  -8.1880    138.8909      8.4703   5.7324781027e+01   4.8486065906e+01    0.2541665    0.2229035 -53.21  0.001010134    1.176    0.150
        52 -10.8433    132.4226      4.4304   5.6712647461e+01   5.0540908265e+01    0.8118187    0.2680563  63.78  0.002288528    2.454    0.592
        53  -9.8428    138.2769      4.2940   5.5970979471e+01   4.9014728354e+01    0.2570111     0.147809  47.81 0.0001802101    1.894    0.472
        54 -10.2351    139.0152      1.2473   5.4851995616e+01   4.9074943680e+01    0.2781523    0.1277332  79.45 0.0004439107    1.943    0.485
        55 -10.4376    173.5266      8.4858   5.3828115236e+01   3.9658896732e+01    0.4102527    0.2284223 -18.59 0.0009258821    2.179    0.541
        56 -10.2202    181.1949      4.9743   5.2263087891e+01   3.8129981667e+01    0.6124335    0.2991575  80.20  0.003008963    1.879    0.468
        57 -10.7157    199.3430      5.0043   5.1057559592e+01   3.3905274529e+01    0.5843567    0.3305464 -45.56  0.002656412    1.494    0.331
        58  -9.4625    189.3647      8.3076   5.2555513057e+01   3.5881185607e+01    0.4976976    0.2892907  55.10  0.001879977    1.980    0.495
        59  -9.6287    122.4674      9.8453   6.0066424444e+01   5.2695306878e+01    0.3690905    0.2689463  77.63  0.001697207    1.218    0.179
        60 -10.7279     77.4148      9.0817   6.9320613002e+01   6.4434743409e+01    0.2958424    0.2544202  42.84 0.0008977203    1.081    0.075
        61  -7.5082     78.4353      4.0441   6.6406784389e+01   6.4648953563e+01    0.6816708    0.1490376  49.28  0.002183203    3.633    0.725
        62  -9.2442    250.3434      8.1892   4.9145728001e+01   2.3176021937e+01    0.2765416   0.09968184 -41.34   0.00108157    1.918    0.479
        63  -9.9659    248.9433      2.1109   4.7990183752e+01   2.4021853458e+01    0.3108043    0.1474217 -42.45  0.001762045    1.540    0.351
        64  -9.7505     70.2320      3.4435   6.8440595066e+01   6.6717292677e+01    0.4958677    0.3693188  55.40  0.002489092    1.155    0.134
        65  -9.2020    229.9145      2.8559   4.8944098952e+01   2.7602688713e+01    0.1595371      0.15226 -81.14  0.001229717    1.332    0.249
        66  -8.4774    112.1799      1.8795   5.8525383034e+01   5.6097600805e+01    0.2581941    0.1615043 -75.91  0.001257174    1.725    0.420
        67  -8.2116     82.6601      8.6571   6.7631582876e+01   6.3172360831e+01    0.1519469   0.09049845  36.36 0.0007048801    1.776    0.437
        68  -8.9642      3.4492    246.2535   1.4275650652e+02   2.2420888697e+01    0.1782178   0.09513606 -78.69  0.001120746    2.117    0.528
        69  -9.4818    213.0213    249.4839   1.0004158593e+02  -2.4298604667e+00    0.1636685    0.1164338  -9.46 0.0008583138    1.217    0.178
        70  -9.1555    151.5464    249.7329   1.1151087648e+02   4.7954269866e+00    0.1926508    0.1087602 -38.45  0.001147609    2.113    0.527
        71  -9.9888    189.7197    243.8950   1.0340057229e+02   8.8465154618e-01    0.2279615    0.0968525 -42.03  0.001216134    2.815    0.645
        72 -11.9569     29.2360     63.8259   1.1669901517e+02   6.3604993746e+01     1.569146    0.6589586 -26.22  0.004621822    4.904    0.796
        73  -9.1433    206.1378    244.6479   1.0055845248e+02  -1.1101637617e+00    0.1616535   0.07891461  19.86 0.0009413505    1.749    0.428
        74 -12.6208     20.5630     57.2078   1.1973581322e+02   6.6034565648e+01     1.221765    0.5799284 -35.74 0.0004402733    2.276    0.561
        75  -9.5172    142.9684    243.2111   1.1246265991e+02   6.8306687037e+00      0.23645    0.1394961  17.44  0.001348719    1.562    0.360
        76  -9.3416    168.3693    241.7798   1.0716708598e+02   3.7802571458e+00    0.1531959    0.0987929 -24.78 0.0009552977    1.690    0.408
        77  -7.8475      1.3775    242.2779   1.4308927000e+02   2.3323574902e+01   0.09530332   0.08205774 -11.40  0.000700646    1.705    0.413
        78  -8.5765    211.1398    240.1752   9.9055507306e+01  -1.1451645988e+00    0.1371845    0.1143532   6.98  0.001061094    1.322    0.244
        79 -10.2694     14.7516    236.0122   1.4007722273e+02   2.3316041187e+01    0.3125231    0.1857534  86.40 0.0004021555    1.734    0.423
        80 -10.0536     12.9426    232.3367   1.4034492973e+02   2.4184341749e+01    0.4214101     0.168451  66.49  0.002149194    2.342    0.573
        81  -8.8471    180.5087    234.5398   1.0382552278e+02   3.2363266391e+00    0.1207747    0.0898404  10.48 7.618965e-05    1.058    0.055
        82  -9.1843    227.3340    231.4476   9.5049072626e+01  -1.9267264394e+00    0.1918168    0.1237058  12.09 0.0005400962    1.229    0.186
        83  -8.2545    218.6680    230.3358   9.6326345941e+01  -8.2587068126e-01   0.09389926   0.08521728  27.29 0.0007052163    1.735    0.424
        84 -11.6486      5.1088    143.8960   1.3844174896e+02   4.4796492181e+01    0.6245052    0.4199822 -76.03  0.001439928    1.391    0.281
        85  -8.8296     97.9613    140.9032   1.0773690006e+02   3.3982549997e+01    0.2419697    0.1789691  68.29 0.0006206616    1.635    0.388
        86  -8.6431     80.4081    140.7711   1.1313981096e+02   3.7004648049e+01    0.2073018    0.1383729 -47.94 0.0005204249    1.606    0.377
        87  -9.0394     49.0034    138.3825   1.2314649441e+02   4.2115151613e+01     0.451443    0.2276365  45.36  0.001892887    1.922    0.480
        88 -10.1939     55.5300    137.4601   1.2078262491e+02   4.1519790879e+01    0.4363699    0.2310765 -41.83  0.001746242    2.333    0.571
        89  -9.6799     55.9098    132.6512   1.1988292332e+02   4.2714554629e+01     0.251522     0.209478 -71.97 0.0005443345    1.204    0.169
        90  -9.0832     33.3821    136.7219   1.2830905751e+02   4.4304293502e+01     0.193056    0.1216175 -62.09 0.0003746572    1.553    0.356
        91  -9.1153    236.9944    135.2453   7.6688272624e+01   9.4911346891e+00    0.1413189    0.1025943  41.58 0.0008857643    1.598    0.374
        92  -9.5384     86.2015    134.4464   1.1007700160e+02   3.7605373455e+01    0.3473809    0.2636375  23.03 0.0008422782    1.409    0.290
        93  -9.2633     63.8464    113.8468   1.1350178856e+02   4.6448128802e+01    0.3177008    0.2144333  37.95 0.0009561069    1.441    0.306
        94 -10.7220     56.9549    125.2133   1.1823952338e+02   4.4505558880e+01    0.4894887    0.3827679  37.67  0.002093212    1.244    0.196
        95  -9.8189     65.8969    130.7607   1.1610038030e+02   4.1790909066e+01    0.2699929    0.2408062 -87.65 0.0002784337    1.141    0.124
        96 -11.6648     67.2854    122.1134   1.1396084227e+02   4.3799491440e+01     1.183858    0.5755856 -43.99  0.004460004    2.376    0.579
        97  -9.6351     59.3091    120.8238   1.1657670737e+02   4.5315967010e+01    0.3933967    0.3371755 -44.16  0.001950226    1.235    0.190
        98 -11.5561      5.4869     79.5310   1.3242189690e+02   6.1452032929e+01     1.619109    0.5736403 -74.67  0.006387072    2.536    0.606
        99  -9.7302     73.0159    129.3296   1.1340040350e+02   4.1063031972e+01    0.2729499    0.2243198 -68.87 0.0003987978    1.256    0.204
       100  -8.5354     80.0111    125.0343   1.1016655436e+02   4.0998501326e+01    0.2460686    0.1743928  62.08 0.0004741477    1.616    0.381
       101  -8.9897     75.2033    124.8174   1.1175196641e+02   4.1853508447e+01    0.2721456    0.1899783  46.23 0.0005358064    1.406    0.289
       102  -9.3458     97.6577    114.0348   1.0183367393e+02   4.0454930188e+01    0.4495263    0.4150066 -14.06  0.002325802    1.190    0.160
       103  -9.4282     91.8078    120.7448   1.0532045574e+02   3.9961172193e+01    0.5137777    0.3215958 -58.11  0.002203382    1.689    0.408
       104  -9.1687     92.4884    115.4797   1.0385714430e+02   4.1106553044e+01    0.2817483    0.2306155 -85.56 0.0008078937    1.431    0.301
       105  -8.8540     90.5159    112.9668   1.0389641051e+02   4.2086236185e+01    0.4325358    0.2678296  15.70  0.001206043    2.418    0.586
       106  -8.8570    131.9785    119.4871   9.3274085839e+01   3.2158201410e+01    0.2295077     0.148854  43.12 0.0004580016    1.507    0.336
       107  -9.9561    104.2362    117.1487   1.0054337270e+02   3.8421874878e+01    0.5596688     0.371536  69.58  0.002241476    2.152    0.535
       108  -9.3155     51.5373    117.5664   1.1884618916e+02   4.7231203738e+01     0.379184     0.321779 -22.51  0.001982538    1.349    0.259
       109  -8.9353     34.0860    116.9212   1.2541147983e+02   4.9447046375e+01    0.2231599    0.1749229  61.39 0.0002859456    1.296    0.229
       110 -12.8659    139.9183     71.2415   7.7884721603e+01   3.9806603750e+01     2.122828     1.782768 -56.73  0.005861803    1.215    0.177
       111 -10.0737     82.6321    114.5565   1.0694205905e+02   4.3149118592e+01    0.4890048    0.2794945  22.14  0.001220835    2.237    0.553
       112  -9.9415     58.6120    113.2991   1.1534633511e+02   4.7366498383e+01    0.5795804    0.2270987 -43.51  0.001888548    3.187    0.686
       113  -8.9319     54.7697    112.2198   1.1658963915e+02   4.8190112488e+01    0.2156238    0.1966986  71.08 0.0003038685    1.105    0.095
       114  -9.6999    132.8121    111.9090   9.1146455848e+01   3.3579083260e+01    0.4302085    0.3429139  88.40  0.002018605    1.620    0.383
       115  -9.9972    107.8760    110.1809   9.7677416132e+01   3.9287930079e+01    0.5327284    0.2814082 -49.48  0.002086446    1.955    0.489
       116  -8.7234    104.3948    109.2204   9.8493217673e+01   4.0226744960e+01    0.2351587    0.1574989 -50.23  0.000517743    1.540    0.351
       117 -10.9215     77.4345    102.0456   1.0570940817e+02   4.7161102703e+01    0.8635916    0.3764062  36.44  0.002699258    2.246    0.555
       118 -10.7095     68.1713    106.6381   1.1027502884e+02   4.7603407121e+01    0.6751547    0.3572268 -36.85  0.002508917    2.479    0.597
       119 -10.0856     74.2765    107.3027   1.0817346306e+02   4.6415492908e+01    0.5330068    0.2777252  33.98  0.001942397    1.905    0.475
       120 -10.0684    149.6913    106.3791   8.5614647617e+01   3.0975765236e+01    0.5590794    0.2967181 -28.69  0.002110102    2.434    0.589
       121  -9.7306    113.3638    106.9941   9.5205835117e+01   3.8849168442e+01    0.2795753    0.2195538  57.15   0.00131692    1.324    0.245
       122  -9.8947    133.9034    103.6357   8.8688044898e+01   3.5052156946e+01    0.5088465     0.233256 -43.43   0.00156159    2.215    0.549
       123  -9.8546    141.5570    102.7062   8.6548185504e+01   3.3517966957e+01    0.3628624    0.3111109 -20.73  0.001085988    1.290    0.225
       124 -10.2044    171.4515    102.5417   8.0065378941e+01   2.6893503752e+01    0.3881443    0.2560853  30.98  0.001770412    1.890    0.471
       125 -10.6792    116.5477    100.0776   9.2400157802e+01   3.9672390371e+01    0.5590284    0.3693771  13.21  0.002103412    2.560    0.609
       126 -11.8400     39.0943     86.8427   1.1767785220e+02   5.6770411941e+01     2.052363    0.8910863 -42.49  0.007670183    2.568    0.611
       127  -9.0659    202.0996    229.0036   9.9015960498e+01   1.2900240936e+00     0.171181    0.1310791   8.87  0.000382738    1.054    0.051
       128 -10.7237      4.5955     99.6497   1.3519904652e+02   5.6281479921e+01    0.5513734    0.2923771 -56.55     0.002488    1.724    0.420
       129  -8.7777      9.4552     94.4312   1.3251031061e+02   5.7379831386e+01    0.2051419    0.1476546  54.15 0.0007482113    1.463    0.316
       130  -9.7771     88.9703     98.1462   1.0056603983e+02   4.5920219605e+01    0.9478127    0.6691457 -12.19  0.003900793    2.150    0.535
       131 -10.9856     88.5811     89.9298   9.8355468627e+01   4.7903142348e+01    0.7387647    0.4421347 -46.59  0.002758109    1.716    0.417
       132  -9.9968     93.0076     88.9798   9.6545303162e+01   4.7206291201e+01    0.4148569    0.3372684  80.58  0.001038317    1.495    0.331
       133  -8.6984    178.3145    100.3151   7.8223436940e+01   2.5797948919e+01     0.142753     0.111711   8.94 0.0003813715    1.643    0.391
       134  -9.6186     50.3143    227.8033   1.3164193495e+02   2.1267717510e+01    0.1967023    0.1521766  84.23   0.00128318    1.406    0.289
       135  -9.1810     63.0553     98.0890   1.1018132910e+02   5.0580422252e+01    0.3825141    0.2509853  34.82  0.001603318    1.504    0.335
       136  -9.8127    159.8404     97.0401   8.0960604138e+01   3.0458726786e+01    0.5377032    0.3193029  47.20  0.001591411    1.717    0.417
       137  -9.3499    156.3602     94.1841   8.0923998322e+01   3.1772543462e+01    0.3810474    0.1946737  52.62  0.001545753    1.979    0.495
       138  -9.2278     81.2955     97.0141   1.0296962874e+02   4.7670113725e+01    0.2721474    0.2148434  37.83 0.0004794401    1.243    0.195
       139  -8.5384    105.4993    102.9626   9.6486796012e+01   4.1423757008e+01    0.2282901     0.156122 -46.23 0.0005470508    1.507    0.336
       140  -8.5207    147.5764     98.5073   8.4012055381e+01   3.2971706119e+01    0.1480858    0.1468197 -35.04  2.35623e-05    1.024    0.024
       141 -10.2805    114.1023     95.3982   9.1785357953e+01   4.1221120768e+01    0.5521519    0.2297702  51.63  0.001854097    2.567    0.610
       142  -8.0741    141.6530     95.3561   8.4524587802e+01   3.4938690282e+01     0.162908    0.1204744 -81.23 0.0007034266    1.835    0.455
       143 -10.9414    124.0757     92.6945   8.8210111495e+01   3.9527440159e+01    0.6486414    0.4627474  57.49  0.002952734    1.445    0.308
       144 -11.2792    120.1175     86.7489   8.7538977322e+01   4.1653302126e+01     0.931524    0.3680222  55.74  0.002963342    2.967    0.663
       145 -10.1706    124.8074     83.1707   8.5195587356e+01   4.1264491443e+01    0.6095282    0.3362841 -57.15   0.00230145    2.312    0.568
       146  -9.1753     71.5128     89.4433   1.0454292543e+02   5.1281026922e+01     0.358922    0.2058817  32.20  0.001308299    1.793    0.442
       147  -8.8653     77.9328     93.3276   1.0318630964e+02   4.9180875587e+01    0.4411419    0.2648693 -30.65   0.00155308    2.270    0.560
       148 -10.5905     82.4365     88.0276   9.9993308460e+01   4.9567328954e+01    0.9953963    0.3521358 -46.87  0.003239398    2.891    0.654
       149  -9.0854     81.6600     80.7130   9.8039017321e+01   5.1389457619e+01    0.3009782    0.2142449 -29.20 0.0007836348    1.673    0.402
       150  -8.9312     75.4981     89.4811   1.0301393804e+02   5.0548408368e+01    0.3509031    0.2366989  50.07  0.001015961    1.550    0.355
       151  -8.3255    200.4635     90.5226   7.2190406072e+01   2.2729421015e+01    0.1351317    0.1219764 -44.46 9.080813e-05    1.012    0.012
       152  -8.9243    187.3404     89.5941   7.3993257603e+01   2.5639699554e+01    0.2425608    0.1490436 -45.99 0.0005450401    1.555    0.357
       153  -8.5138    153.2780     87.5818   7.9767023567e+01   3.3687346210e+01    0.2131661    0.1379058  43.61 0.0009480565    1.632    0.387
       154  -8.5520    164.4250     85.7338   7.7022868111e+01   3.1415985252e+01    0.1991587    0.1410085 -24.74 0.0007550797    1.599    0.375
       155  -9.0952    224.7200     85.0298   6.7693810828e+01   1.8767816287e+01    0.1770013    0.1434405 -40.03 0.0001861753    1.055    0.052
       156 -10.1696    161.0558     81.8165   7.6597658587e+01   3.2875408449e+01    0.5262926    0.3614525  47.71  0.002520304    1.510    0.338
       157 -11.5611     77.5873     62.4495   9.3345725277e+01   5.6145476704e+01    0.9694867    0.4844689 -32.53  0.003570694    2.597    0.615
       158 -10.5932    216.8807     80.6841   6.7662062598e+01   2.0891250551e+01    0.4861517     0.284134 -29.63  0.002173892    1.638    0.389
       159  -9.4972    179.5342     80.2913   7.2891288805e+01   2.8861713277e+01    0.3309992    0.2417125 -82.53  0.001232612    1.684    0.406
       160  -8.9759    188.5333     79.9884   7.1386419803e+01   2.6903476121e+01    0.2155519    0.1275607 -37.25 0.0005329539    1.570    0.363
       161  -9.6166    247.7228     75.5126   6.3182648526e+01   1.5914104219e+01    0.2620476    0.1371209 -50.33  0.001283659    1.770    0.435
       162  -9.0338    191.9988     75.8094   6.9812828653e+01   2.6784277837e+01    0.3304264      0.20642  26.56  0.001378491    2.637    0.621
       163 -10.3317    163.8780     74.8128   7.4119901287e+01   3.3384071777e+01    0.4329625    0.3315662  54.76  0.001011166    1.326    0.246
       164  -9.7709    163.5858     67.7798   7.2188894304e+01   3.4588882634e+01    0.4331269    0.2915327 -69.69  0.001991474    1.792    0.442
       165 -10.0436    165.5283     62.5899   7.0377821295e+01   3.4925902816e+01    0.3994449    0.3346604 -51.51  0.001357938    1.146    0.128
       166  -8.8560    159.1187     58.1218   7.0164083303e+01   3.7174372543e+01     0.284659    0.2230057  28.25  0.001290366    1.626    0.385
       167 -10.0245    165.8868     54.7887   6.8080118599e+01   3.5999245700e+01    0.6650772    0.3241653 -36.42  0.002835764    1.972    0.493
       168 -10.3366    160.0853     51.2657   6.7970047326e+01   3.7941466411e+01    0.4997691    0.3855333 -64.37  0.001437777    1.302    0.232
       169  -9.2917    152.7849     44.2334   6.7015237361e+01   4.0767468910e+01    0.3878253    0.2421115 -29.02  0.001817048    1.729    0.422
       170 -10.8161    159.0880     42.1572   6.5391344170e+01   3.9449978354e+01    0.7073032    0.5577427  22.48  0.003062109    1.691    0.409
       171  -8.7846    204.4594     75.5124   6.8021944604e+01   2.4158196716e+01    0.2384412    0.1111592  48.55  0.001039989    2.490    0.598
       172  -8.6665    111.6516    225.3115   1.1711753540e+02   1.3948854200e+01    0.1330207   0.08432747  51.80 0.0006264011    1.715    0.417
       173  -8.3575    215.6584     71.6514   6.5718008383e+01   2.2409004831e+01    0.1841168    0.1273613 -18.11 0.0008816579    1.694    0.410
       174  -9.1728    178.4886     69.3879   7.0170967020e+01   3.0810438777e+01    0.3231889    0.2507994  24.72  0.001138244    1.702    0.413
       175  -8.8709    169.6920     70.5267   7.1907859549e+01   3.2694927147e+01    0.2611883    0.1339746  55.06 0.0008315783    1.959    0.490
       176  -9.6993     84.4346     68.1573   9.2817759336e+01   5.3527593308e+01    0.3254882     0.276537  10.73  0.001007034    1.344    0.256
       177  -8.9369    250.5491     67.5345   6.1271837065e+01   1.6442360747e+01     0.223226   0.08987062 -36.69  0.000540991    1.908    0.476
       178  -9.7066    250.4955     63.9528   6.0537189155e+01   1.6898283384e+01    0.2889799    0.1020713 -37.42  0.001348399    2.119    0.528
       179 -10.5620     67.1579     62.5989   9.7660871872e+01   5.8195717715e+01    0.2606407    0.2499883 -17.36 0.0003378429    1.050    0.048
       180  -8.9863    211.9751     59.6444   6.3306293052e+01   2.4806095695e+01    0.2120724    0.1770065  -2.12 0.0005737472    1.539    0.350
       181  -9.3137    200.7950     59.5794   6.4573747765e+01   2.7202433350e+01    0.2548586     0.222992 -54.71 0.0009688445    1.011    0.011
       182 -10.2624    172.9340     48.2234   6.5162867605e+01   3.5201253416e+01    0.6722937    0.3722454  82.72  0.002939802    2.117    0.528
       183  -9.8799    185.4841     55.0148   6.5324702112e+01   3.1283858558e+01    0.4479021    0.2721103  -7.31  0.001882648    2.803    0.643
       184 -10.9685    181.9071     52.4061   6.5098556881e+01   3.2481023786e+01     1.030897    0.4719911 -28.00  0.004274544    2.369    0.578
       185 -10.3418    222.4274     56.7650   6.1546119665e+01   2.3047760574e+01     0.348395    0.3055953 -77.59  0.001536158    1.154    0.133
       186 -10.5581    174.0325     56.6012   6.7353801886e+01   3.3762143211e+01    0.5590535    0.4140007   0.82  0.002185772    1.952    0.488
       187  -8.8310     40.9856    221.0251   1.3339168135e+02   2.3644765576e+01    0.1798229    0.1447811 -27.42  0.001090802    1.739    0.425
       188  -9.2465    243.5441     55.1912   5.9289774333e+01   1.9213367553e+01    0.2535264     0.182547 -58.46   0.00166363    1.254    0.203
       189  -8.8246    197.5271     54.5893   6.3711052576e+01   2.8603064585e+01    0.2016875    0.1764062 -63.42 3.547859e-06    1.030    0.029
       190 -10.0005    193.8221     54.0936   6.4028896234e+01   2.9500898134e+01    0.3005901    0.2673826 -84.87 0.0009300681    1.101    0.092
       191  -9.2683    211.8125     51.1277   6.1290151908e+01   2.5959440242e+01    0.3761271    0.2455746   2.01  0.001780635    2.722    0.633
       192  -9.2988    127.1022     51.3731   7.4300233560e+01   4.6315446647e+01    0.3567149    0.2320675 -57.32  0.001189563    1.756    0.430
       193  -8.9567    125.7477     47.5523   7.3278538822e+01   4.7247434864e+01    0.2902775    0.2124259  74.46  0.001398852    1.390    0.280
       194  -8.4823    127.0274     44.0000   7.1753983311e+01   4.7441174847e+01    0.3331139    0.1661205  62.21  0.001293587    1.889    0.471
       195  -8.9525    129.5648     46.4897   7.2080325733e+01   4.6421466741e+01    0.2498324    0.2138472 -57.80 0.0005162938    1.196    0.164
       196 -10.2312    130.4094     41.2177   7.0079225797e+01   4.6958578526e+01    0.6717464    0.2647173 -41.01  0.002499046    2.543    0.607
       197 -11.8540    115.2990     49.5125   7.6457481391e+01   4.9617668035e+01     1.000836    0.7455856  -0.29  0.001563158    1.859    0.462
       198  -9.4377    224.8942     49.7295   5.9707588430e+01   2.3447471862e+01    0.2185433    0.1564507 -25.88  0.001307589    1.459    0.315
       199  -9.3473    233.8684     54.5885   5.9988808783e+01   2.1088905311e+01    0.2894584    0.1686385 -83.72  0.000958024    2.156    0.536
       200  -8.8080    225.5315    211.9516   9.2325867668e+01   6.3049715839e-01    0.1613476    0.0953406 -29.08 0.0005206207    1.557    0.358
       201  -9.6864     26.4493    212.1419   1.3636242751e+02   2.6980797696e+01    0.1873551     0.169153   9.65  0.001283371    1.366    0.268
       202  -9.8258    244.5688    204.2471   8.8061028408e+01  -6.4065207436e-01    0.2064908     0.136773  -0.20 0.0007964874    1.265    0.209
       203  -9.1007    234.1370    199.8370   8.8950693584e+01   1.1229108754e+00    0.1668675    0.1094495  -4.63  0.001092415    1.337    0.252
       204  -8.0108    169.3557    200.6716   1.0089164961e+02   9.8031236276e+00    0.1223299    0.1000258  58.50 4.163376e-05    1.779    0.438
       205  -8.7781     27.3230    194.6587   1.3514066632e+02   3.0698856373e+01    0.1441415    0.0738279  55.64 0.0007050716    1.726    0.421
       206  -9.0842     10.8362    192.0032   1.3927410535e+02   3.2800983633e+01    0.2193657    0.1639253  35.68  0.001012652    1.233    0.189
       207 -10.2365    245.0651    187.3152   8.5153213993e+01   1.3815272315e+00    0.2226847    0.1664663  -4.13 0.0004924146    1.074    0.069
       208  -9.7677     11.9705    184.2956   1.3861709507e+02   3.4462078883e+01    0.3274724    0.1818934 -53.42  0.001676632    2.182    0.542
       209  -9.5306      7.5406    185.5207   1.3984773972e+02   3.4542696223e+01    0.2302367    0.0781659  35.97 0.0006159015    2.247    0.555
       210 -11.1443    113.2477     32.4490   7.0531760610e+01   5.2616012675e+01    0.2720599    0.2442744 -29.96 0.0005112135    1.226    0.185
       211 -10.9231    109.7971     30.0043   7.0364810093e+01   5.3829050769e+01    0.5295826    0.2841983  70.25  0.001170042    1.896    0.473
       212  -9.6454    229.3606     45.6431   5.8397887551e+01   2.3064429972e+01    0.3342983    0.2022808 -78.62  0.001869058    1.853    0.460
       213  -9.4734    220.8036     46.4247   5.9321131126e+01   2.4684639368e+01    0.2199151     0.166906 -37.78 0.0006880421    1.201    0.167
       214  -9.1866    219.9250     42.3268   5.8451813587e+01   2.5367047173e+01     0.230926    0.1657971 -32.44 0.0004362917    1.340    0.254
       215  -9.8995      6.1563    182.1189   1.4006843520e+02   3.5434563989e+01    0.2766731    0.1615187 -59.96 0.0004308117    1.933    0.483
       216 -10.1767    214.4552     41.5249   5.8750243441e+01   2.6604870141e+01     0.452991    0.2834517  -8.82  0.002241729    2.461    0.594
       217  -9.2780     35.7653    185.3851   1.3223856414e+02   3.1959925328e+01    0.1747384    0.1216989  14.33 0.0003636102    1.636    0.389
       218 -10.4931     19.5249    183.7004   1.3655298662e+02   3.3942787578e+01    0.5357276    0.2394406  18.33  0.002034206    2.460    0.593
       219  -9.6375      1.7735    178.0961   1.4107833071e+02   3.6698129583e+01    0.2644593    0.1634714  86.38  0.001464641    1.485    0.327
       220 -11.0933    206.1947     43.9179   6.0110155570e+01   2.8080546017e+01    0.9826895    0.3067286 -47.52  0.002906388    2.903    0.655
       221  -9.0595     27.1096    176.8532   1.3400790367e+02   3.4846111036e+01    0.3841671    0.1218731  35.21   0.00155425    2.446    0.591
       222 -10.4328    246.8998     32.6028   5.4304869670e+01   2.1244817121e+01    0.5430315    0.2485626  52.72  0.002807409    3.024    0.669
       223 -10.3407    219.4672     34.2186   5.6612818562e+01   2.6425195097e+01    0.4338933    0.3416902  84.48  0.001303633    1.303    0.232
       224  -8.5571     80.3288    176.3378   1.1881493872e+02   2.8456501275e+01    0.1437102    0.1094618 -18.13 0.0007051901    1.732    0.423
       225  -9.0281      7.4932    174.5499   1.3936420366e+02   3.7101128643e+01    0.2422776    0.1147857 -84.60 0.0008233301    2.015    0.504
       226 -10.8689    236.3895     31.9197   5.4850410661e+01   2.3298976733e+01    0.4038999    0.3906458  80.05  0.003064919    1.320    0.242
       227  -9.5465      1.5211    187.5608   1.4149512230e+02   3.4545520797e+01    0.2484672    0.1094029 -86.49  0.001211383    2.171    0.539
       228  -9.3614     33.7260    169.9616   1.3155889240e+02   3.5846856205e+01    0.2774516    0.1651146 -18.05  0.001194543    2.781    0.640
       229 -10.0966     66.8483     43.5828   9.0139562303e+01   6.2008988945e+01    0.4477193     0.268984 -39.27  0.001081537    1.747    0.428
       230  -8.4427    248.5726     45.2189   5.6808971594e+01   1.9499363773e+01    0.1551824   0.09908784 -25.75 0.0007266321    1.596    0.374
       231  -9.1223    179.9388     44.5618   6.3216194083e+01   3.4002695395e+01     0.227203    0.1951874  -3.22  0.000745076    1.475    0.322
       232  -9.9898    154.9466     34.0403   6.3511622370e+01   4.1547332062e+01    0.3262358    0.2756915   6.90 0.0007079326    1.528    0.345
       233 -10.6829    144.3465     42.6921   6.7953912278e+01   4.3141738697e+01    0.8094041    0.2756404  57.78  0.002887922    2.627    0.619
       234 -10.4710    136.5973     42.1480   6.9188264445e+01   4.5221561518e+01    0.4595915    0.3497146 -50.71 0.0008055933    1.338    0.253
       235  -9.1515    142.7160     38.9521   6.7016415796e+01   4.4068571113e+01    0.2933551    0.2712442 -60.15 0.0004499769    1.093    0.085
       236 -10.1988    148.2835     34.5716   6.4678478506e+01   4.3194104850e+01    0.4809076    0.2651275  77.14  0.002110098    1.855    0.461
       237 -10.1705    143.1731     33.9054   6.5276307875e+01   4.4602896833e+01    0.2955927    0.2317958 -62.25 0.0004089522    1.274    0.215
       238  -8.9532    106.6457     45.0102   7.7039492526e+01   5.2510375186e+01     0.297563    0.1860491  44.88  0.001325499    1.590    0.371
       239  -8.3255    200.2084    169.6261   8.9335502965e+01   1.0059234879e+01    0.1694387    0.1101505  24.52 0.0003762974    1.547    0.353
       240  -9.7563    196.9999     28.7760   5.7202545538e+01   3.1949817204e+01    0.3220283    0.1787964  63.22  0.001091182    1.854    0.461
       241  -9.6724    192.5233     36.4705   5.9615481841e+01   3.2067515147e+01    0.2923554    0.2126853 -83.04 0.0006602376    1.338    0.253
       242 -10.1200    192.7894     32.6381   5.8592943106e+01   3.2465843718e+01     0.335381    0.2898703  83.15  0.001065877    1.161    0.139
       243  -9.2167    188.9315     49.4906   6.3427027538e+01   3.1237316921e+01    0.3638928    0.2302122  61.72  0.001752311    1.626    0.385
       244  -8.4694     24.2630     46.2069   1.1402227657e+02   6.8240860404e+01    0.2349117    0.1472862  15.76  0.001181401    1.648    0.393
       245 -10.5761    211.0573     32.4668   5.6889087768e+01   2.8407803457e+01    0.5080307    0.4302415 -80.67  0.001555945    1.129    0.114
       246  -9.6755    190.6969     40.4048   6.0836680932e+01   3.2003904981e+01    0.3598514    0.2585362 -16.68   0.00139791    1.710    0.415
       247  -9.5156    176.2799     14.9689   5.5403789780e+01   3.8346365719e+01    0.2302103    0.2076178 -78.24 0.0003667055    1.088    0.081
       248  -9.5846    174.1889     38.7840   6.2330106098e+01   3.6136169985e+01    0.3404942    0.2012902  60.86  0.001663912    1.678    0.404
       249 -10.1288      9.8284    158.1179   1.3781766762e+02   4.0902320013e+01    0.7144457    0.1449845 -58.09  0.002219055    4.875    0.795
       250 -10.4709    180.4198     37.6397   6.1257282888e+01   3.4772022578e+01    0.6850499    0.3511794 -60.09  0.003029546    2.114    0.527
       251 -10.1134     18.0775    165.0432   1.3579280134e+02   3.8530623343e+01    0.3501006    0.1923095  52.50  0.001329693    1.630    0.387
       252  -9.9198    148.2979     23.9062   6.1233696576e+01   4.4459528301e+01    0.8887168    0.3087687  72.74  0.003190862    2.819    0.645
       253 -11.1638     12.7552    165.0265   1.3735753091e+02   3.8976620222e+01    0.5708247    0.3675394  15.87  0.003076867    1.724    0.420
       254 -10.2729      2.7043    160.3553   1.4005805906e+02   4.0863822180e+01    0.5003442      0.26386 -89.78  0.002105465    1.753    0.430
       255  -9.7737     22.6456    159.6531   1.3403017899e+02   3.9461835620e+01    0.2049438    0.1487923 -41.74 0.0009957248    1.669    0.401
       256 -10.1012     15.5674    159.7917   1.3619036068e+02   4.0036215539e+01    0.2200459    0.1902472 -86.61  0.001012814    1.133    0.118
       257  -9.0077     85.1370    154.1715   1.1404382810e+02   3.2961616041e+01    0.2280211    0.2056025  -5.74 0.0008393426    1.259    0.206
       258  -9.0599    235.6434     38.9479   5.6426145382e+01   2.2637880317e+01    0.1762783    0.1245635 -42.61 0.0007531349    1.163    0.141
       259  -8.6423      8.1852    151.3033   1.3791361663e+02   4.2719968146e+01    0.2078133    0.1486536 -67.68 0.0007295758    1.398    0.285
       260  -8.7049    123.6232     35.7012   6.9501207841e+01   4.9480115862e+01    0.2537766    0.1940977  45.27  0.001286924    1.354    0.261
       261  -9.3882    126.8180     31.9602   6.7505346929e+01   4.9128448971e+01    0.4777154    0.1985249  54.82  0.001364427    2.181    0.541
       262 -12.2249     42.5353     50.0105   1.0474348429e+02   6.5085608489e+01      1.42649    0.7483625  35.43  0.006316033    1.875    0.467
       263  -9.5024    228.1640     30.9044   5.5201641429e+01   2.5030654997e+01     0.281257     0.184418 -56.88 0.0008162778    1.283    0.221
       264  -9.6511    226.8831     27.7972   5.4598107735e+01   2.5636647084e+01    0.2955813    0.2073036  54.62  0.001833976    1.787    0.440
       265  -9.2060    203.6062     28.1828   5.6475354564e+01   3.0530766710e+01    0.3120057    0.2770869 -60.29  0.001333333    1.090    0.082
       266  -9.2277    205.0717     24.2314   5.5383349711e+01   3.0648411458e+01    0.2746384     0.127971 -49.82 0.0009245221    1.846    0.458
       267  -9.7750     15.0358    142.4973   1.3510266631e+02   4.4443620853e+01    0.5083284    0.2627565 -77.08  0.002393294    1.805    0.446
       268  -8.8481    198.5059     16.5374   5.3984665360e+01   3.2946920196e+01    0.2578723    0.2288114  80.88 0.0009411087    1.217    0.179
       269  -9.1432    146.2074     29.1391   6.3235673189e+01   4.4397817828e+01    0.3304555    0.1703357  53.29  0.001442057    1.931    0.482
       270  -8.7903     83.0015     13.0963   6.9743336551e+01   6.2642537642e+01    0.2145038    0.1587153  43.67 0.0004555548    1.264    0.209
       271 -10.1040     12.7081    151.5676   1.3651636574e+02   4.2318093501e+01    0.4699007    0.3002063 -61.75  0.002494219    1.598    0.374
       272 -12.0027     20.7433    147.4784   1.3364065840e+02   4.2702639484e+01    0.6263854    0.5433289 -40.67  0.002469876    1.334    0.250
       273 -11.1977     31.0865    143.4529   1.2984815621e+02   4.2785078530e+01    0.5957391    0.4215087  52.20  0.002950409    1.338    0.252
       274  -9.8788     45.9747    149.9986   1.2570459686e+02   3.9488672016e+01    0.2168106    0.2001564 -70.09            0    1.134    0.118
       275 -10.1730     46.0007    144.9732   1.2505883204e+02   4.0773900325e+01    0.4529961    0.3393564 -23.61   0.00181344    1.706    0.414
       276  -9.9094     27.7908    137.1888   1.3029570821e+02   4.4727972458e+01    0.3383721     0.271183 -36.63  0.001430623    1.441    0.306
       277 -10.6578     22.5979    137.1226   1.3207765179e+02   4.5212843003e+01    0.6636773     0.309611 -66.23   0.00291814    1.989    0.497
       278 -10.6013     30.8107    151.2430   1.3073523814e+02   4.0812708449e+01    0.2942002    0.2500905   6.41   0.00091552    1.361    0.265
       279 -11.6356     39.3292    146.5027   1.2745348003e+02   4.1140235953e+01    0.8061571    0.5579427 -49.87  0.004012547    1.579    0.367
       280  -9.1041     87.1623    149.1730   1.1256488716e+02   3.3842194451e+01    0.2264624    0.2091765   1.32 0.0007416734    1.191    0.160
       281 -10.6105    109.9707     36.1103   7.2731487832e+01   5.2970829164e+01    0.3294534    0.2696491 -39.91 0.0006948871    1.304    0.233
       282 -10.2908     66.4128    148.3775   1.1889723158e+02   3.7233161001e+01    0.3036344    0.2527428  -8.00   0.00124431    1.463    0.316
       283 -12.7883     12.5666    127.8903   1.3474051237e+02   4.8406861015e+01     2.102608    0.9676207 -50.76  0.009124579    2.274    0.560
       284  -9.4154    235.3344    249.5434   9.6377206506e+01  -4.7551711878e+00    0.1763496   0.07999194  29.85  0.001115428    1.970    0.492
       285  -8.6828    124.6350    249.7122   1.1703070011e+02   8.2114190011e+00    0.1213875   0.07970889   6.33 0.0005457713    1.698    0.411
       286  -9.1074    183.8502    250.1277   1.0532401689e+02   7.9802629802e-01     0.168942    0.1311717  23.14   0.00123878    1.254    0.202
       287 -11.8447    111.3748     67.9752   8.4011282305e+01   4.7394646007e+01     1.688644     1.097885 -71.62  0.006681131    2.342    0.573
       288  -8.8976     30.9831    247.4906   1.3704435079e+02   1.9626611927e+01    0.1451119   0.09261689   0.45 0.0005925539    2.464    0.594
