#   1 NUMBER                 Running object number                                     
#   2 MAG_AUTO               Kron-like elliptical aperture magnitude                    [mag]
#   3 X_IMAGE                Object position along x                                    [pixel]
#   4 Y_IMAGE                Object position along y                                    [pixel]
#   5 X_WORLD                Barycenter position along world x axis                     [deg]
#   6 Y_WORLD                Barycenter position along world y axis                     [deg]
#   7 A_WORLD                Profile RMS along major axis (world units)                 [deg]
#   8 B_WORLD                Profile RMS along minor axis (world units)                 [deg]
#   9 THETA_WORLD            Position angle (CCW/world-x)                               [deg]
#  10 FWHM_WORLD             FWHM assuming a gaussian core                              [deg]
#  11 ELONGATION             A_IMAGE/B_IMAGE                                           
#  12 ELLIPTICITY            1 - B_IMAGE/A_IMAGE                                       
         1 -14.8066    158.1546     43.3695   8.4753716933e+01   4.0297161179e+01     1.468986     1.054706 -22.83  0.003953234    1.346    0.257
         2 -12.8725    189.4464     13.6097   6.9954012629e+01   3.5830480927e+01     1.414556    0.5210025 -58.02   0.00403859    5.058    0.802
         3 -14.0328    167.8160     14.1831   7.2813414311e+01   4.1296786625e+01    0.9491236    0.7013621 -76.77  0.004249325    1.587    0.370
         4 -14.3385    170.6595      8.1494   7.0328300219e+01   4.1127310029e+01     1.042206    0.7909784  82.49  0.003360453    1.403    0.287
         5 -11.0059    150.9594    241.3090   1.2912307653e+02   9.4645174165e+00    0.1648583    0.1558848  -4.33  0.001323344    1.347    0.257
         6 -13.3802    189.2682    249.4705   1.2353144503e+02   3.7531517465e+00    0.5063486    0.2064667  30.01  0.002987485    1.869    0.465
         7 -12.3408    176.2262    248.7843   1.2562196456e+02   5.4379840119e+00    0.2313887    0.1551592  -0.71 0.0004995957    1.664    0.399
         8 -19.8587     93.4649    232.7852   1.3864672233e+02   1.7685777751e+01     6.954818     4.879171  47.22     0.046768    1.149    0.129
         9 -10.3687     28.2777    240.2698   1.5057836827e+02   2.3292377083e+01    0.1510711   0.06891282  54.76  0.001055828    1.631    0.387
        10 -13.9084    195.7888    171.3604   1.1064067919e+02   1.2231838010e+01    0.7352251    0.4194118 -44.62  0.002705612    2.288    0.563
        11 -14.1270    207.6056    178.0866   1.0970742278e+02   9.4691955988e+00    0.8300153    0.5332552 -31.63  0.003609088    1.647    0.393
        12 -12.1702    203.1518    172.5003   1.0948904343e+02   1.0900086879e+01     0.320262    0.2398873 -12.05  0.001681698    1.242    0.195
        13 -11.9882     16.3482    250.1053   1.5284293075e+02   2.2876246126e+01    0.1204203   0.08871155  69.98  0.001110475    1.215    0.177
        14 -12.3789    129.2337    181.8654   1.2588537969e+02   2.1088492090e+01    0.3534526    0.3256021  75.89  0.001827918    1.281    0.219
        15 -12.8959    199.0670    222.6873   1.1839073766e+02   5.3366487256e+00    0.3343338    0.1761351  38.15  0.001092668    1.671    0.401
        16 -14.3657    177.5486    172.3966   1.1434206443e+02   1.5032484592e+01     0.826441    0.5159636 -38.94  0.004564045    1.765    0.433
        17 -12.4775     23.4322    218.5327   1.5059195369e+02   2.7151932334e+01    0.2765504    0.1471388 -67.01  0.001921732    2.148    0.535
        18 -12.4608    185.7270    168.0394   1.1194243634e+02   1.4342241202e+01    0.3979588    0.1985744 -37.60  0.001950298    2.131    0.531
        19 -12.3968    167.7448    174.5550   1.1668175329e+02   1.6288453556e+01    0.2589245    0.2219395  51.45  0.001055944    1.433    0.302
        20 -11.9068    230.1741    166.4955   1.0361851741e+02   7.4399255761e+00    0.2779825    0.1560925 -43.04  0.001401821    2.613    0.617
        21 -11.9213    201.2130    165.1583   1.0845743066e+02   1.2212168907e+01     0.272393    0.2164652 -47.07 0.0009589962    1.781    0.438
        22 -11.1680    222.6353    162.0287   1.0402277800e+02   9.1699703968e+00    0.2813484    0.1913723 -46.08  0.001149585    2.236    0.553
        23 -12.9523    164.8211    158.5497   1.1437272773e+02   1.9326037722e+01    0.3223172    0.2173205  31.16  0.001742301    1.357    0.263
        24 -11.3664     29.1521    156.6553   1.4606312984e+02   3.8333462618e+01     0.244798    0.1794821 -79.10 0.0004941243    1.264    0.209
        25 -10.0730      4.0216    157.9369   1.5198862772e+02   3.9996756037e+01    0.1571903    0.1139238 -54.41 0.0007362644    1.662    0.398
        26 -14.2085    153.0124    145.2092   1.1430497804e+02   2.3673170857e+01    0.6223034    0.5336846  84.50  0.003477895    1.663    0.399
        27 -14.4620    143.4266    143.9502   1.1622227333e+02   2.5594334357e+01       1.0058    0.5241449 -58.08  0.004096261    2.824    0.646
        28 -11.1764    192.2864    153.8637   1.0791214314e+02   1.5332792134e+01    0.2938145    0.1545472 -27.19   0.00139642    1.968    0.492
        29 -11.3833     18.2487    148.7492   1.4814836754e+02   4.0916183930e+01    0.2640401    0.2198114 -71.34  0.001144929    1.247    0.198
        30  -9.6253     20.3074    151.3437   1.4781823907e+02   4.0198040714e+01    0.1927802    0.1490738 -32.57 0.0007773046    1.774    0.436
        31 -14.1011    135.9457    127.9019   1.1462801469e+02   3.0004948569e+01     1.817895    0.3377546 -49.58  0.004000778    7.850    0.873
        32 -10.0916     22.8741    156.1555   1.4752124083e+02   3.8967303353e+01    0.1403003    0.1247203 -70.86 0.0004426868    1.256    0.204
        33 -12.8477    174.1969    148.6211   1.1045272561e+02   1.9320326080e+01     0.378904    0.3201947 -45.12  0.001456266    1.424    0.298
        34 -12.8501    134.6069    109.3185   1.1058807362e+02   3.3953628268e+01     1.048169    0.1798587 -45.35  0.002460006    6.060    0.835
        35 -10.3471    182.7683    149.5604   1.0890222235e+02   1.7651559945e+01    0.1741265    0.1237699  46.45 0.0004033255    1.557    0.358
        36 -11.0751     17.1266    154.1809   1.4875820233e+02   3.9840089579e+01    0.1916678    0.1643985  52.58  0.001426566    1.179    0.152
        37 -12.1858     27.3533    145.6283   1.4566749662e+02   4.0865568059e+01    0.3045601    0.2753161  84.13 0.0008568072    1.109    0.098
        38 -12.0581    176.1178    142.8182   1.0884262130e+02   1.9923083839e+01    0.1997166    0.1911619  31.06 0.0008068635    1.245    0.197
        39 -14.4740    133.9044    145.9437   1.1882773180e+02   2.6864967177e+01     1.356685    0.5166713 -56.67  0.004557397    4.054    0.753
        40 -10.7632     26.0469    138.9829   1.4546586836e+02   4.2445561950e+01    0.1752658    0.1559087 -88.71 0.0006272119    1.098    0.089
        41 -10.4202     17.6605    222.4953   1.5176758121e+02   2.6995217429e+01   0.09113239   0.07345789  65.51 0.0002441673    1.138    0.121
        42 -11.2260     21.8830    238.7635   1.5159554182e+02   2.4080393092e+01    0.1250517    0.1033094  74.19 0.0006890066    1.255    0.203
        43 -11.8346    156.1428    132.8498   1.1098637792e+02   2.5328497026e+01     0.202019     0.195181  45.32 0.0003026378    1.198    0.165
        44 -13.5645    160.8859    128.0662   1.0884908419e+02   2.5293361307e+01    0.5203607    0.4293042  45.46   0.00245676    1.295    0.228
        45 -11.9967    139.7592    148.9591   1.1804465537e+02   2.5299202228e+01      0.30573    0.2447035  52.76 0.0003908988    1.380    0.275
        46 -12.9024     38.8883    123.8033   1.4044818118e+02   4.4799249676e+01     0.308934    0.2619703 -38.78  0.001151003    1.380    0.276
        47 -10.9517    160.3663    247.4475   1.2816084261e+02   7.5616172490e+00    0.2636676    0.1368648  18.12  0.001491945    2.202    0.546
        48 -11.2384     30.8504    206.1917   1.4866626765e+02   2.8593945413e+01    0.1841856     0.167239  10.42 0.0009744813    1.509    0.337
        49 -13.0933     11.6206    205.9991   1.5228991792e+02   3.0268789925e+01    0.4422713    0.2224708  25.20  0.002878847    2.163    0.538
        50 -10.8838    205.4310    110.1653   9.5559481418e+01   1.9453480850e+01    0.3029649    0.1911179  34.25 0.0009498007    1.606    0.377
        51 -13.1503    138.0496    198.4110   1.2636966233e+02   1.7106117383e+01    0.5900186    0.3832302  49.63   0.00326768    1.602    0.376
        52 -11.9314     26.5368    106.1603   1.4206159673e+02   5.0045290439e+01    0.3444106    0.2460476  -8.92  0.001541038    1.895    0.472
        53 -12.0503     41.1688     93.9980   1.3549307603e+02   5.1731876736e+01    0.4594488    0.3457223 -47.06  0.002334995    1.316    0.240
        54 -10.7684    124.4949     95.4741   1.0960424192e+02   3.8759043105e+01    0.1502156    0.1424295 -12.36 4.497619e-05    1.005    0.005
        55 -19.1446     76.6341     93.5513   1.2346658148e+02   4.7540137543e+01     18.35758    0.8910258 -55.89   0.02503585   18.613    0.946
        56 -11.9077     50.7199     91.7909   1.3180532781e+02   5.1285426279e+01    0.2835878    0.2394108  21.56 0.0008106442    1.354    0.261
        57 -11.6454      6.4146     88.9827   1.4676088401e+02   5.5486151338e+01     0.452942    0.1979674 -20.69  0.001942434    3.750    0.733
        58 -10.3756    105.7975     82.2160   1.1117899509e+02   4.5185988589e+01     0.208321    0.2012403 -64.00 0.0004150694    1.127    0.113
        59 -11.0640    142.3279     80.3347   1.0056099572e+02   3.7980344348e+01     0.267064    0.2253477  -0.11 0.0006080159    1.230    0.187
        60 -11.0396     57.9864     75.9890   1.2565361450e+02   5.4249528739e+01    0.1655328    0.1570408 -43.83 0.0005271595    1.068    0.064
        61 -14.5484    147.2595     58.4087   9.2272381642e+01   4.0687523460e+01     1.380762     1.116865  16.82  0.003306605    1.309    0.236
        62 -13.7082    197.5741    245.2674   1.2164870296e+02   3.1501496537e+00    0.4027338    0.3627133 -72.36  0.003198881    2.340    0.573
        63 -13.2346    161.7440     34.8758   8.1098625280e+01   4.0525706355e+01    0.4688092    0.4153854  15.53 0.0008772449    1.126    0.112
        64 -10.8440     13.3919     59.8762   1.4013378535e+02   6.2224511119e+01    0.1833113    0.1686028  72.71 0.0004416601    1.239    0.193
        65  -9.0367     12.6675    243.1951   1.5324386929e+02   2.4192903724e+01    0.1636095    0.0948848 -58.48  0.001239275    2.500    0.600
        66 -11.8164    167.8427    245.3166   1.2664577663e+02   6.8649419176e+00    0.1745936    0.1345549  -4.92 0.0007480423    1.426    0.299
