#   1 NUMBER                 Running object number                                     
#   2 MAG_AUTO               Kron-like elliptical aperture magnitude                    [mag]
#   3 X_IMAGE                Object position along x                                    [pixel]
#   4 Y_IMAGE                Object position along y                                    [pixel]
#   5 X_WORLD                Barycenter position along world x axis                     [deg]
#   6 Y_WORLD                Barycenter position along world y axis                     [deg]
#   7 A_WORLD                Profile RMS along major axis (world units)                 [deg]
#   8 B_WORLD                Profile RMS along minor axis (world units)                 [deg]
#   9 THETA_WORLD            Position angle (CCW/world-x)                               [deg]
#  10 FWHM_WORLD             FWHM assuming a gaussian core                              [deg]
#  11 ELONGATION             A_IMAGE/B_IMAGE                                           
#  12 ELLIPTICITY            1 - B_IMAGE/A_IMAGE                                       
         1 -14.2707     68.5617    144.2919   9.9117471560e+01   3.7478740892e+01     4.445163     2.340935  70.77     0.012421    4.255    0.765
         2 -13.3204    201.0275     42.0944   4.1214257002e+01   3.0420660487e+01     1.166285     1.021947 -37.15   0.00325955    1.217    0.178
         3 -13.5678    211.4619     31.9549   3.7632171164e+01   2.9382724478e+01    0.9245177    0.8257518   1.63  0.001849041    1.500    0.333
         4 -12.3683    240.0126      6.6424   2.9853230660e+01   2.6284965834e+01    0.6723577    0.4584987 -42.47  0.004586367    1.386    0.278
         5 -12.0167    233.3682      6.9026   3.0359165673e+01   2.7579668678e+01    0.6542262    0.2890786 -38.05  0.003604985    2.036    0.509
         6 -11.9271    196.0979    204.3112   7.9091175141e+01   3.0001955554e+00    0.5591029    0.3531809   0.90  0.002678362    1.976    0.494
         7  -9.6791    140.4846    250.2877   9.7974664287e+01   3.5735874497e+00    0.2756234      0.12334  44.55  0.001217275    2.145    0.534
         8 -13.4488     53.4963    186.5868   1.0943012724e+02   2.8985443304e+01      1.63221     1.173884  68.99  0.009079633    1.408    0.290
         9  -9.8981    107.7781    204.0147   9.8684856909e+01   1.7453924920e+01    0.2264539    0.1637793  64.71 0.0006082918    1.604    0.377
        10  -8.7649     67.9635    199.5217   1.0749926773e+02   2.4167319257e+01    0.2017205    0.1684055 -76.68 0.0005183414    1.162    0.139
        11 -10.3973    121.9454    198.0096   9.4398236208e+01   1.6505793582e+01    0.3893878    0.2734175 -79.98  0.001854687    1.954    0.488
        12 -10.8807    192.8568    194.0059   7.7806707338e+01   5.3613265658e+00    0.6072111    0.3490885 -63.19  0.002218147    3.920    0.745
        13  -8.0388    224.2473    206.6550   7.4070254553e+01  -1.6605170997e+00    0.1129381   0.09945029 -48.25 0.0002614161    1.575    0.365
        14 -15.4504     41.8219    196.0214   1.1323407124e+02   2.8111756232e+01     8.622595     3.142856  64.95   0.02509525    5.941    0.832
        15 -10.0155    147.4910    187.8692   8.6595057446e+01   1.4352058931e+01    0.3820336    0.2805482 -82.24  0.001580349    2.128    0.530
        16  -9.8989    110.9709    203.1975   9.7810701375e+01   1.7134865639e+01    0.2653306    0.1985337  59.99 0.0006152734    1.464    0.317
        17  -9.1530     79.8555    182.7232   1.0234499503e+02   2.6474536937e+01    0.3382555    0.1937632 -85.40  0.001402979    2.433    0.589
        18  -9.5662     99.3996    180.8510   9.7096671421e+01   2.3999895561e+01    0.2669281    0.2305865  42.56 0.0006046711    1.142    0.125
        19 -10.6395    242.2171    177.9900   6.5374113139e+01   3.1826194550e-01    0.3042809    0.1660789  19.24  0.001421797    2.428    0.588
        20  -8.0565     88.6763    178.7471   9.9488969512e+01   2.6138753422e+01    0.1361596    0.1106424 -15.22  0.000692762    1.542    0.352
        21 -10.2369    186.9755    175.6042   7.5370574405e+01   9.8273883629e+00     0.368733    0.3144359 -45.66  0.001176621    1.268    0.211
        22  -9.3823    234.3197    174.3274   6.6003032554e+01   2.1207801776e+00    0.1385311   0.09220391  -7.11 0.0007047177    1.683    0.406
        23  -8.6292    147.7601    174.0562   8.3859142077e+01   1.7254613952e+01    0.1881472    0.1243996 -48.15 0.0003135035    1.534    0.348
        24 -12.1822     80.9545    159.1885   9.8273288840e+01   3.2029616067e+01     1.155657    0.6230105  64.48 0.0003690239    3.077    0.675
        25 -12.9476     69.0578    154.1540   1.0071077893e+02   3.4949549949e+01    0.6615325    0.4552417 -54.09  0.001087984    1.363    0.267
        26 -14.9338      9.6517    207.1376   1.2117929943e+02   2.8775081829e+01     1.283425      1.07164 -24.73  0.005540787    1.756    0.431
        27  -9.4682     34.5884    171.7943   1.1243058778e+02   3.4610596236e+01    0.2545411    0.1815468  58.93  0.000796341    1.414    0.293
        28  -8.2803    193.4883    170.4655   7.2950925099e+01   9.6561690258e+00    0.1438925    0.1304547 -12.54 6.389437e-05    1.020    0.019
        29 -10.8935    240.8454    169.1187   6.3840369050e+01   1.9795733892e+00    0.2280132    0.1752021  19.38 0.0006928997    1.379    0.275
        30  -8.8775    110.8188    167.7993   9.1848812707e+01   2.5213233847e+01     0.203946    0.1746776  77.07 0.0004613595    1.333    0.250
        31  -8.4550    120.5043    165.5761   8.8915323506e+01   2.4063241136e+01    0.1469665    0.1448478  15.16  9.60723e-05    1.013    0.013
        32 -15.2111      3.6898    183.1990   1.2084236754e+02   3.4625308816e+01     13.24069    0.3724499 -73.97   0.02379861    9.588    0.896
        33  -9.9080     33.3052    156.4340   1.1095100574e+02   3.8499956739e+01    0.2580693    0.2288013  49.17  0.001619819    1.221    0.181
        34 -11.5883     88.2048    152.4775   9.5035513774e+01   3.2592592726e+01    0.6614456    0.4524371 -20.71  0.002927145    2.019    0.505
        35 -10.6129    133.8034    145.2005   8.1157996876e+01   2.6322011234e+01     1.200196    0.3150387 -53.78  0.002837643    5.535    0.819
        36 -11.3418     67.4273    172.6352   1.0406290090e+02   3.0603146256e+01     0.395546    0.2898169 -31.63  0.001540742    1.694    0.410
        37  -9.4767     58.8544    150.9875   1.0306714778e+02   3.7057578726e+01    0.3049964    0.2110245 -22.90  0.001466667    1.918    0.479
        38 -10.8187     54.0469    148.6860   1.0406702643e+02   3.8214639275e+01    0.6644874    0.2582462 -64.69  0.002563011    2.384    0.580
        39  -8.8063    111.5709    149.6971   8.8027709148e+01   2.9386700826e+01    0.3373335    0.2136841  67.59  0.001298896    2.518    0.603
        40  -9.1249    174.8736    149.1104   7.2257496431e+01   1.7397488034e+01    0.2275881    0.2097771 -71.14 0.0006678042    1.276    0.217
        41  -9.5453     49.0444    144.8908   1.0490419849e+02   3.9742013010e+01    0.2964359    0.1665898  16.55  0.001331839    2.287    0.563
        42 -10.1765     28.3178    144.0131   1.1073598832e+02   4.2040958363e+01     0.245673    0.1934042  42.13  0.001408537    1.404    0.288
        43  -9.6060    111.2835    129.3855   8.3535662667e+01   3.4259511379e+01    0.3288203    0.2582941  -7.02 0.0009094451    1.550    0.355
        44 -10.3648    101.9608    138.5802   8.8291285727e+01   3.3734949345e+01    0.5981418    0.3700832 -20.26  0.002281789    2.546    0.607
        45 -10.0565    105.9366    131.0526   8.5447680933e+01   3.4838678574e+01    0.4225527    0.3153747 -58.58   0.00144513    1.386    0.278
        46 -11.5724     89.4022    138.0111   9.1783484786e+01   3.5962166535e+01    0.2967111    0.2557907 -35.06 0.0004708632    1.170    0.145
        47  -9.9817     25.7563    137.4713   1.1059474018e+02   4.3887344674e+01    0.2900871    0.2206677  42.19 0.0009172097    1.469    0.319
        48 -10.1377    135.3543    128.7288   7.6860396883e+01   2.9740855404e+01    0.3839062    0.2568558 -60.68  0.001409763    1.786    0.440
        49  -9.2978    161.1200    128.4230   7.0479504837e+01   2.4494695949e+01    0.3213329    0.2028002 -58.39  0.001325037    1.950    0.487
        50 -11.5406     72.1560    167.7253   1.0207177271e+02   3.1171027951e+01    0.5400082    0.3163754 -49.23  0.001100631    1.712    0.416
        51  -9.5475     27.8985    128.4837   1.0866112745e+02   4.5936068680e+01    0.3132036    0.1197155  27.92  0.001320393    2.826    0.646
        52 -10.2045     98.4857    125.2246   8.6235667894e+01   3.7540677631e+01    0.3245706    0.2544592 -23.70  0.001035512    1.413    0.292
        53 -10.1111    117.6379    123.7914   8.0390318034e+01   3.4359358609e+01    0.3649785    0.2138167  22.46  0.001040201    2.325    0.570
        54  -9.0242     86.6808    120.3403   8.8631152735e+01   4.0691984750e+01    0.2763046    0.2166093  78.20   0.00121267    1.710    0.415
        55  -9.0517    135.0000    119.9689   7.4751655054e+01   3.1751088762e+01    0.2650933   0.08701754 -45.06 0.0008069605    2.974    0.664
        56  -8.3042    163.6365    121.3231   6.8145002219e+01   2.5437346801e+01    0.1577727    0.1235566 -84.91 0.0007040443    1.786    0.440
        57  -9.3434    107.6696    118.4787   8.1888010441e+01   3.7469862754e+01    0.2512661     0.223241 -22.86 0.0002431783    1.135    0.119
        58  -9.7852    117.2186    173.3928   9.1254880802e+01   2.2818303516e+01     0.221345    0.1323678  45.75 0.0009610909    1.723    0.419
        59 -10.1613    231.2657    113.7829   5.3671763933e+01   1.3043356229e+01    0.2722124    0.2391108 -37.61 0.0007566601    1.012    0.012
        60  -8.7125    134.6300    111.8212   7.2723019995e+01   3.3592228538e+01     0.228804    0.1428692 -52.49 0.0009526119    1.721    0.419
        61 -11.0310     33.6849    108.8366   1.0343039089e+02   5.0257454051e+01    0.3743856    0.2673127 -80.50  0.002005512    1.540    0.350
        62 -10.6851     17.5426    110.3217   1.0911655154e+02   5.1201532997e+01    0.2446762    0.1919778 -84.11 0.0006431418    1.300    0.231
        63  -9.3116    205.5255    110.1820   5.7037832881e+01   1.8737270987e+01    0.2935191    0.2076469  40.45 0.0009575473    1.583    0.368
        64 -10.1142    115.4806    108.8169   7.7120131925e+01   3.8152956525e+01    0.3516599    0.3030217 -16.02  0.001782957    1.216    0.178
        65  -8.7641    137.4987    104.4661   7.0006628693e+01   3.4530676880e+01    0.2343183    0.1480494  33.54 0.0001060232    1.755    0.430
        66  -9.7052     41.3104    103.6916   9.9758576251e+01   5.0757497414e+01    0.2055955     0.191398 -82.81 0.0006656028    1.203    0.169
        67 -10.0722     38.2064    102.5892   1.0060736975e+02   5.1333611432e+01    0.2526763    0.1648582 -50.23 0.0006324115    1.305    0.234
        68 -10.5873    241.6699    101.8431   4.9568945756e+01   1.3086728205e+01     0.230258    0.1599274  72.00  0.001252267    1.860    0.462
        69  -8.6163     84.0222    173.5470   9.9861423523e+01   2.8073800802e+01    0.2079327    0.1383844  35.17  0.000386657    1.525    0.344
        70 -10.2282     33.0431    100.0433   1.0189175274e+02   5.2430137689e+01    0.2776623    0.1944261  34.14 0.0009112248    1.644    0.392
        71  -9.1299     53.0258     90.9897   9.2569794269e+01   5.2410438717e+01     0.173953     0.151808 -35.98 0.0007939791    1.008    0.008
        72 -17.1958     14.2633    242.7811   1.2237360183e+02   2.1000886072e+01     5.375202     3.562983  31.14    0.0348645    1.686    0.407
        73  -8.1678    154.6362     86.3109   6.0884544290e+01   3.4264933304e+01     0.155206    0.1186064 -80.70 0.0007039742    1.753    0.430
        74  -8.9088     74.9523     85.1391   8.3137698485e+01   5.0611304876e+01    0.2041377    0.1943743  74.38  0.000558068    1.298    0.230
        75  -8.9101    158.8732     82.8779   5.9007788170e+01   3.3914800925e+01    0.2051291    0.1767182 -74.38  0.000488788    1.311    0.237
        76  -8.6955    151.0829     82.8781   6.0709212872e+01   3.5695441400e+01    0.2175122     0.196182 -76.29 0.0004465941    1.229    0.187
        77  -9.1615     69.6687     81.8239   8.4005919475e+01   5.2138266122e+01     0.222348    0.1908743  61.40 0.0008486686    1.528    0.346
        78  -8.7985    111.0776     81.0753   7.0393356779e+01   4.4802467548e+01     0.227306    0.1874777  88.58 0.0009497129    1.688    0.408
        79  -8.8078     54.0749     65.3556   8.4693982475e+01   5.7753072533e+01    0.1828584    0.1581686  15.33 0.0004101087    1.186    0.157
        80 -11.0466     12.4769     59.7056   1.0050410027e+02   6.3079723533e+01    0.3920217    0.2364677  16.24  0.002273445    1.831    0.454
        81 -12.9857    190.8315     49.6109   4.4428274837e+01   3.1727846496e+01     1.092949    0.8258527  44.50  0.001090756    1.497    0.332
        82 -10.5218    116.5054    244.9902   1.0225507269e+02   7.9727180404e+00    0.2511958    0.1658703  19.74  0.001376509    1.695    0.410
        83 -11.0376    120.7028    215.8247   9.7448223462e+01   1.2960216216e+01    0.3426166    0.2640904   8.85   0.00186509    1.524    0.344
        84  -9.1152    187.8260     31.1792   4.0163239114e+01   3.4763548710e+01    0.1710874    0.1480559  46.81 0.0006491859    1.304    0.233
        85  -9.1824    198.2956     23.5471   3.7071314950e+01   3.3266078948e+01    0.2059726    0.1101068 -31.03 0.0009324824    1.978    0.495
        86  -8.8818    189.4980     15.0153   3.5955157186e+01   3.6161334291e+01    0.1727339    0.1208362 -31.64 0.0006047156    1.559    0.359
        87 -10.0350    184.4006    212.7994   8.3024960780e+01   3.3633304055e+00    0.1890759    0.1177688 -29.32 0.0009506532    1.660    0.398
        88  -9.2392     89.0701    210.9376   1.0400167820e+02   1.8731258529e+01     0.196325    0.1816195  64.06 0.0005518438    1.016    0.016
