#   1 NUMBER                 Running object number                                     
#   2 MAG_AUTO               Kron-like elliptical aperture magnitude                    [mag]
#   3 X_IMAGE                Object position along x                                    [pixel]
#   4 Y_IMAGE                Object position along y                                    [pixel]
#   5 X_WORLD                Barycenter position along world x axis                     [deg]
#   6 Y_WORLD                Barycenter position along world y axis                     [deg]
#   7 A_WORLD                Profile RMS along major axis (world units)                 [deg]
#   8 B_WORLD                Profile RMS along minor axis (world units)                 [deg]
#   9 THETA_WORLD            Position angle (CCW/world-x)                               [deg]
#  10 FWHM_WORLD             FWHM assuming a gaussian core                              [deg]
#  11 ELONGATION             A_IMAGE/B_IMAGE                                           
#  12 ELLIPTICITY            1 - B_IMAGE/A_IMAGE                                       
         1 -14.3536    194.8642    158.0032   6.0367199001e+01   1.1136307100e+01     10.98032     8.095165 -65.74   0.05309472    1.914    0.477
         2 -16.1684    239.7231     76.7344   3.2669497518e+01   1.4333463252e+01     11.30829     3.406063  50.30   0.03719374    3.351    0.702
         3 -15.1328    244.3342     17.4764   1.7176619613e+01   2.1208460843e+01     3.994048     3.710878  34.06     0.024825    1.301    0.231
         4 -14.6339    247.1691     64.5187   2.8549723902e+01   1.4372611994e+01     3.173042     1.571055 -57.92  0.008476155    2.766    0.638
         5 -15.1377    248.0478     84.6608   3.3445220809e+01   1.1204374189e+01     7.533541     1.630937 -27.82   0.01155485    7.162    0.860
         6 -13.7093    174.6576     87.2838   4.7197620057e+01   2.8829491234e+01     2.505592     1.370625 -21.61    0.0043892    2.518    0.603
         7 -10.7248    178.9059     24.4179   2.7260069469e+01   3.7383651986e+01    0.7174722    0.4376692  54.37   0.00308423    1.513    0.339
         8 -14.3572    234.3718     62.9749   2.9902243661e+01   1.7671423867e+01     2.192802     1.503825 -72.67  0.003823736    1.814    0.449
         9 -10.2221    169.6267     22.3583   2.8133379572e+01   4.0095711870e+01    0.6881174    0.2902076 -11.45  0.002197663    3.884    0.743
        10 -10.8028    222.2641     14.5586   1.8678071999e+01   2.7054550079e+01    0.4634289    0.3001499  23.91 0.0006472088    2.263    0.558
        11  -9.7095    155.6724     12.5118   2.7256219943e+01   4.4841258403e+01    0.5426353    0.2577658  -4.65  0.001970002    3.208    0.688
        12 -10.2044    192.3761      9.0979   2.0664786372e+01   3.5474828230e+01    0.5467703    0.2785096 -69.12  0.002085985    2.756    0.637
        13  -9.1360    139.0100      8.0003   2.8733065837e+01   4.9538144914e+01     0.174118    0.1540286  45.90  0.000510079    1.013    0.013
        14 -10.3339    181.4782      4.0669   2.0572160711e+01   3.8866676582e+01    0.4151442    0.3580728  49.29  0.001536678    1.147    0.128
        15  -9.3374    106.3973      3.2867   3.4078996591e+01   5.7661687472e+01    0.2534265    0.1259641 -13.41  0.001143442    2.204    0.546
        16  -8.2320    216.7718      1.3541   1.5769226331e+01   2.9854598381e+01    0.2297745    0.1159531  74.02 0.0005698305    1.817    0.450
        17  -9.6314    210.9425      1.6714   1.6440965048e+01   3.1329452277e+01    0.4739448    0.1767449  76.21  0.001496032    2.650    0.623
        18 -10.6320    234.6005    179.1584   5.7201657950e+01  -1.4647635514e-01    0.2706346    0.2333937  39.43 0.0003707726    1.219    0.180
        19 -10.4234    247.3523    248.4987   6.7031894147e+01  -1.0245217846e+01    0.3698426    0.1358239  39.40  0.001952038    2.043    0.510
        20  -9.7134    160.0657    164.9861   6.8960185452e+01   1.7184178671e+01    0.2235841    0.2033703 -54.40 0.0003088611    1.204    0.169
        21 -10.3748    190.6533    248.2481   7.6378263977e+01  -1.2333064592e+00     0.206379    0.1528163  43.34 0.0003426907    1.085    0.079
        22  -9.3316    156.9599    247.1990   8.1966872305e+01   4.4668508854e+00    0.1692022    0.1455324  53.94 0.0002975836    1.164    0.141
        23  -9.2120    158.6912    242.7750   8.1144039749e+01   4.7755808320e+00    0.1847133    0.1489794  36.06 0.0004650326    1.227    0.185
        24  -8.2002    103.6844    158.2187   8.0160422841e+01   2.9199224566e+01    0.1329438    0.0920281  67.05 0.0002380609    1.484    0.326
        25 -13.3676      5.3481    150.4417   1.0079376502e+02   4.2742949977e+01      1.49936    0.9519547 -37.85  0.009579108    2.574    0.611
        26 -12.2449     36.0369    141.0291   9.3261028778e+01   4.2047123254e+01    0.6097841    0.3934411  30.55 0.0009877654    1.937    0.484
        27 -13.0031     44.2166    138.4837   9.1057103738e+01   4.1754807239e+01    0.9184969    0.7172841 -82.32  0.002873548    1.049    0.047
        28  -8.8116    159.7743    238.1920   8.0393445644e+01   5.2222168190e+00     0.156061    0.1132411  36.35 0.0003687617    1.274    0.215
        29  -8.5829    214.0751    155.4990   5.6090450278e+01   7.4779338799e+00    0.2104864    0.1334407  46.65 0.0005008883    1.501    0.334
        30 -10.2321     30.7561    153.5825   9.5758719726e+01   3.9875799877e+01    0.3730502    0.1781079  73.26  0.001908613    2.319    0.569
        31 -10.5948    205.8908    151.3751   5.6769462585e+01   9.8978975017e+00    0.4567968    0.3421546  80.33  0.002141398    2.032    0.508
        32  -9.7215    236.9646    171.7971   5.5308235241e+01   4.2805644028e-01    0.2341867     0.187031 -19.11 0.0009702311    1.254    0.203
        33 -10.4447    133.9491    145.0563   7.0825621063e+01   2.6434466912e+01      1.17819    0.3297195 -56.07  0.003100974    5.415    0.815
        34  -9.1910    164.8919    149.9003   6.4896779765e+01   1.9047345141e+01    0.2247182    0.2087072  72.20 0.0007063115    1.110    0.099
        35 -10.2315    126.8537    230.1036   8.5230104433e+01   1.1905958534e+01    0.2037908    0.1819636  89.66 0.0004598613    1.274    0.215
        36 -10.3545    145.0037    147.2025   6.8736743048e+01   2.3760156994e+01    0.5773215    0.3445411 -72.22  0.002259833    2.680    0.627
        37 -10.4828    148.2184    144.5693   6.7464841237e+01   2.3629758126e+01    0.4572232    0.3484846 -89.11  0.002209135    1.670    0.401
        38 -10.4939    152.5243    140.7442   6.5676550919e+01   2.3496184561e+01    0.3729234    0.3181407 -28.83 0.0004352777    1.334    0.250
        39 -10.6276    156.1925    136.8409   6.3990114418e+01   2.3493756001e+01     0.534135    0.3189926  63.04  0.002178538    2.085    0.520
        40  -9.5805    158.5256    143.4656   6.4921062815e+01   2.1668610262e+01    0.3084698    0.2598706  73.24  0.001061474    1.293    0.226
        41  -9.7685    209.6149    141.3402   5.3809874863e+01   1.0776425842e+01    0.2619158    0.2403208   9.24 0.0006241073    1.057    0.054
        42 -10.2266    209.4759    128.2140   5.0775210644e+01   1.3046850943e+01    0.6113003    0.3745652 -63.61  0.002318809    2.815    0.645
        43 -10.7427    211.5003    136.2301   5.2273697089e+01   1.1222590094e+01    0.4738925     0.326862 -16.51  0.001767076    1.690    0.408
        44 -11.4088    206.1657    134.6371   5.2933536922e+01   1.2690284844e+01    0.8221149    0.4713763  71.76  0.002826503    3.426    0.708
        45  -9.0108    136.8598    136.6693   6.8407029788e+01   2.7605581583e+01    0.4089202    0.1007256 -51.67  0.001093014    4.764    0.790
        46 -10.2253    166.8761    134.1651   6.0998827025e+01   2.1671669034e+01    0.3235395    0.2085814  59.95  0.001168169    1.718    0.418
        47 -11.1620     67.5511    143.8019   8.6284265069e+01   3.7784268908e+01     2.737808     1.117458 -73.85   0.01096498    2.924    0.658
        48 -11.1529    161.1727    128.3308   6.0914018820e+01   2.4100965712e+01    0.4481821    0.4246496 -51.06  0.001588727    1.095    0.087
        49 -10.7123    197.8636    126.6816   5.2686917980e+01   1.5987303942e+01    0.4029365    0.2204105 -38.62  0.001666268    1.872    0.466
        50  -8.0259    216.2797    126.6502   4.9111811750e+01   1.1764956680e+01    0.1471401    0.1175273 -67.39 0.0003678689    1.645    0.392
        51 -12.4121    168.8519    117.6880   5.6605843041e+01   2.4450730256e+01     1.325704     0.655088 -49.37  0.004969549    2.261    0.558
        52  -8.6224     92.9649    123.6465   7.6518600747e+01   3.8554785728e+01    0.1887834    0.1726787  58.13  0.000668543    1.130    0.115
        53  -8.8706    214.3737    121.0010   4.8104065945e+01   1.3156084323e+01    0.2134891    0.1785002 -26.12 0.0004205825    1.199    0.166
        54 -10.8495    162.8098    121.1661   5.8822925431e+01   2.5158901818e+01     0.484222    0.2828031 -51.10  0.001997021    1.882    0.469
        55 -10.5917    176.6671    109.6709   5.2845523340e+01   2.4149647307e+01    0.4824991    0.3163219 -36.15 0.0006668718    1.577    0.366
        56 -12.6262     51.8650    137.2723   8.9085706737e+01   4.1170343769e+01     1.110408    0.4507172 -61.08  0.002155673    2.100    0.524
        57 -13.6415    195.9484     91.9597   4.4147592740e+01   2.2646568699e+01     2.923632    0.6826397  46.42  0.007470545    4.510    0.778
        58 -10.2531     74.5551    105.9707   7.7819058126e+01   4.5312410365e+01    0.2135964    0.1921918  46.60 0.0001909775    1.223    0.183
        59  -8.9551    135.4540     75.2837   5.2835584249e+01   4.0534457882e+01    0.2688156    0.2081603  47.19  0.000708451    1.292    0.226
        60  -9.8963    151.0309     71.5246   4.7848172928e+01   3.7551366202e+01    0.2840697    0.2214188 -37.28 0.0001306114    1.296    0.228
        61  -9.9141    126.5056     69.8594   5.3481291377e+01   4.3560923382e+01    0.3208555    0.2572706 -44.08 0.0007590205    1.257    0.205
        62  -9.3528    158.1991     67.8157   4.5048016696e+01   3.6435693537e+01    0.2715978     0.244419 -22.71 0.0005200658    1.143    0.125
        63 -10.4814    205.5062     65.1673   3.4965865910e+01   2.4647165081e+01    0.5914642    0.2830513 -41.00  0.001811084    2.070    0.517
        64  -8.5820    110.8602     63.0976   5.5626095727e+01   4.8130514944e+01    0.3787218    0.0980613 -38.20  0.001088189    3.978    0.749
        65 -10.1062    186.3478     61.8102   3.7413583120e+01   3.0179399564e+01    0.3472952    0.3141675   3.25 0.0007851354    1.204    0.169
        66  -9.8031    142.0336     61.9571   4.6982283268e+01   4.1415094116e+01    0.2228003    0.2199878   8.38  0.001216256    1.030    0.029
        67  -9.6338    210.5361    164.7085   5.8707497455e+01   6.7408250233e+00    0.4263485    0.2970069 -88.47  0.001747318    3.135    0.681
        68  -8.5638    155.7196     58.5177   4.2675728842e+01   3.8629694258e+01    0.2084361    0.1509054  69.72 0.0006982022    1.568    0.362
        69 -10.8688    178.9423     50.0387   3.5241527261e+01   3.3939977749e+01     0.518409     0.371406  77.10  0.002358491    1.568    0.362
        70  -9.5677    198.6741     51.7315   3.2273154227e+01   2.8467169469e+01    0.3136047    0.2851273   2.26 0.0007861843    1.214    0.176
        71  -8.2638    111.4634     52.4230   5.1845365307e+01   4.9922983492e+01    0.1439001    0.1339208   1.62 0.0001194965    1.018    0.018
        72 -10.3694    142.7245     50.0334   4.2871829553e+01   4.3223588900e+01    0.3542658    0.1931447  45.76  0.001462836    1.785    0.440
        73 -10.1451    206.0374     47.2794   2.9814911401e+01   2.7166089518e+01    0.3691747    0.2984896 -68.31 0.0007484605    1.322    0.244
        74  -8.8455    204.7808     42.7200   2.8706135513e+01   2.8131399921e+01    0.2826308      0.21308 -39.35  0.000777425    1.330    0.248
        75 -10.2020    191.4266     35.4173   2.8634763278e+01   3.2660536526e+01    0.7613698    0.4897622 -87.50  0.003240173    1.959    0.489
        76 -10.9802    187.2521     40.7578   3.0925921723e+01   3.3058590491e+01     0.713719    0.4208097  47.99 0.0004399564    1.682    0.405
        77 -10.4983    182.2937     39.0183   3.1238592120e+01   3.4618127779e+01    0.6045881    0.3055438 -24.53 0.0005305829    2.190    0.543
        78  -9.8498    158.7168     40.8036   3.6248581261e+01   4.0579814568e+01    0.3359849      0.19716 -12.37 0.0008161947    2.222    0.550
        79 -10.7548    123.2397     37.7831   4.3381936635e+01   4.9699030481e+01    0.3020545     0.268157 -70.21   0.00140955    1.398    0.285
        80 -10.2995    147.9881     34.5758   3.6390015720e+01   4.4185178745e+01    0.4629388    0.1828843 -28.41  0.001668136    2.640    0.621
        81  -8.7421    172.7800     34.6174   3.1531233868e+01   3.7737904491e+01    0.2158268    0.1412124  75.37 0.0009444059    1.677    0.404
        82  -9.9777    116.0398     33.9346   4.3849960462e+01   5.1871857699e+01    0.2194048    0.1998031  13.21 0.0004638816    1.012    0.012
        83 -10.7402    125.1765     29.4991   3.9823224734e+01   5.0414797475e+01    0.3867232    0.1977506 -23.70  0.001392499    2.093    0.522
        84 -10.8193    124.7862     24.0371   3.7859584563e+01   5.1211293013e+01    0.4531327     0.241594 -22.82  0.001566127    1.983    0.496
        85  -8.7176     78.1429    222.1236   9.3010065368e+01   2.0653137214e+01    0.1548224    0.1299033  64.80 0.0003392102    1.218    0.179
        86  -8.5082    150.2417    217.0841   7.9364229693e+01   9.9921189976e+00    0.1595152    0.1392025  58.64 0.0003229001    1.101    0.092
        87  -8.4261     37.9862    213.6613   9.9232097117e+01   2.7243280171e+01    0.1846456   0.03518335  53.91 0.0005413014    4.385    0.772
        88  -9.6982    138.1751     26.8083   3.5782733272e+01   4.7648555529e+01    0.2126942    0.1636777  26.55    0.0010803    1.331    0.249
        89  -9.3675    158.0127     24.5777   3.0943938187e+01   4.2887070451e+01    0.2593716    0.2000015  11.25 0.0001079623    1.483    0.325
        90  -9.5586    144.1944     21.7969   3.2694585363e+01   4.6758784815e+01    0.2499839    0.1470134 -65.52  0.000955165    2.855    0.650
        91  -9.5069     10.6757    203.3344   1.0315467023e+02   3.1956813826e+01    0.1729442    0.1260471 -89.56 0.0003231945    1.212    0.175
        92  -8.5483    218.7085     13.7001   1.8837724978e+01   2.8064739610e+01    0.1922959    0.1697001  -1.97 0.0004215533    1.359    0.264
        93  -9.1885    190.2334     15.1389   2.2737524405e+01   3.5409896530e+01    0.3319741     0.218728 -85.13  0.001107105    1.712    0.416
        94  -9.3937    249.1391    202.6806   5.9140579233e+01  -5.7266832252e+00    0.2001542    0.1591987 -26.15  0.001307994    1.437    0.304
        95  -9.3365    134.2218     13.1795   3.1622779004e+01   5.0198321758e+01    0.2564071    0.1208937  29.44 0.0009472742    2.802    0.643
        96 -10.8665    192.7237    194.0975   6.7741251620e+01   5.7043006407e+00    0.8611845    0.4595927 -62.68  0.003094886    4.642    0.785
        97  -8.4294     25.0000    200.9968   1.0061120024e+02   3.0977437654e+01    0.1671929   0.04890792 -75.58 0.0008058015    2.966    0.663
        98  -8.4127    238.2195    196.3785   5.9856597646e+01  -3.0761762704e+00    0.1679303    0.1086261  46.77 0.0003819061    1.561    0.360
        99 -11.2925    217.1747    186.9379   6.1856142754e+01   2.0664396335e+00    0.4568307    0.4161331  37.79   0.00289695    1.175    0.149
       100  -8.5781     13.9680    188.0303   1.0171642607e+02   3.4515506105e+01    0.1328407    0.1070337 -71.78            0    1.477    0.323
