#   1 NUMBER                 Running object number                                     
#   2 MAG_AUTO               Kron-like elliptical aperture magnitude                    [mag]
#   3 X_IMAGE                Object position along x                                    [pixel]
#   4 Y_IMAGE                Object position along y                                    [pixel]
#   5 X_WORLD                Barycenter position along world x axis                     [deg]
#   6 Y_WORLD                Barycenter position along world y axis                     [deg]
#   7 A_WORLD                Profile RMS along major axis (world units)                 [deg]
#   8 B_WORLD                Profile RMS along minor axis (world units)                 [deg]
#   9 THETA_WORLD            Position angle (CCW/world-x)                               [deg]
#  10 FWHM_WORLD             FWHM assuming a gaussian core                              [deg]
#  11 ELONGATION             A_IMAGE/B_IMAGE                                           
#  12 ELLIPTICITY            1 - B_IMAGE/A_IMAGE                                       
         1 -15.2040     68.7094    144.2824   1.0830567665e+02   3.7237210465e+01     5.379608     2.765906  73.67  0.002888351    3.427    0.708
         2 -14.3398    199.4380     36.3982   4.8402149775e+01   3.0791724812e+01     1.939179     1.396721  29.48  0.007283358    1.833    0.454
         3 -14.4859    211.3520     23.7149   4.3565555316e+01   2.9430613186e+01     1.409377     1.070168  10.63  0.007485372    1.881    0.468
         4 -14.1692      6.2859     13.0590   9.8251904949e+01   7.2030099973e+01     2.571654    0.6795871 -44.31   0.01205394    2.607    0.616
         5 -10.1284     60.4822      7.5357   6.9474852406e+01   6.6329359438e+01    0.1255445    0.1016294   8.81 0.0001047222    1.003    0.003
         6 -11.8666    235.5975      1.9642   3.6101584965e+01   2.6142493351e+01     0.636055      0.20358  75.63  0.002500922    2.985    0.665
         7 -11.7460     51.9989      2.5146   7.0279345116e+01   6.8281090151e+01    0.2874536    0.2260644  59.00  0.001797927    1.974    0.493
         8  -9.2151    179.2766    206.3025   9.3145248794e+01   5.0565448802e+00    0.1305481    0.0977971   6.52 0.0001493768    1.542    0.352
         9 -11.0495    139.8393    249.5281   1.0706093828e+02   4.6878254789e+00    0.2207845    0.1973573  44.01  0.001605414    1.135    0.119
        10 -11.0554    134.5125    248.4320   1.0792442643e+02   5.6835113655e+00    0.3637002      0.22428 -78.89  0.001980531    2.602    0.616
        11 -15.1208     85.6131    228.0630   1.1503456614e+02   1.6562366218e+01     3.085045     1.278874  47.33   0.01339546    1.968    0.492
        12 -14.3127     46.2120    223.3754   1.2210065484e+02   2.2645607462e+01     1.348685    0.6696027  40.84  0.003952499    1.832    0.454
        13 -13.0297     15.1472    190.6179   1.2575819873e+02   3.2642752208e+01    0.3272491    0.2409271  71.55 0.0004840576    1.093    0.085
        14 -15.3474     45.5478    204.4613   1.2075379866e+02   2.6516724469e+01     2.492124     1.132267  59.32  0.008346911    2.046    0.511
        15 -14.4503     53.5608    194.4472   1.1821653814e+02   2.7662885694e+01     1.234972    0.9691979  75.69  0.008116351    1.045    0.043
        16 -10.9539     69.8775    198.2850   1.1516140596e+02   2.4720179475e+01    0.3983611     0.234695 -61.64   0.00218374    1.742    0.426
        17 -15.8867     64.3961    247.9617   1.2063066122e+02   1.5856913853e+01     8.330369      2.36801  31.26   0.01472318   11.520    0.913
        18 -11.6319     73.9221    188.6182   1.1319445236e+02   2.6244566468e+01    0.5173893    0.2507375  68.60  0.002148012    2.789    0.641
        19  -9.1351     95.0041    187.9175   1.0839934118e+02   2.3265677473e+01    0.1593013    0.1406482  77.74 0.0005402504    1.034    0.033
        20 -10.4342     99.4422    180.8156   1.0637510147e+02   2.4111130024e+01    0.2377388    0.2172064  30.68 0.0006004573    1.264    0.209
        21 -12.1672     68.7407    177.6405   1.1303046774e+02   2.9404584697e+01    0.3956963    0.2811291 -36.60  0.002103188    2.044    0.511
        22 -12.0456     73.1764    172.6009   1.1134991847e+02   2.9939030818e+01    0.3374188    0.2526001 -47.28 0.0006758589    1.582    0.368
        23 -11.7751    125.3441    173.6549   9.9184682287e+01   2.1224962202e+01    0.4886881    0.2649309  37.50  0.002133966    1.838    0.456
        24 -13.2506     88.6925    156.1173   1.0508639787e+02   3.1475009982e+01     1.589287    0.8889166 -78.76  0.006672453    2.283    0.562
        25 -13.0566     81.9702    162.9639   1.0785677717e+02   3.0896737689e+01     1.209773    0.4706767  54.50 0.0004673403    3.342    0.701
        26 -13.7142     70.2084    158.4626   1.1009914972e+02   3.3644179042e+01    0.6505705    0.5463404 -38.39   0.00176988    1.474    0.322
        27 -11.1237    172.5768    242.9852   1.0009967305e+02   4.8704959882e-01    0.3672835    0.2187948 -65.34  0.001812885    3.224    0.690
        28 -10.8818    137.3062    170.9750   9.5914573196e+01   1.9580072771e+01    0.2035986    0.1974207 -79.64   0.00116774    1.067    0.062
        29 -10.6624     36.8729    167.8164   1.1924944040e+02   3.5510738500e+01    0.2566796     0.160175  59.10 0.0007769142    1.523    0.343
        30 -11.2066     32.7793    165.1703   1.1992436258e+02   3.6541738554e+01    0.2934698     0.185765  48.22  0.001204667    1.560    0.359
        31  -9.5231    161.3468    165.6907   8.9391018845e+01   1.5988467459e+01    0.1502318    0.1171757  78.04 0.0005594403    1.705    0.414
        32  -9.7709     37.9303    162.0000   1.1839777126e+02   3.6737697801e+01    0.1830558   0.07019062  30.93   0.00079873    2.917    0.657
        33  -9.3974     48.5257    160.5165   1.1570023645e+02   3.5908888221e+01    0.1309988    0.1086669  88.14 0.0008098276    1.018    0.018
        34  -9.2738    126.1755    155.2125   9.5540172824e+01   2.5151519086e+01    0.1945352    0.1662095  79.46 0.0002433633    1.261    0.207
        35 -11.4310    133.6250    144.2030   9.1410442038e+01   2.6180345209e+01     1.121112    0.2741961 -54.60   0.00255509    6.200    0.839
        36 -10.1714    107.9540    203.7185   1.0769539181e+02   1.7898542622e+01    0.1899673    0.1561019  56.03 0.0005759141    1.062    0.058
        37 -10.3267    174.7722    148.9390   8.2812482006e+01   1.6620400532e+01    0.2839518    0.2181855 -61.86   0.00105259    1.562    0.360
        38 -11.0840     38.9014    146.4491   1.1636726029e+02   4.0287679094e+01     0.319559    0.1870544  51.59 0.0009880298    1.767    0.434
        39 -10.8469     84.4249    143.9534   1.0408517901e+02   3.5034591271e+01    0.3481762     0.238328  68.53 0.0009656536    1.693    0.409
        40 -11.1902    102.5682    140.8170   9.8678560214e+01   3.2804181669e+01    0.5866632    0.3654825 -27.35  0.002344112    2.576    0.612
        41 -12.3689     89.9114    140.9225   1.0206616889e+02   3.4898931208e+01    0.2873317    0.2551905 -51.19 0.0003988836    1.160    0.138
        42 -10.8790    209.8759    199.4324   8.5898700649e+01   7.9272921845e-01    0.2346462    0.2047513 -65.22 0.0006292065    1.679    0.404
        43 -10.7685     37.9953    141.0287   1.1591588349e+02   4.1672175059e+01    0.2036087    0.1610725  38.72 0.0003529782    1.437    0.304
        44 -11.8647    193.4134    195.2292   8.8338185783e+01   4.3783224873e+00    0.9092709    0.5117592 -65.37  0.002986606    5.282    0.811
        45 -10.3974    105.9812    130.7663   9.5655286237e+01   3.4580491758e+01    0.3438009     0.290647 -68.54  0.001373254    1.180    0.153
        46 -10.3724    111.7517    130.7493   9.4094055607e+01   3.3524020191e+01    0.3163544    0.2501917   0.79  0.001073001    1.726    0.421
        47 -11.6200     44.5246    129.7857   1.1258580648e+02   4.3694228265e+01    0.3430067    0.2489651  26.49  0.001962476    1.662    0.398
        48 -11.3803    136.0000    128.5718   8.7243681652e+01   2.9213269212e+01    0.4780034    0.1990697 -53.98  0.001543597    2.744    0.636
        49 -10.2604    161.0044    128.0174   8.1013417162e+01   2.3932099013e+01    0.2555215    0.1998893 -84.23  0.001144655    1.716    0.417
        50 -11.0726     98.9831    127.0701   9.6766004369e+01   3.6699774637e+01    0.3054439    0.2542788 -22.07  0.001051695    1.451    0.311
        51 -11.6391    118.2380    124.5916   9.0934192558e+01   3.3720481454e+01    0.6778539    0.4156815 -24.02  0.002535132    2.639    0.621
        52  -9.9695    107.9515    119.6580   9.2574507800e+01   3.6836301646e+01    0.2258235    0.1990443 -40.44 0.0003337628    1.147    0.128
        53  -9.6975    168.3654    113.3116   7.5585993409e+01   2.5321616615e+01    0.3262063    0.2336872 -81.92  0.001228486    2.134    0.531
        54 -11.8180    118.7064    108.2970   8.6731245992e+01   3.7360520599e+01    0.7172714    0.3466989 -59.66  0.002442575    2.786    0.641
        55 -10.0258    205.4995    110.1550   6.7125904154e+01   1.7356556184e+01    0.3210902    0.2180147  40.60  0.001003222    1.582    0.368
        56 -10.5455    134.6474    106.0010   8.1827944705e+01   3.4508746445e+01    0.3629513    0.1464899 -44.29  0.001228388    2.437    0.590
        57  -9.8310     39.6467    102.7088   1.0945326556e+02   5.0711809651e+01    0.1353441   0.08829604 -36.48 0.0007028441    1.678    0.404
        58 -10.2030     33.9921    100.3321   1.1081234402e+02   5.1808465665e+01    0.1759401    0.1589219 -58.47 0.0008453082    1.096    0.088
        59 -12.4395      2.0936     94.5702   1.2001416185e+02   5.5388696760e+01    0.9644037    0.1545367 -72.67  0.002887312    5.326    0.812
        60 -12.3496      2.3804     76.8167   1.1727443870e+02   5.9401125238e+01    0.5969189    0.2278662 -67.21  0.002952758    1.959    0.490
        61 -10.6775     53.2023     90.8673   1.0250263289e+02   5.2047303515e+01    0.3028395     0.168927 -54.18  0.001471461    1.528    0.345
        62 -10.2737     41.9091     91.9548   1.0654902880e+02   5.3025647959e+01    0.1988727    0.1720039 -56.98 0.0004995817    1.025    0.024
        63  -9.9991     75.0457     84.9185   9.3624817746e+01   5.0466079450e+01    0.2106054    0.1935216 -43.31 0.0003515616    1.029    0.028
        64  -9.0034     70.9436     82.0154   9.4188970509e+01   5.1725509865e+01    0.1673423    0.1479477 -41.57 0.0009559661    1.017    0.017
        65 -10.4883     13.4380     59.8550   1.0974489039e+02   6.2536540200e+01    0.2026205    0.1768338 -44.52 0.0004160941    1.125    0.111
        66 -13.0376    190.3180     43.0153   5.1558321676e+01   3.2198523455e+01    0.6772234    0.5802861  14.04 0.0009587386    1.420    0.296
        67 -10.4708    198.5371    222.7569   9.2130592786e+01  -7.9943674117e-01    0.2267852    0.1493946  35.26 0.0004829108    1.294    0.227
        68 -16.7171      6.9391    204.0610   1.2811744110e+02   3.0622510842e+01     6.890709     1.264517 -73.74   0.01905715    4.072    0.754
        69 -11.5806    146.5054     50.7677   6.2034283326e+01   4.2193003259e+01    0.5491976    0.3562583 -80.19  0.001870486    2.553    0.608
        70  -9.5853    130.5079    212.9799   1.0421334297e+02   1.2377342372e+01    0.1737179    0.1310312 -60.37 0.0004367735    1.508    0.337
        71 -10.8069    148.1322     44.2492   5.9528812255e+01   4.2762486708e+01    0.2700012     0.238109  83.23 0.0004192219    1.220    0.180
        72  -9.3412     68.7213     52.5766   8.5573088380e+01   5.8132184733e+01    0.1753024    0.1287423  45.85 0.0006993056    1.630    0.386
        73  -9.7064    189.7003     15.0185   4.3743924577e+01   3.5805933532e+01    0.1855434    0.1725131 -64.41 0.0005204537    1.092    0.085
        74  -9.3650    107.2890    210.3418   1.0869354948e+02   1.6688490117e+01     0.118493    0.1028739 -12.78 0.0003138987    1.647    0.393
        75 -16.9964     12.2083    241.7747   1.2904669756e+02   2.2951737828e+01     4.463377     2.034194  31.21   0.02627682    2.802    0.643
