#   1 NUMBER                 Running object number                                     
#   2 MAG_AUTO               Kron-like elliptical aperture magnitude                    [mag]
#   3 X_IMAGE                Object position along x                                    [pixel]
#   4 Y_IMAGE                Object position along y                                    [pixel]
#   5 X_WORLD                Barycenter position along world x axis                     [deg]
#   6 Y_WORLD                Barycenter position along world y axis                     [deg]
#   7 A_WORLD                Profile RMS along major axis (world units)                 [deg]
#   8 B_WORLD                Profile RMS along minor axis (world units)                 [deg]
#   9 THETA_WORLD            Position angle (CCW/world-x)                               [deg]
#  10 FWHM_WORLD             FWHM assuming a gaussian core                              [deg]
#  11 ELONGATION             A_IMAGE/B_IMAGE                                           
#  12 ELLIPTICITY            1 - B_IMAGE/A_IMAGE                                       
         1 -12.3183    202.6266     35.6552   4.2134217030e+01   3.0905939036e+01     1.161905    0.5652713  46.61  0.002376681    2.521    0.603
         2 -11.2752    206.0077     18.3251   3.7451269140e+01   3.2161675840e+01     1.042152    0.3436558 -37.92   0.00438461    2.675    0.626
         3 -15.0957    178.2558     80.3512   5.7919041560e+01   3.0048393446e+01     8.037203     4.474422 -66.18   0.02301746    3.111    0.679
         4 -13.6578    223.8129     35.0853   3.9616946414e+01   2.6121144110e+01     1.182701     1.089561 -72.63  0.001442651    1.108    0.098
         5 -15.2904    219.0426     78.6450   5.0630526981e+01   2.0917046663e+01     9.045708     3.192043 -51.48   0.02921381    3.666    0.727
         6 -13.2668    247.5447      8.2649   3.1795920377e+01   2.4182315802e+01     1.037816    0.4923697 -24.08  0.005168902    2.766    0.638
         7 -12.2572    214.3766     24.4714   3.8086048187e+01   2.9538943157e+01     1.159289    0.7445528 -11.23  0.005774046    2.321    0.569
         8 -14.3040    243.6517     74.1208   4.6309691733e+01   1.6413278808e+01     2.026487     1.006733 -40.89  0.006903755    1.712    0.416
         9 -13.3345    197.6319     78.8709   5.4034764813e+01   2.5731440478e+01     7.953812     2.643272 -25.34   0.01563314    9.715    0.897
        10 -13.1501    231.8253     27.9423   3.7210172046e+01   2.5243975156e+01     1.608935    0.7181107 -67.16  0.004180473    2.812    0.644
        11 -11.1032    162.2117     32.6442   4.7026406683e+01   4.1094703686e+01    0.6416553    0.3456514 -29.88   0.00243828    1.977    0.494
        12 -15.4478    243.8983     50.0185   4.0927790025e+01   1.9833955231e+01      3.04636     1.530019  55.24   0.01512565    2.259    0.557
        13 -12.0348    134.2947     18.9564   4.7577626951e+01   4.9463066929e+01    0.6643652    0.4180261  -7.01  0.002121272    2.009    0.502
        14  -9.6356    115.9916     12.5088   4.8962210579e+01   5.4429561563e+01     0.300992    0.2372559  57.96  0.001306741    1.147    0.128
        15 -11.5255    120.4154      9.1811   4.6832236983e+01   5.3694969488e+01    0.5267724    0.3812684 -31.86  0.001992693    1.552    0.356
        16  -9.1637     79.4125      8.6114   5.6747565936e+01   6.2762405648e+01    0.2169191    0.1133514 -27.57 0.0007417619    2.029    0.507
        17 -11.3101    236.4490     19.9122   3.5048782222e+01   2.5197699726e+01     1.220408    0.6769834 -71.51  0.006548985    1.804    0.446
        18 -11.0273    235.6366      3.0595   3.1531925466e+01   2.7201409620e+01     0.310066    0.2448527  56.75  0.001027267    1.554    0.356
        19  -9.0895    240.4711      1.4758   3.0883772447e+01   2.6350353485e+01    0.1142483   0.09597448 -75.76 0.0008074826    1.102    0.092
        20  -9.1533    147.9683      3.6055   4.0328812943e+01   4.7553198135e+01    0.3602642    0.1749047  -3.78  0.001271289    3.200    0.687
        21 -10.1380    137.0805      3.3556   4.1873484749e+01   5.0208570972e+01    0.3710642    0.1795332  -4.95  0.001609645    3.003    0.667
        22 -13.2696    249.9032     27.1376   3.5488091697e+01   2.1544281349e+01    0.6977478    0.3411839 -33.94  0.001977606    1.951    0.488
        23  -8.4894    171.8357      2.7624   3.7064108603e+01   4.1831274642e+01    0.1756429    0.1293681 -73.47 0.0006179598    1.344    0.256
        24  -9.1972    159.2686      1.9395   3.8321702956e+01   4.4945629356e+01    0.2592491    0.1635171  30.01  0.001347255    2.016    0.504
        25  -9.2809     90.7945     11.9221   5.4870425471e+01   6.0099060907e+01    0.2101422    0.1547786  26.95 0.0009931816    1.247    0.198
        26  -9.8881    230.4984      1.3325   3.1522044157e+01   2.8469690623e+01    0.1771512   0.09462778  73.52 0.0001403609    1.730    0.422
        27 -10.1304    101.0023    175.9986   9.9593524290e+01   2.5186804563e+01     0.196995    0.1883925  75.17            0    1.014    0.014
        28  -8.2661     51.4195    174.7905   1.1189369414e+02   3.2436126815e+01    0.1671322    0.1124216 -61.14  0.000327658    1.424    0.298
        29  -9.1261    200.6492    173.7129   7.6021822541e+01   7.5112388140e+00    0.2365346    0.1618387  -3.89  0.001107223    1.810    0.448
        30  -9.4981    214.1097    168.8420   7.2352293372e+01   5.9627613626e+00    0.3608823    0.2450174  49.13 0.0009025488    1.737    0.424
        31 -10.6238    242.9226    165.8409   6.6521912850e+01   1.5463790580e+00    0.3392674    0.2032708 -36.99   0.00176359    1.498    0.332
        32 -11.3951     24.2215    166.7217   1.1773355313e+02   3.7190430303e+01    0.4145581    0.2419812 -67.66  0.002294314    1.480    0.324
        33  -9.6032    247.5088    249.0602   8.1030117055e+01  -1.0913237369e+01    0.1606073   0.09623115 -25.95 0.0007218135    1.584    0.369
        34  -9.2419    238.1240    249.5288   8.2734768225e+01  -9.8025841470e+00    0.1669669   0.09347206  29.50  0.001013984    1.547    0.353
        35  -8.5915    135.3155    242.6369   1.0148579678e+02   6.0934763035e+00    0.1281723   0.08882835  63.46  0.000704109    1.764    0.433
        36 -10.0820    204.6443    153.7838   7.0952416794e+01   1.0469022381e+01    0.4479822    0.3258478 -63.35  0.001179527    1.921    0.479
        37 -10.4717    192.1210    152.7859   7.3267485976e+01   1.3104900433e+01    0.5105318    0.2954721 -54.17  0.002111553    2.143    0.533
        38 -10.8605     19.7920    153.0768   1.1750431695e+02   4.0845428991e+01    0.3075899    0.1358022 -66.39  0.001486745    1.842    0.457
        39  -8.8499    154.8496    152.3884   8.1517042514e+01   2.0686843729e+01    0.2445229    0.2072261 -59.83 0.0006705432    1.289    0.224
        40  -8.5542    233.3402    240.6859   8.2150629683e+01  -8.0812984692e+00    0.1016882    0.0923324  39.18 0.0007047282    1.701    0.412
        41  -9.9696    133.8991    146.6144   8.5427304149e+01   2.6156971725e+01    0.6969303    0.2314444 -53.04  0.002097293    3.367    0.703
        42  -9.1991    132.8183    140.2484   8.4266285173e+01   2.7834766709e+01     0.433315    0.2003939 -58.85  0.001445116    2.828    0.646
        43  -9.6233    145.3809    147.5634   8.2742285840e+01   2.3657890568e+01    0.4158915     0.254564  70.91   0.00143317    3.138    0.681
        44  -9.3545    222.5099    145.2025   6.5680273085e+01   8.6419291264e+00    0.2155657    0.1936601  33.76 0.0003551253    1.211    0.174
        45  -9.1124    192.1691    144.0134   7.1267354133e+01   1.4812497595e+01    0.2366534    0.2134273  44.44 0.0004339634    1.186    0.157
        46 -10.0570    196.1680    143.0034   7.0216479589e+01   1.4198286896e+01    0.3917502    0.2449685  58.14 0.0004210275    2.056    0.514
        47  -8.3743    209.3267    238.9969   8.6288017799e+01  -4.5402625421e+00    0.1630301    0.1333866  -1.17 0.0002277991    1.108    0.097
        48  -9.5850    159.1147    142.8750   7.8335190213e+01   2.1879756964e+01    0.2405658    0.2205189 -84.03   0.00123763    1.255    0.203
        49  -9.3231    147.5449    144.0310   8.1402998985e+01   2.4007710329e+01    0.2392411    0.1515558 -48.18  0.001021869    1.583    0.368
        50  -9.9758    210.8688    135.8575   6.5703658954e+01   1.2594612387e+01    0.2288486    0.1938074 -10.74 0.0007639714    1.206    0.171
        51  -8.0619    166.7065    134.3242   7.4531000618e+01   2.2108285985e+01    0.1537223    0.1248979 -81.29 0.0006831062    1.618    0.382
        52 -10.0841    135.8919    132.6454   8.1675786530e+01   2.8955562771e+01    0.4945091    0.2247336 -42.36   0.00129622    2.234    0.552
        53  -9.8332    139.5809    130.7913   8.0272699934e+01   2.8615150958e+01    0.4432041    0.3034327 -83.20  0.001411952    2.488    0.598
        54  -9.6791    135.6790    125.6540   8.0015991440e+01   3.0584054501e+01    0.3911547    0.1870846 -50.37  0.001427574    2.150    0.535
        55 -10.0726    160.5744    128.0813   7.4429099131e+01   2.4748347205e+01    0.3738147    0.2877793 -50.71  0.001202313    1.330    0.248
        56  -9.3763    171.4935    125.8361   7.1362467485e+01   2.2846820674e+01     0.265879    0.2194416  17.11  0.001210547    1.369    0.269
        57  -8.5008    142.5244    122.4874   7.7447877230e+01   2.9848455589e+01    0.1559804    0.1533626 -50.69 4.564936e-05    1.036    0.035
        58  -8.9224    208.4119    221.8830   8.3611483589e+01  -1.9087936895e+00    0.1992763      0.16335  32.20 0.0008211948    1.277    0.217
        59  -8.7298    135.0000    119.9868   7.8758091617e+01   3.1999138104e+01    0.2624942   0.08853617 -45.72 0.0007257533    2.914    0.657
        60  -8.5420    228.9638    220.9906   7.9594696420e+01  -4.8123742140e+00     0.169338    0.1538225  50.17  0.001117977    1.694    0.410
        61  -9.9163    168.7326    115.6095   6.9388278156e+01   2.5554813292e+01     0.381939    0.2538016 -36.67  0.001244229    1.492    0.330
        62 -10.4374    164.2901    116.2926   7.0572811648e+01   2.6407074095e+01    0.3899108    0.2506128  64.88  0.001576651    2.064    0.515
        63  -9.7926    134.7217    104.8221   7.4785267608e+01   3.5382765880e+01    0.5878366    0.1907161 -45.07  0.001795246    3.057    0.673
        64 -10.0521    135.1182     99.0962   7.3076855936e+01   3.6507598105e+01    0.4194268    0.3230018  82.87  0.000518635    1.798    0.444
        65 -10.2130    134.8688    111.7537   7.6632637105e+01   3.3849601361e+01     0.648248    0.2175873 -42.82  0.002006448    2.961    0.662
        66 -10.1726    139.5428    107.4720   7.4253969312e+01   3.3762367029e+01    0.5403864    0.3056354  24.21  0.001588277    2.832    0.647
        67 -10.1735    228.0942    215.0984   7.8707276089e+01  -3.8352408815e+00    0.1975049    0.1624268   8.41            0    1.074    0.069
        68  -7.9389    109.3006    111.2720   8.3643488210e+01   3.9175865935e+01    0.1514838    0.1205299  -8.04 0.0002290516    1.531    0.347
        69 -12.0587    122.9467    103.3135   7.7567488222e+01   3.8223622663e+01     1.119444    0.6219788 -62.08  0.003992736    2.665    0.625
        70  -9.7218    149.0267    103.1985   7.0693809373e+01   3.2546019698e+01    0.3308743     0.262469  26.55 0.0007669594    1.407    0.289
        71  -8.5104     82.9624    104.4261   8.9991349598e+01   4.5439170614e+01    0.2333012     0.176953 -49.61 0.0006708674    1.235    0.190
        72  -8.7588    196.1606    215.9136   8.4978873656e+01   9.3808381265e-01    0.1805982    0.1665335  25.73 0.0002870877    1.226    0.185
        73  -8.1077    117.5523    160.5642   9.2575744924e+01   2.5985159353e+01    0.1511927    0.1400672  74.72 0.0008023205    1.114    0.102
        74 -10.7242    159.9592     98.3270   6.6758829467e+01   3.1025164356e+01     0.580124    0.3752134  32.84  0.002241921    1.829    0.453
        75 -10.6010    168.1906     96.1564   6.4329986134e+01   2.9534352044e+01    0.6947724    0.5235546 -57.78   0.00326249    1.462    0.316
        76 -11.1023    175.8346     91.0580   6.1332242453e+01   2.8703125056e+01    0.6938933    0.4251377  37.02  0.002065199    1.921    0.479
        77 -10.1725    142.7611     93.7507   6.9585480491e+01   3.5889656961e+01    0.3387474    0.3273585 -78.54 0.0006570248    1.097    0.088
        78 -11.0905    118.9296     89.6173   7.4750075345e+01   4.1984720449e+01    0.3607685    0.2663432 -37.07   0.00117469    1.342    0.255
        79  -9.9487    120.7044    111.6291   8.0461022085e+01   3.6839207003e+01    0.3407669    0.2454059  70.75  0.001071546    1.938    0.484
        80 -13.3724    227.9687     68.1490   4.6892971354e+01   2.0603314867e+01     1.010076    0.7555414 -60.35  0.001419695    1.287    0.223
        81 -11.4542    158.0294     89.4134   6.4699997783e+01   3.3200525752e+01    0.3455831    0.2782354 -32.47 0.0005025265    1.257    0.205
        82 -10.3704     99.7584     85.1664   7.9153875261e+01   4.6785165928e+01    0.2485502    0.2335872   3.02 0.0002713954    1.045    0.043
        83  -9.2712     35.4946    214.5095   1.1924692832e+02   2.5253747523e+01    0.1201902   0.09655915  73.70 0.0002846131    1.013    0.012
        84  -8.0842     61.4948     81.5251   9.1179593575e+01   5.3869516795e+01    0.1417667     0.124915 -31.45 0.0008101013    1.013    0.013
        85  -9.0449    159.5291    158.5391   8.1759298558e+01   1.8424503052e+01    0.2667024    0.1454094 -56.57  0.001025655    2.253    0.556
        86  -9.8384    125.0149     58.8782   6.3295886580e+01   4.6370297733e+01    0.2946871     0.152255 -41.17  0.001213511    2.010    0.502
        87  -8.2088     72.5820     58.4824   7.9640280312e+01   5.6939296194e+01    0.1387076    0.1237621 -14.22 0.0001376244    1.028    0.027
        88 -10.6002    177.4743     51.5222   4.9992783058e+01   3.4829967949e+01     0.584085     0.498012  39.94  0.003225844    1.283    0.220
        89  -8.2728    103.5097     51.5270   6.6730727680e+01   5.2306232096e+01    0.1426085    0.1329668  14.93 0.0003188017    1.024    0.024
        90 -12.5315    233.1497     44.0492   4.0704323674e+01   2.2910677651e+01    0.4181253    0.2770641 -36.30 0.0007516373    1.447    0.309
        91 -11.9814     66.4859    143.1350   1.0331569142e+02   3.8338126286e+01       1.5909      1.02141  31.86  0.006310712    1.692    0.409
        92 -10.7113    118.4465     37.7164   5.7628896131e+01   5.1023954932e+01    0.3812343    0.2024847 -32.94  0.001714449    1.965    0.491
        93  -8.7868    247.4682    211.4637   7.4590975245e+01  -6.0643100553e+00    0.1248259   0.09705649  -3.62 8.435228e-05    1.012    0.012
        94  -7.8966     78.3196     36.3139   6.9056072368e+01   5.9637180594e+01    0.1410705   0.09538871  10.11 0.0004342337    1.652    0.395
        95  -9.3210    159.6035     24.7541   4.5072355231e+01   4.2654655146e+01    0.2403076    0.2200556  51.24  0.000361796    1.108    0.098
        96 -12.2483     37.4190    155.2249   1.1313216222e+02   3.8711148127e+01    0.5518523    0.4442225 -54.99   0.00144845    1.269    0.212
        97 -12.4946     44.6211    151.9390   1.1078114127e+02   3.8769169859e+01    0.9351758    0.5717884 -68.62  0.002918373    1.438    0.305
        98 -10.2213    127.9854     26.9584   5.1602215626e+01   5.0113577349e+01    0.2058603    0.1861886  45.36            0    1.013    0.013
        99  -9.9225    171.4497     25.1983   4.3427101618e+01   3.9688475571e+01    0.2825377    0.2335252 -32.57  0.001022427    1.311    0.237
       100 -10.1972    179.1708     24.0091   4.2031861865e+01   3.7932252108e+01    0.4479967    0.3101899  67.64  0.002438661    1.323    0.244
       101  -8.8802    197.7409    211.1614   8.3825954904e+01   1.4604240028e+00    0.1831712    0.1694139   6.16 0.0004938141    1.158    0.136
       102  -8.7220    188.4717     22.3443   4.0406937259e+01   3.5864771609e+01     0.206652    0.1337733 -22.56 0.0006735445    1.817    0.450
       103 -12.0284     51.2227    149.3143   1.0860362082e+02   3.8684393272e+01    0.7098638    0.4255527 -77.34  0.001744389    1.636    0.389
       104  -9.1571    198.0784    206.9196   8.2995594164e+01   2.1088585224e+00    0.2058128     0.175529   5.56 0.0004751231    1.027    0.026
       105  -9.4760     78.6980     20.9220   6.2427901419e+01   6.1597745472e+01    0.2372265    0.2098094  -3.14 0.0007324764    1.136    0.120
       106  -8.5822    165.0000     18.3589   4.2365419877e+01   4.2012736833e+01    0.2607153   0.07696379 -25.86 0.0008835593    3.745    0.733
       107  -8.5111    148.5252     17.8650   4.4720858350e+01   4.6109459477e+01    0.1775229    0.1341568 -26.76  0.000475639    1.468    0.319
       108  -9.3731    169.4743    202.4876   8.8149709471e+01   7.7254023568e+00    0.3713802    0.2439474  65.33  0.001626933    2.573    0.611
       109 -10.4307    165.4978    201.4249   8.8821766544e+01   8.6141201560e+00    0.3134073    0.2682948 -50.63 0.0001935299    1.325    0.245
       110  -8.7198    187.4687    186.4747   8.1318473258e+01   7.5335231215e+00    0.2224333    0.1761856 -47.31 3.657769e-05    1.406    0.289
       111  -9.5435     92.2214     21.0213   5.8264326427e+01   5.8850632311e+01    0.2610997    0.1983185 -30.30 0.0007321739    1.439    0.305
       112 -10.4738    191.5675    192.2562   8.1585187959e+01   5.7537434009e+00    0.6467221    0.3393634 -62.00  0.002058944    5.019    0.801
       113  -8.7624     50.0558    190.2142   1.1392697910e+02   2.8978089232e+01    0.1696932    0.1587187 -70.83 0.0002910087    1.225    0.184
       114 -10.3274    210.7395    186.9631   7.6697114070e+01   3.3812868066e+00    0.5563675    0.3334425  48.76  0.002658914    2.034    0.508
       115  -9.9384    220.1640    184.1784   7.4334569217e+01   2.2685941749e+00     0.210746    0.1882043  -5.91 0.0006188857    1.079    0.074
       116  -9.6731    216.5191    182.0179   7.4595018321e+01   3.2469339352e+00    0.2168057    0.1885043  65.46  0.001045321    1.660    0.398
       117 -11.6127    227.6520    174.5923   7.1007859434e+01   2.6251084924e+00     0.735329    0.4729391  -4.87  0.003582451    1.897    0.473
       118 -10.7679    236.4930    174.9025   6.9484929414e+01   1.1162990933e+00    0.5505218    0.3573237  63.79  0.002014111    3.154    0.683
       119 -10.6008    230.7730    167.6418   6.9011440373e+01   3.2673221453e+00    0.4311768    0.2436477 -44.56  0.002061332    1.839    0.456
       120 -12.9156      5.3925    170.3972   1.2250064998e+02   3.7882971357e+01    0.8823909    0.5440417 -81.74  0.004671123    1.305    0.234
