#   1 NUMBER                 Running object number                                     
#   2 MAG_AUTO               Kron-like elliptical aperture magnitude                    [mag]
#   3 X_IMAGE                Object position along x                                    [pixel]
#   4 Y_IMAGE                Object position along y                                    [pixel]
#   5 X_WORLD                Barycenter position along world x axis                     [deg]
#   6 Y_WORLD                Barycenter position along world y axis                     [deg]
#   7 A_WORLD                Profile RMS along major axis (world units)                 [deg]
#   8 B_WORLD                Profile RMS along minor axis (world units)                 [deg]
#   9 THETA_WORLD            Position angle (CCW/world-x)                               [deg]
#  10 FWHM_WORLD             FWHM assuming a gaussian core                              [deg]
#  11 ELONGATION             A_IMAGE/B_IMAGE                                           
#  12 ELLIPTICITY            1 - B_IMAGE/A_IMAGE                                       
         1 -13.3914    242.2007    106.9996   7.4623534955e+01   1.0901754749e+01      5.78981     1.001931 -29.68   0.01578823    5.195    0.808
         2 -12.3061    234.0022     62.9601   6.4595514364e+01   1.8522014816e+01     2.756015    0.5568054 -36.91  0.007956414    4.102    0.756
         3 -11.9320    216.5012     49.1191   6.3180822176e+01   2.4584019227e+01    0.9033672    0.8800969 -34.14  0.003813561    1.038    0.037
         4 -12.8515    226.4040     41.7020   5.9730365500e+01   2.3033168800e+01      2.30985     1.151796 -49.85  0.005161497    2.310    0.567
         5 -12.6390    179.1487     79.5613   7.8400133098e+01   2.9457731165e+01     3.937381     1.109228 -45.33   0.01033433    4.773    0.790
         6 -12.5688    142.2318     28.0213   6.9121141946e+01   4.6557923766e+01     3.759012     1.408988  44.69   0.01296189    2.767    0.639
         7 -11.7251    247.3477     22.6969   5.2195295688e+01   2.0077753680e+01    0.7072455    0.3049379 -41.66 0.0007443915    2.138    0.532
         8 -12.5690    160.4701     50.6301   7.3275874005e+01   3.8711429590e+01     3.784031     2.018325  83.72   0.01100611    4.566    0.781
         9 -11.4261    209.1089      2.3598   5.0198519885e+01   3.1710818630e+01     1.313708    0.4620728 -38.49  0.001454725    2.628    0.620
        10 -10.0207    250.6307     12.0184   4.9096345028e+01   2.0391734853e+01     0.410493    0.1402172 -19.84 0.0003353361    2.993    0.666
        11 -11.4458    226.6871      6.9915   4.9846278480e+01   2.6742843052e+01    0.4425133    0.4044487 -38.71  0.001511405    1.056    0.053
        12 -13.6725    246.1938      3.0953   4.7124575785e+01   2.2303690974e+01     7.643217          nan  62.27  0.007285801   11.910    0.916
        13 -10.2651    142.3481     12.9797   6.3315999791e+01   4.8370130242e+01    0.6654445    0.2721109 -14.23  0.002302384    2.996    0.666
        14  -9.7575    125.5220     14.4805   6.7443684351e+01   5.2378236595e+01    0.2863697    0.2592869 -57.63  0.001173482    1.279    0.218
        15 -11.2840    119.1332      9.8101   6.6933246598e+01   5.4446981076e+01    0.7075766    0.4937091  38.36  0.002557406    1.388    0.280
        16  -8.3629    171.9163      2.8233   5.4708359939e+01   4.1600834428e+01     0.283619    0.1555777 -48.03  0.001035446    2.043    0.511
        17  -9.1030    183.0286      2.8538   5.3272644806e+01   3.8611522250e+01    0.3278715    0.2487289 -40.46  0.001068288    1.348    0.258
        18  -9.7065    237.1511     38.6523   5.7576033952e+01   2.0756958755e+01    0.7191651    0.3559012  -8.73 0.0009822274    2.649    0.622
        19 -10.7937    248.1717    158.8069   8.5010890633e+01   3.3680354752e+00    0.8977518     0.270005 -28.03  0.003547065    3.424    0.708
        20 -10.3811    235.0026    134.1528   8.1989790827e+01   8.8322250982e+00    0.4871909     0.387421  47.74  0.000266049    1.333    0.250
        21  -8.5484    236.7851    249.6198   1.0149554336e+02  -3.5914355338e+00    0.1408709   0.07315758  44.50 0.0008572201    1.633    0.388
        22  -8.0230    102.7785    249.1772   1.2181351047e+02   1.5524181745e+01    0.1226693   0.07318243 -50.93 0.0008145487    2.546    0.607
        23 -11.9578    242.0614    241.4875   9.9648930879e+01  -3.6843704610e+00    0.1973941    0.1537224  23.94 -0.0001203865    1.172    0.147
        24  -8.2389      6.6911    235.9174   1.3536991483e+02   2.8142627246e+01    0.1210987   0.07468686  72.37 0.0004653226    1.124    0.110
        25  -8.7776    169.3302    157.0687   9.8564471673e+01   1.8534582348e+01    0.2311414    0.1706788  50.59 0.0001942641    1.258    0.205
        26 -10.0922    216.0470    152.2188   8.8997229606e+01   1.0165917520e+01    0.2419627    0.1932561  33.88 0.0003539739    1.110    0.099
        27  -8.0182    179.6739    147.3198   9.4684659677e+01   1.8073318707e+01    0.1325908    0.1072579  84.24 0.0005820363    1.681    0.405
        28 -10.1510     67.7190    144.1965   1.1806636893e+02   3.7811104875e+01    0.5550129    0.2919163  63.24   0.00244469    2.063    0.515
        29  -8.2185    101.9684    145.9754   1.1069604833e+02   3.2555312980e+01    0.1768398    0.1598623  80.55  0.001153817    1.040    0.038
        30  -8.7115    192.0644    143.8519   9.1618142843e+01   1.6125196689e+01    0.2007288    0.1815041  66.27 0.0005115925    1.281    0.219
        31 -10.1261    188.9617    139.0891   9.1208822793e+01   1.7493578821e+01    0.3105999    0.2876697 -15.68  0.001181005    1.131    0.116
        32  -8.4268    163.1791    134.1589   9.5281174830e+01   2.3593620363e+01    0.1841946    0.1590905  70.61 0.0004350933    1.273    0.214
        33  -7.8758    134.0000    146.0432   1.0374656404e+02   2.7083948176e+01    0.2057796   0.07575313 -49.70 0.0007989389    2.918    0.657
        34  -8.2233    167.6180    129.7426   9.3422596677e+01   2.3449540937e+01     0.179092    0.1338992 -49.35 0.0003917209    1.470    0.320
        35  -9.5367    160.9827    128.6105   9.4552528314e+01   2.5019009631e+01    0.3443544    0.2481325  67.27  0.001707986    1.663    0.399
        36  -8.3090    136.0000    128.9664   1.0003179375e+02   2.9929437473e+01    0.2194174   0.07843728 -47.54 0.0007990725    2.919    0.657
        37 -11.4937    185.5604    120.2697   8.7681220053e+01   2.1231230638e+01    0.8556547    0.4118091 -31.29  0.003480171    2.303    0.566
        38  -9.7443    230.7757    122.6956   8.0116848515e+01   1.1198816465e+01    0.3485461     0.199256  24.35  0.001557027    2.085    0.520
        39  -9.2121    199.6595    123.2842   8.5695326011e+01   1.7701259826e+01    0.2492161    0.1724104  59.62 0.0006472663    1.636    0.389
        40  -9.1528    194.3262    118.0026   8.5460884092e+01   1.9684296624e+01    0.2549967    0.2087646  82.59  0.001314456    1.627    0.385
        41  -9.2687    217.0989    115.6151   8.0769398096e+01   1.5078258233e+01    0.3387457    0.2180858  15.57  0.001546796    1.932    0.482
        42  -9.7470      5.9758    115.1535   1.2935805988e+02   4.9942229808e+01    0.3000945    0.1505563  68.10   0.00131109    1.926    0.481
        43 -10.1843    167.5666    113.1236   8.9629394238e+01   2.6369331709e+01    0.4140294    0.3299945 -82.77  0.001462106    1.672    0.402
        44 -10.9813    206.2454    110.8061   8.1526255840e+01   1.8169650496e+01    0.6223396    0.3415634  52.90  0.002741513    1.843    0.457
        45  -9.8849    184.3373     72.2520   7.5284907483e+01   2.9361807266e+01    0.2897843    0.2759127  -1.11 0.0003279159    1.028    0.027
        46 -10.1043    154.4148    219.2419   1.1060135154e+02   1.2010201052e+01    0.2002694    0.1504762  46.93 0.0002418108    1.028    0.027
        47  -8.5086     27.6908    214.9809   1.3139856939e+02   2.9365338477e+01    0.1345866   0.09172273  75.93 0.0004685379    1.115    0.103
        48  -8.9236    149.2776     97.7672   8.9781119514e+01   3.3161405240e+01    0.3074903    0.2701652  11.58 0.0009252401    1.273    0.214
        49  -7.9513    209.9938     96.9848   7.7396637978e+01   1.9404096641e+01    0.2177419    0.1798618 -79.16 0.0005269764    1.622    0.383
        50  -8.2911    196.6845     97.3403   7.9883562733e+01   2.2426629481e+01    0.1494031    0.1168097 -68.26 0.0007048037    1.705    0.413
        51  -8.0856    135.1463     94.8195   9.2316342436e+01   3.6741903560e+01    0.2130483     0.190753 -87.19 0.0005134848    1.227    0.185
        52  -9.1537    193.0129     93.1998   7.9481588648e+01   2.3940017837e+01    0.3428426    0.2532944  31.46  0.001273757    1.421    0.296
        53  -9.1142    158.6631     90.6951   8.5797919167e+01   3.2368411744e+01    0.3020344    0.2223247  16.50  0.001386488    1.744    0.426
        54  -9.9440    161.5160     88.9740   8.4703780130e+01   3.2022896852e+01    0.3517381    0.2850005 -13.18  0.001121951    1.383    0.277
        55  -7.8405    216.1852     90.1051   7.4556198268e+01   1.8986035891e+01    0.1972248    0.1672418 -49.60 0.0006102961    1.323    0.244
        56  -8.8059    167.9268     88.8549   8.3300609455e+01   3.0557579420e+01    0.3622557     0.192488 -52.40  0.001379111    2.392    0.582
        57  -8.5362    175.6384     87.9224   8.1448716570e+01   2.8906454619e+01    0.2298622    0.1958963  34.24 0.0003084252    1.177    0.150
        58  -9.4861    143.1571     86.7833   8.8245761262e+01   3.6564428023e+01     0.319325    0.2618259 -51.96 0.0008628917    1.262    0.207
        59  -9.5352    221.8660     80.9034   7.1205257202e+01   1.8971269241e+01    0.6267521    0.2704421 -48.91  0.002122957    3.294    0.696
        60 -11.0487    158.5376     79.1714   8.2580941296e+01   3.4450284763e+01    0.3938536    0.3200477 -27.76  0.001906227    1.250    0.200
        61  -8.7667    215.2322     74.8137   7.0617661066e+01   2.1406440562e+01    0.3357451    0.2349559 -67.78  0.001110711    2.017    0.504
        62 -10.1900    207.6588     66.2036   6.9436096027e+01   2.4478665787e+01     1.355111    0.6939409 -67.53  0.003561866    5.894    0.830
        63  -9.5032    213.9445     68.1896   6.8989309100e+01   2.2651855572e+01    0.5555283    0.2640857 -52.57  0.001920537    3.088    0.676
        64 -10.2837    209.4234     62.4646   6.8084950606e+01   2.4566533231e+01     1.191629    0.5453807 -59.69  0.003137436    5.594    0.821
        65 -10.0304    194.4496     64.8561   7.1273455362e+01   2.7969868691e+01    0.3696638    0.2547032  32.97  0.001649552    1.596    0.373
        66 -10.5863    200.1439     60.9652   6.9157748471e+01   2.7102691532e+01    0.4548661    0.3256007  30.77  0.001262978    1.539    0.350
        67  -7.7576      1.2921     75.6779   1.2666163967e+02   5.8625038391e+01    0.1103022   0.06875525  76.40 0.0002417444    1.610    0.379
        68  -8.2354    117.9881     70.9626   8.9948095524e+01   4.4943349959e+01    0.2052426     0.194311 -45.25            0    1.029    0.028
        69  -8.2268    150.2725     69.2681   8.1463382754e+01   3.8130621898e+01    0.3112691    0.1631119 -53.13 0.0009009626    2.475    0.596
        70  -8.1491    224.0607     68.7604   6.7593328927e+01   2.0123586266e+01    0.2544193    0.2043276  74.17  0.001093087    1.446    0.309
        71  -8.3535    222.9977     66.0000   6.6995169575e+01   2.0752011307e+01    0.2886759    0.1839163  74.51  0.001274645    1.991    0.498
        72 -10.0519    231.5626     79.0082   6.9216263747e+01   1.6974824722e+01    0.3866196    0.3636881  46.27 0.0004167639    1.134    0.118
        73  -8.6999    189.6193     51.8888   6.8203582833e+01   3.1074812339e+01    0.4943355    0.2932547 -63.12   0.00188711    2.508    0.601
        74  -9.2621    187.9525     45.8959   6.6620662789e+01   3.2339162205e+01     0.443124    0.2427308 -40.59  0.001537179    1.843    0.457
        75  -9.1101    184.7867     40.3065   6.5375358218e+01   3.3919068830e+01    0.3995337    0.2642736 -39.20  0.001597737    1.515    0.340
        76  -8.5160     63.5102     51.7428   1.0054718377e+02   5.8137483997e+01    0.2092774    0.1894299 -58.45 0.0004172038    1.123    0.110
        77  -9.2748     61.6131     45.8800   9.9314503506e+01   5.9577086303e+01     0.438367    0.1989472 -58.89  0.001819458    2.628    0.619
        78  -7.4765     33.3196     50.3293   1.1103745403e+02   6.1851325098e+01    0.1269013   0.07648307 -37.71  0.000704786    1.688    0.407
        79 -10.3498    130.3193     48.6236   7.9416101974e+01   4.6316507081e+01    0.2990468    0.2624623  22.31 0.0003002599    1.175    0.149
        80  -8.9102    240.7262     47.8141   5.9641591334e+01   1.8815050872e+01    0.2793472    0.2398006  80.46  0.001557167    1.302    0.232
        81 -10.5215    247.8130     44.3560   5.7889931961e+01   1.7558165407e+01    0.4014167    0.3094614 -73.46  0.001967764    1.532    0.347
        82 -11.4199    110.6900     40.0242   8.1443981086e+01   5.2081302345e+01    0.7261764    0.4415309 -36.32  0.002137036    1.561    0.359
        83 -11.8838    176.2986     61.8222   7.3695067028e+01   3.2997289616e+01    0.6165508    0.4359996  11.55   0.00271927    1.798    0.444
        84  -8.6435    250.3490     33.5998   5.4778419130e+01   1.8190431705e+01    0.7189326    0.1540887 -24.92  0.002155275    4.081    0.755
        85  -7.7139     82.3298    213.6604   1.2230420155e+02   2.3297938767e+01    0.1145541   0.06153333  65.88 0.0007051741    1.739    0.425
        86 -10.4405    243.4714     24.0390   5.2928976421e+01   2.0861462978e+01    0.3815942    0.2034635 -40.71 0.0008822939    1.737    0.424
        87  -8.6868    244.8041     34.0167   5.5468838464e+01   1.9449932055e+01    0.2215182    0.1660084 -47.89 0.0006088851    1.317    0.241
        88  -8.2014    196.1036     29.4250   6.0156367612e+01   3.2308384020e+01    0.3166775     0.162398 -43.18  0.001272081    2.016    0.504
        89  -7.7311     57.2991     30.7008   9.5428245669e+01   6.3085790582e+01    0.1174255    0.0987525 -72.94 0.0002196256    1.578    0.366
        90 -12.3228      4.9193    204.1460   1.3454970940e+02   3.3252228691e+01    0.6868959    0.3686672  86.57  0.004879028    1.464    0.317
        91  -7.4111    191.9029     26.6204   5.9870169958e+01   3.3751355479e+01    0.4386298    0.1727544  51.18   0.00158822    2.431    0.589
        92  -8.9187    190.3174     22.3907   5.8735271332e+01   3.4659423069e+01    0.3911555    0.2359467 -43.82  0.001261066    1.716    0.417
        93 -12.6955     21.1613    185.0065   1.3094704666e+02   3.5067114631e+01     1.297548    0.6267142  89.90  0.008575132    1.767    0.434
        94 -12.5395     36.0354    180.5638   1.2798579293e+02   3.4402314789e+01    0.6520509    0.5161533  78.55  0.001779642    1.112    0.101
        95 -12.4993     47.6967    171.8697   1.2511693810e+02   3.4761659340e+01    0.8628321     0.638096  78.56  0.002817879    1.073    0.068
        96  -7.8738    208.3418    183.6658   9.6184427415e+01   7.5201274656e+00    0.1150491   0.09600203  74.18 0.0007050868    1.757    0.431
        97  -7.4913    151.6902    107.2758   9.1639167486e+01   3.0862835274e+01    0.1419735    0.1147263  88.95 0.0002620236    1.554    0.357
        98  -7.8065    240.1719     27.1802   5.4111890989e+01   2.1318808210e+01    0.2053533    0.1657147  84.05 0.0006313099    1.340    0.254
        99  -8.0880    138.3316    103.3203   9.3718181404e+01   3.4427174471e+01    0.1465167    0.1155798   5.48 0.0007048904    1.695    0.410
       100  -8.3182    238.0096    197.4724   9.3648687697e+01   9.2764159876e-01    0.1788498   0.09415688  41.43  0.000983588    1.579    0.367
       101  -7.2845    171.3156     15.2877   5.9159329388e+01   4.0521240780e+01    0.1559846    0.1051679  33.91  0.000699955    1.588    0.370
       102  -9.2993    247.3260    163.7957   8.6120185298e+01   2.9560169661e+00    0.2458913    0.1879572  40.14  0.000956014    1.301    0.231
       103  -8.9259    103.1663    161.0280   1.1266258667e+02   2.9465378258e+01    0.1765338    0.1516512  69.12  0.000364982    1.004    0.004
       104  -7.3982    203.3477    160.6767   9.2899103021e+01   1.1456379662e+01    0.1244344    0.1040388  82.44 0.0007049498    1.743    0.426
