#   1 NUMBER                 Running object number                                     
#   2 MAG_AUTO               Kron-like elliptical aperture magnitude                    [mag]
#   3 X_IMAGE                Object position along x                                    [pixel]
#   4 Y_IMAGE                Object position along y                                    [pixel]
#   5 X_WORLD                Barycenter position along world x axis                     [deg]
#   6 Y_WORLD                Barycenter position along world y axis                     [deg]
#   7 A_WORLD                Profile RMS along major axis (world units)                 [deg]
#   8 B_WORLD                Profile RMS along minor axis (world units)                 [deg]
#   9 THETA_WORLD            Position angle (CCW/world-x)                               [deg]
#  10 FWHM_WORLD             FWHM assuming a gaussian core                              [deg]
#  11 ELONGATION             A_IMAGE/B_IMAGE                                           
#  12 ELLIPTICITY            1 - B_IMAGE/A_IMAGE                                       
         1 -13.4264    248.2238     35.1603   3.4096194488e+01   2.1284703956e+01    0.7707021    0.2676013 -49.41  0.003613503    2.315    0.568
         2 -14.9297    244.0354     10.9245   2.9689352105e+01   2.5027684593e+01     1.789847    0.9448396 -51.47   0.01089316    1.518    0.341
         3 -14.2223    224.2202      3.9876   2.9664029865e+01   2.9792793068e+01     1.481469    0.4363768  80.33  0.006028445    3.539    0.717
         4 -12.5647     15.2355      7.2374   7.8451259820e+01   7.2652745745e+01    0.5536813    0.2830507  -3.60  0.002891021    2.421    0.587
         5 -12.3037      8.8196      2.1651   7.9563933640e+01   7.3982997720e+01    0.7155746    0.2000084  27.84  0.003221506    3.493    0.714
         6 -13.2682      5.9096     11.7321   8.6197415929e+01   7.2911864951e+01    0.7935148    0.3903067 -26.79  0.004353492    1.783    0.439
         7 -11.8103     12.9059     13.2240   8.2782944950e+01   7.2059044374e+01    0.2640847    0.1638954  -9.49  0.001258674    1.441    0.306
         8 -12.4395     19.3407     14.8032   7.9930013426e+01   7.1170344091e+01    0.3740092    0.1942971 -20.34  0.002063565    1.936    0.483
         9 -11.1283    149.2408      9.1594   3.8340180573e+01   4.6278306436e+01    0.2544904    0.1468085 -80.08  0.001239671    2.073    0.518
        10 -12.9455     25.3730      4.3826   7.1384800332e+01   7.1800403837e+01    0.4938118    0.3131954   5.33  0.003162977    1.433    0.302
        11 -11.8513      1.4944     25.9279   9.4824331599e+01   7.0925769287e+01    0.4601376    0.1049231 -55.68  0.001713423    4.411    0.773
        12 -13.4522     11.4343     24.2157   8.8548198449e+01   7.0484860916e+01    0.7467241    0.3244905 -23.53  0.003564042    2.598    0.615
        13 -11.3007    168.5093      2.4949   3.4155306801e+01   4.2339422398e+01    0.2311324    0.1043096  86.48  0.001034272    2.341    0.573
        14 -11.9543    159.7406      3.1032   3.5301421653e+01   4.4339524527e+01    0.2981564    0.1570965 -89.38    0.0013889    2.008    0.502
        15 -10.4809    137.9864      1.8283   3.7741585295e+01   4.9570990464e+01    0.2123156    0.1257722 -80.41  0.001075918    1.997    0.499
        16 -10.2247    129.3316      2.6458   3.9285801013e+01   5.1535804892e+01    0.1306145   0.08718608 -68.90 0.0007045395    1.784    0.439
        17 -11.9765     40.6311      3.1162   6.3400083990e+01   6.9736278066e+01    0.3666049    0.1850617  23.95     0.001955    1.996    0.499
        18 -11.5366     18.2698     31.4746   8.7823646201e+01   6.8662669705e+01     0.317302    0.1592611 -18.21  0.001577893    2.277    0.561
        19 -12.2951    248.0281    215.2058   7.0192723541e+01  -7.2722767882e+00    0.5902804    0.2453049 -30.05   0.00283313    2.228    0.551
        20 -12.2509    234.2488    244.2687   7.7568711063e+01  -9.6683774493e+00    0.4401663    0.2480265  -5.28  0.002369426    1.933    0.483
        21 -12.2862    241.8629    237.6927   7.5139116386e+01  -9.6963526277e+00    0.6589458    0.3031284 -10.75  0.002708331    3.706    0.730
        22 -12.6876    247.2470    226.2476   7.2261873730e+01  -8.7625653151e+00     0.737416    0.3505133 -19.07  0.003603134    2.394    0.582
        23 -11.5161    249.6401    232.6942   7.2956100222e+01  -9.9419442712e+00    0.3691078    0.1965236 -27.69  0.001654353    1.628    0.386
        24 -11.0364    249.5855    250.1012   7.5843805749e+01  -1.2215614946e+01    0.3176941    0.1724216  23.36  0.001930879    1.662    0.398
        25 -11.0403    248.8518    245.8271   7.5275833454e+01  -1.1589290201e+01    0.2491463    0.1795695  -9.90  0.001075572    1.078    0.072
        26 -12.4014    242.4988    246.8148   7.6531802308e+01  -1.0987505540e+01    0.5767291    0.2920817 -20.31  0.003233917    1.940    0.485
        27 -11.9260    247.1014    239.4813   7.4530263424e+01  -1.0557555017e+01    0.4407659    0.2355951 -16.02  0.001894943    1.854    0.460
        28 -10.6105    233.2251    250.5806   7.8771023640e+01  -1.0386755996e+01    0.2085187   0.09607055  33.63  0.001134037    2.081    0.519
        29 -11.7930    225.8871    248.3805   7.9738048366e+01  -9.1987220289e+00    0.3512694    0.2085579  11.70  0.002080548    1.589    0.371
        30 -11.9585    168.4306    249.3957   9.0979817051e+01  -1.5381661598e+00    0.4712206    0.1737954  31.88  0.002012456    2.447    0.591
        31 -11.2655     74.9950    250.2674   1.1039329496e+02   1.1828623058e+01    0.4746365   0.08687384  38.35  0.001663087    3.758    0.734
        32 -11.6431     65.2575    249.0903   1.1225881437e+02   1.3338722059e+01    0.4355735    0.1875175  45.38  0.002184046    1.880    0.468
        33 -10.9945     50.1722    250.1336   1.1534016081e+02   1.5030073457e+01    0.3963331    0.1286665  38.35  0.001816823    2.453    0.592
        34 -11.5014     36.2197    248.5908   1.1793972626e+02   1.6982369052e+01    0.4540147    0.1995017  57.03  0.002383853    1.965    0.491
        35 -11.3791     19.9064    249.1528   1.2104811189e+02   1.8663916489e+01    0.3354323    0.1833538  52.77  0.002092496    1.434    0.303
        36 -11.2682     11.8351    249.3423   1.2253544064e+02   1.9458994430e+01    0.3313795    0.1497395  48.88  0.001949538    1.708    0.414
        37 -10.9151      3.6847    250.3101   1.2403962616e+02   2.0074960179e+01     0.260413    0.1409732  32.64  0.001629426    1.956    0.489
        38 -11.1862     44.6241    237.2817   1.1547870082e+02   1.8290705256e+01    0.2963909     0.124833  54.61  0.001425168    2.136    0.532
        39 -11.2502      6.1826    236.2156   1.2293062280e+02   2.2640471822e+01    0.3187774    0.1645596  68.04  0.001332623    1.598    0.374
        40 -11.0699     81.7489    236.8511   1.0767688400e+02   1.3569328242e+01    0.2697518    0.1290439  54.54  0.001247127    2.103    0.525
        41 -12.2850    231.7049    233.8903   7.6300487667e+01  -7.9100843831e+00     0.469259    0.2540281   9.76   0.00243066    2.129    0.530
        42 -11.8563    236.4240    227.3078   7.4333412269e+01  -7.5643923442e+00    0.3685361    0.2075366 -17.12  0.002015097    1.794    0.443
        43 -11.0961     95.0125    236.1813   1.0475007291e+02   1.1818584348e+01    0.2322699      0.12115  55.48  0.001088215    2.018    0.504
        44 -10.9020     14.0215    232.2245   1.2122621875e+02   2.2698815095e+01    0.3366392    0.1648096  54.00  0.001923738    1.670    0.401
        45 -10.1930     38.1212    240.6848   1.1703336314e+02   1.8352753671e+01    0.2039824      0.11448  54.03  0.001033783    1.472    0.321
        46 -11.1392     39.5212    231.1611   1.1605601739e+02   2.0173708864e+01    0.2640349    0.1529056  60.98   0.00149164    1.519    0.342
        47 -10.8467    214.3637    230.9117   7.8997031197e+01  -5.1772219363e+00    0.2613295     0.149286  47.59  0.001293258    2.541    0.607
        48 -10.4350     48.1515    230.4319   1.1420528227e+02   1.9305425015e+01    0.2561531    0.1217257  65.87  0.001197744    2.272    0.560
        49 -12.1234     25.9310    228.3031   1.1862616542e+02   2.2296014997e+01    0.5058299    0.1860929 -87.90  0.002146681    3.082    0.676
        50 -11.4694      4.4787    228.4327   1.2286333242e+02   2.4412959233e+01    0.3852286    0.1792093  66.78  0.002128094    1.845    0.458
        51 -10.8182     11.0015    226.3037   1.2148213802e+02   2.4242859371e+01     0.302658    0.1479554  58.31  0.001596741    1.714    0.417
        52 -11.3202     18.6337    222.2699   1.1971255761e+02   2.4353222989e+01    0.2783177    0.1438234  63.81  0.001526681    1.708    0.415
        53 -11.3927      2.0013    221.3426   1.2298045937e+02   2.6141999095e+01    0.3296809    0.1418565 -89.10  0.001718669    2.048    0.512
        54 -11.5901    238.4943    218.3091   7.2394548279e+01  -6.5084344657e+00    0.3781648    0.1845736 -28.91   0.00194472    1.892    0.472
        55 -11.5871     12.1694    217.0365   1.2070413289e+02   2.6131306315e+01    0.3959661    0.1933168  57.88  0.002159532    1.772    0.436
        56 -11.0142     35.0040    216.9893   1.1590511123e+02   2.3772805335e+01    0.2204328    0.1195152  63.95  0.001147222    1.737    0.424
        57 -10.5143     32.2989    229.6293   1.1742378388e+02   2.1319125614e+01    0.2069651    0.1065853  61.64  0.001101767    1.749    0.428
        58  -9.8786    149.7352    214.3995   8.9552539704e+01   7.6317225364e+00    0.1791373    0.1246782  26.07 0.0002749228    1.409    0.290
        59 -11.4928      2.2373    212.9937   1.2248982458e+02   2.7931338913e+01    0.2915728    0.1602577  78.42  0.001699741    1.532    0.347
        60 -10.6363    246.8632    206.1274   6.8756770457e+01  -5.7668074371e+00    0.2376718    0.1426489 -28.46  0.001365675    1.414    0.293
        61 -12.2964     12.3636    204.6651   1.1987272356e+02   2.8877979381e+01     0.399044    0.1972302  51.68   0.00214747    1.799    0.444
        62 -10.4046     28.4914    211.9933   1.1691985895e+02   2.5605259089e+01    0.1857966   0.08347357  75.85 0.0008101949    2.515    0.602
        63 -10.7455    250.1414    200.9715   6.7260998614e+01  -5.4104968475e+00    0.3062662    0.1487509 -35.84  0.001590948    1.760    0.432
        64 -10.6073    243.0000    199.9628   6.8283215171e+01  -4.2984688907e+00    0.2088119   0.06168921 -39.22 0.0008079782    2.981    0.665
        65 -12.0351      3.4687    197.3141   1.2131395189e+02   3.1347912174e+01    0.3783862    0.1881603  78.14  0.001984489    1.828    0.453
        66 -11.6219    246.6078    192.1279   6.6206977715e+01  -3.5556756223e+00    0.2682964     0.133767 -26.89  0.001308672    1.931    0.482
        67 -11.9330      3.8905    188.8363   1.2067164128e+02   3.3279181593e+01    0.3829934    0.1788806  63.29   0.00191972    2.052    0.513
        68 -10.8477     11.6106    183.7955   1.1853786637e+02   3.3822430102e+01    0.1897665   0.09880183  88.86 0.0009552952    1.743    0.426
        69 -11.5766      2.0137    178.9478   1.2041995934e+02   3.5765846277e+01     0.316406    0.1497547 -88.65  0.001580147    1.849    0.459
        70 -11.1489      6.0000    171.9991   1.1895182996e+02   3.7128029218e+01    0.3566886   0.05988319 -75.70  0.001051249    4.933    0.797
        71 -10.4035     10.6602    167.3211   1.1741038260e+02   3.7901383093e+01    0.1373258   0.07958135  66.10  0.000549107    1.717    0.418
        72 -10.8381      1.4007    165.1782   1.1954309115e+02   3.9129158878e+01    0.1890651   0.09728547  89.07 0.0009548939    1.727    0.421
        73 -11.2717      3.4375    154.2539   1.1811351144e+02   4.1664223629e+01    0.2626177   0.09473145 -70.72  0.001152917    2.148    0.534
        74 -11.2658    249.5873    150.7525   5.7640064801e+01   2.8467708074e+00    0.2621817    0.1073959 -36.69   0.00113998    2.076    0.518
        75 -12.5801    248.8072    119.4256   5.1338288764e+01   8.3094658513e+00    0.4450024    0.1463926 -44.53  0.001741124    2.565    0.610
        76 -12.1286    248.5093    107.0226   4.8799264354e+01   1.0446452094e+01    0.2393685    0.1838546 -86.86  0.001398976    1.626    0.385
        77 -12.7290    247.9119     92.6100   4.5868407973e+01   1.2923129564e+01    0.3555526    0.1952014 -43.70  0.001842263    1.493    0.330
        78 -12.4233    248.4693     86.9838   4.4629264364e+01   1.3723167093e+01    0.5313185    0.2102452 -58.81  0.001854548    3.981    0.749
        79 -12.3714    248.3878     74.1900   4.1985885866e+01   1.5735872663e+01    0.3014186    0.1736525 -51.97   0.00156544    1.472    0.321
        80 -12.6094    245.4444     47.9128   3.6892453309e+01   2.0127516486e+01    0.3600572    0.2045297 -89.70  0.001941897    1.978    0.494
        81 -13.0740    249.4978     57.6939   3.8493615736e+01   1.7969042486e+01     0.414109    0.3144457 -52.03   0.00268134    1.090    0.083
        82 -11.8208      3.6316     50.9239   1.0173984037e+02   6.6058584656e+01    0.4745895   0.09335997 -45.81  0.001857422    3.145    0.682
        83 -11.6954      2.2300     40.8176   9.9504252760e+01   6.8141236092e+01     0.338499    0.1271324 -49.15  0.001715313    1.955    0.489
        84 -12.6821    212.1445    247.1291   8.2076519536e+01  -7.2713973991e+00    0.5583768    0.2878807  14.31  0.002797653    2.204    0.546
        85 -12.6976    143.2016    246.8309   9.5809811638e+01   2.6227044611e+00    0.4825314    0.2364318  29.26   0.00229274    1.932    0.482
        86 -11.2156     45.0026    245.2428   1.1599759150e+02   1.6623052299e+01    0.3960011    0.1541273  47.00  0.001959124    2.051    0.513
        87 -11.9215      3.2968    243.7169   1.2381638730e+02   2.1404945168e+01    0.3969457    0.2136133  68.56  0.002504696    1.476    0.323
        88 -11.8786    196.0088    243.7141   8.4625403922e+01  -4.5860790890e+00    0.2814297    0.1601899  16.97  0.001474491    1.805    0.446
        89 -12.1003    116.0668    244.8871   1.0126994274e+02   7.0318421734e+00     0.342657    0.1451743  43.96  0.001543719    2.069    0.517
        90 -12.2758     84.4739    244.3294   1.0786846437e+02   1.1693765524e+01    0.3606317     0.192049  42.37  0.001895829    1.572    0.364
        91 -11.7305     25.9019     16.6810   7.7332714277e+01   7.0156636585e+01    0.2770498     0.149178 -13.32  0.001464208    2.093    0.522
        92 -11.8356     56.7502    242.0961   1.1339456875e+02   1.5817890634e+01    0.4971651    0.1809242  49.81  0.002241217    2.371    0.578
        93 -12.3152    225.9756    241.1985   7.8556198562e+01  -8.2173471319e+00     0.360909    0.2117911 -13.66  0.002047037    1.744    0.427
        94 -11.3628    158.5211    245.6637   9.2466549800e+01   5.3272712456e-01    0.2374297    0.1035806  34.89  0.001089685    1.975    0.494
        95 -11.6884     29.5561    240.8752   1.1872871933e+02   1.9280023774e+01     0.432611    0.2152127  68.95    0.0023459    1.886    0.470
        96 -11.8958     15.5897    240.5390   1.2138652922e+02   2.0830448808e+01    0.5698404    0.2065499  47.46   0.00280591    2.125    0.529
        97 -12.1902     72.5569    240.7188   1.1000674667e+02   1.4041061173e+01    0.4381484    0.1791267  54.93  0.001896935    2.548    0.608
        98 -12.5886     97.3263    244.7388   1.0521314974e+02   9.7986493118e+00    0.4938016    0.1738089  43.60  0.002092368    2.382    0.580
        99 -11.0705    129.0037    240.5069   9.7960674187e+01   5.9034359182e+00    0.2113866    0.1126263  36.77  0.001040686    1.619    0.382
       100 -11.9054    127.4989    248.3789   9.9295633673e+01   4.6944265369e+00    0.3997592    0.1870468  48.20  0.001847857    2.146    0.534
       101 -11.8712    107.1230    240.8088   1.0268311767e+02   9.1312185397e+00    0.3623429    0.1333465  43.57  0.001516904    2.347    0.574
