#   1 NUMBER                 Running object number                                     
#   2 MAG_AUTO               Kron-like elliptical aperture magnitude                    [mag]
#   3 X_IMAGE                Object position along x                                    [pixel]
#   4 Y_IMAGE                Object position along y                                    [pixel]
#   5 X_WORLD                Barycenter position along world x axis                     [deg]
#   6 Y_WORLD                Barycenter position along world y axis                     [deg]
#   7 A_WORLD                Profile RMS along major axis (world units)                 [deg]
#   8 B_WORLD                Profile RMS along minor axis (world units)                 [deg]
#   9 THETA_WORLD            Position angle (CCW/world-x)                               [deg]
#  10 FWHM_WORLD             FWHM assuming a gaussian core                              [deg]
#  11 ELONGATION             A_IMAGE/B_IMAGE                                           
#  12 ELLIPTICITY            1 - B_IMAGE/A_IMAGE                                       
         1 -10.4477    110.4302     40.2877   2.5832896569e+02  -5.6361284900e+01   0.09813043   0.06261357  44.44  0.003625245    1.605    0.377
         2 -11.2994     78.8552     35.5709   2.5743705253e+02  -5.5331367541e+01    0.1055992    0.0686176  18.75  0.003967681    1.527    0.345
         3 -10.4939     59.8905     22.9348   2.5634086692e+02  -5.4808451174e+01   0.05834276   0.02421522  19.09  0.001764839    2.326    0.570
         4 -12.4316    105.5344     20.3082   2.5699902457e+02  -5.6402279597e+01   0.05944489    0.0435865  27.88 0.0004503128    1.340    0.254
         5 -12.0235    104.3904     13.2666   2.5654066836e+02  -5.6433327029e+01    0.0795173   0.04253412  27.55  0.002738088    1.785    0.440
         6 -11.9401    164.3239     27.6879   2.5863608549e+02  -5.8337817563e+01    0.1003956   0.05439045 -76.28  0.003393041    1.919    0.479
         7 -11.6808     20.2726     21.9248   2.5562204326e+02  -5.3457911171e+01   0.08475241   0.05299318  40.03  0.001735272    1.590    0.371
         8 -11.8351     36.2645     18.9861   2.5571035646e+02  -5.4034993532e+01    0.1040574   0.06599457  17.71  0.003476579    1.561    0.359
         9 -12.1928     48.8778     13.0052   2.5556466409e+02  -5.4525424934e+01   0.09711756   0.03888495 -74.65  0.002860677    2.503    0.600
        10 -10.0827      1.2389      8.7676   2.5457114740e+02  -5.2925656252e+01    0.0523137   0.01632192  13.39  0.001339864    3.290    0.696
        11 -11.1658      6.9443     10.3842   2.5474959429e+02  -5.3107180963e+01   0.09558546   0.06270161 -40.36  0.003596035    1.578    0.366
        12 -11.2075     12.8709      8.2985   2.5471960139e+02  -5.3329876801e+01    0.1026966   0.03634436  10.29  0.002759589    3.072    0.675
        13 -12.0699     16.4098     13.0224   2.5504677019e+02  -5.3408451800e+01    0.1428847   0.04112873  39.15  0.003669747    3.283    0.695
        14 -12.0915     22.7619     11.0664   2.5503236533e+02  -5.3644878276e+01   0.08371127     0.064802  58.84   0.00263956    1.352    0.261
        15 -10.6085     67.8924     19.2991   2.5626154833e+02  -5.5118985423e+01   0.06593351   0.04151522 -37.67  0.002400106    1.680    0.405
        16 -12.0828    164.8730     17.9955   2.5801567578e+02  -5.8460529433e+01   0.07942656   0.04238346  63.98   0.00250551    2.360    0.576
        17 -11.4282     86.2582     13.6587   2.5624024410e+02  -5.5805652138e+01    0.1233607   0.04954787  43.19  0.003601731    2.567    0.610
        18 -10.6809     89.3792      8.5249   2.5597996732e+02  -5.5962774641e+01   0.04955666   0.03282711   8.23  0.001135313    1.562    0.360
        19 -11.8022    227.8790     15.0842   2.5920149191e+02  -6.0639826142e+01   0.07017706   0.03791468 -50.32   0.00128591    1.812    0.448
        20 -11.1787    120.6076     11.8455   2.5675056615e+02  -5.7005146108e+01    0.1656055   0.03267291 -77.25  0.002933324    6.991    0.857
        21 -10.9339    132.8273     15.3906   2.5720726106e+02  -5.7389255283e+01   0.05479546   0.03915635  57.05  0.001629127    1.500    0.333
        22 -10.8849    137.2406     14.5847   2.5724131159e+02  -5.7548960366e+01   0.04998416   0.03565059 -89.69  0.001277314    1.502    0.334
        23 -10.0118    149.4844     15.0122   2.5750953625e+02  -5.7964618953e+01   0.04632508   0.02012232  51.96  0.001318456    2.754    0.637
        24 -10.9691    127.0064     16.7118   2.5717915366e+02  -5.7175975908e+01   0.06799604   0.04170705  55.33  0.001703954    1.797    0.443
        25 -10.2209    218.4680     13.5361   2.5887823369e+02  -6.0337115129e+01   0.04136133    0.0299546  -3.01  0.001416392    1.492    0.330
        26 -10.8979    191.2417     11.7344   2.5815539884e+02  -5.9428328048e+01   0.05482791   0.02183932  27.02  0.001650381    2.308    0.567
        27 -11.2849    192.8486      7.5957   2.5791107737e+02  -5.9526858510e+01   0.06732866   0.03785351  31.53  0.002122943    1.714    0.417
        28 -11.3450    206.7610      2.3513   2.5785165276e+02  -6.0057321614e+01   0.09310464   0.02626153 -61.55  0.002468882    2.966    0.663
        29 -11.8996    212.2489      9.2484   2.5844415587e+02  -6.0171779429e+01   0.09485351    0.0426837  33.29  0.003017749    2.099    0.524
        30 -10.6750    218.5614      3.6642   2.5819914360e+02  -6.0446514399e+01   0.04256202   0.03355784 -85.45 0.0008404074    1.323    0.244
        31 -10.4704    223.6586      2.8887   2.5825841120e+02  -6.0628554009e+01   0.03412877    0.0328016 -59.67 0.0004473899    1.033    0.032
        32 -10.1444    165.1783      4.4962   2.5713592757e+02  -5.8610511545e+01   0.05926035   0.02493411  50.12  0.001547145    2.771    0.639
        33 -10.9282    168.8332      9.6651   2.5755005906e+02  -5.8683111469e+01   0.06476596   0.03959748  86.56  0.001375863    1.878    0.468
        34  -9.8069    163.5029      9.5433   2.5743415608e+02  -5.8501619085e+01   0.03425534   0.02399298  38.76 0.0007242897    1.425    0.298
        35  -9.7803     77.9141      7.3691   2.5571157816e+02  -5.5578765553e+01    0.0482874   0.02714638 -30.77  0.001174124    2.017    0.504
        36 -10.6471     73.5157      3.1129   2.5537836339e+02  -5.5467127937e+01    0.1016799   0.04763944  78.75  0.002919459    2.857    0.650
        37  -9.9906     64.2855      2.1520   2.5516775887e+02  -5.5157613635e+01   0.03360435   0.02250553  35.74  0.001273245    1.469    0.319
        38 -11.0493     64.3012     10.1591   2.5565059048e+02  -5.5083333493e+01    0.0472575   0.03399846 -41.02 0.0003598877    1.421    0.296
        39 -10.3605     63.7180      6.4571   2.5541801191e+02  -5.5098066201e+01   0.05204459   0.02546463 -61.93  0.001719526    1.918    0.479
        40 -10.5369    145.9770      7.8189   2.5697581594e+02  -5.7917490446e+01   0.07024639   0.03335777  51.72  0.001529087    2.412    0.585
        41 -10.0319    152.0143      8.2563   2.5712182513e+02  -5.8120469936e+01     0.046657   0.03083501   4.52  0.001416853    1.606    0.377
        42 -10.8295    156.5053      7.5279   2.5716277512e+02  -5.8282054301e+01   0.05172909   0.03604271 -71.40  0.001673715    1.423    0.297
        43 -11.1738    185.1888      7.2938   2.5772960338e+02  -5.9267917515e+01   0.03660645   0.03086348  68.20 0.0007650722    1.251    0.200
        44 -10.5366    183.3252      4.6887   2.5751647815e+02  -5.9231004441e+01   0.02701791   0.02063877  50.43 0.0005806392    1.358    0.264
        45 -10.2725    231.5269      6.4363   2.5868348283e+02  -6.0858505089e+01   0.03324722   0.02752774 -36.14 0.0005437406    1.230    0.187
        46 -10.9957    233.5485      2.7020   2.5846787212e+02  -6.0967451862e+01    0.0583769   0.03845642 -26.27  0.001056075    1.689    0.408
        47  -9.7578    122.0127      5.6441   2.5638453216e+02  -5.7114701966e+01   0.04332984   0.01777765  16.17  0.001089623    2.433    0.589
        48 -10.4030    176.4094      5.6724   2.5744015710e+02  -5.8983869353e+01    0.0436958   0.02701094 -49.32 0.0009920333    1.598    0.374
        49 -10.6927     41.6486      3.8029   2.5490285245e+02  -5.4361774070e+01   0.06009983   0.02942777  50.90  0.001897835    2.245    0.554
        50 -10.8340    243.1814      4.0637   2.5878544955e+02  -6.1280327821e+01   0.05946117   0.02833582 -46.48  0.001895389    2.123    0.529
        51  -9.6661    245.7813      1.3446   2.5865295890e+02  -6.1398044882e+01   0.02655593   0.01761785 -71.23 0.0002841091    1.503    0.335
        52 -11.7271    137.8521      4.1854   2.5658632854e+02  -5.7674262908e+01   0.07624442   0.03861743 -86.44 0.0004294095    2.259    0.557
        53 -11.8608    133.1210      2.5351   2.5639182522e+02  -5.7527588866e+01   0.05381939   0.04657806 -71.48    0.0016133    1.150    0.130
        54 -10.0467    116.0000      3.0131   2.5610874141e+02  -5.6933115438e+01   0.04924791   0.02417945  10.59  0.001571096    2.144    0.533
        55 -10.8419    112.9243      2.3263   2.5601023515e+02  -5.6833704411e+01   0.05993371    0.0370037 -45.89  0.001618708    1.631    0.387
        56 -10.4125      2.0993      2.0704   2.5420054206e+02  -5.3014813563e+01   0.03886157   0.02609071  44.11  0.001253586    1.503    0.335
        57  -8.7947    160.3223      1.3145   2.5683092650e+02  -5.8475591467e+01   0.01975556   0.01286022  54.45 0.0004304463    1.659    0.397
        58  -9.4558    152.0569      1.4280   2.5667824292e+02  -5.8190227817e+01   0.02711701   0.01763605 -72.44 0.0004739072    1.527    0.345
        59  -9.6272    122.5035      1.2301   2.5611352311e+02  -5.7174445247e+01   0.04831726    0.0161678 -81.27  0.001187992    3.602    0.722
        60  -9.1253     29.2423      1.6510   2.5458308173e+02  -5.3953539012e+01   0.01886932   0.01287946 -28.90 0.0004981606    1.575    0.365
        61  -9.1937     81.9505      1.0000   2.5539059279e+02  -5.5777832890e+01    0.0294484   0.01030959 -74.63 0.0006603061    2.851    0.649
        62 -10.2578    105.2330      1.8657   2.5584484955e+02  -5.6572910523e+01   0.04058005   0.02567849 -62.15   0.00100388    1.523    0.343
        63 -10.3430     30.8632     96.7699   2.6008162491e+02  -5.3026855844e+01   0.05349791   0.03220249 -11.07  0.001631693    2.028    0.507
        64  -9.2073    249.6798    250.3002   2.7479824140e+02  -5.7797038726e+01   0.01870508   0.01382025 -24.72 0.0007024084    1.623    0.384
        65 -10.8081     27.1414     85.9898   2.5940228686e+02  -5.3025026695e+01   0.07205255   0.06942105  85.33  0.001816413    1.056    0.053
        66 -10.4324     19.1053     86.2050   2.5926181307e+02  -5.2751109053e+01    0.0590371   0.03473208 -84.44  0.002044651    1.906    0.475
        67  -9.4321     28.5383    100.5192   2.6024624204e+02  -5.2904807683e+01   0.03440909   0.02366875 -16.40 4.417434e-05    1.656    0.396
        68 -10.7509     35.5737    102.8462   2.6051701766e+02  -5.3114025813e+01   0.08345185    0.0407453 -89.97  0.002074049    2.798    0.643
        69 -11.8478     25.9182    106.1161   2.6050710003e+02  -5.2750819591e+01    0.1105587   0.07921276  35.71  0.004374213    1.378    0.274
        70 -11.4378     22.1453    114.3733   2.6089029874e+02  -5.2525792856e+01   0.07999206   0.03934174 -86.03  0.002399499    2.616    0.618
        71 -11.2841     28.2193    113.0218   2.6093786960e+02  -5.2745600728e+01   0.04800774   0.03845557 -79.81 0.0009589214    1.295    0.228
        72 -12.3696      2.5960    111.6626   2.6035538082e+02  -5.1902769488e+01   0.08717822   0.05218605 -45.32  0.002619989    1.701    0.412
        73 -11.4308      4.2404    105.6247   2.6005632459e+02  -5.2028448753e+01   0.06370988   0.05208005 -75.43  0.002015012    1.246    0.197
        74  -8.8519     57.6604    114.3496   2.6162421432e+02  -5.3715843690e+01   0.02040741   0.01277812 -32.69 0.0007045217    1.794    0.442
        75  -9.7354     48.9896    112.0323   2.6130988167e+02  -5.3453855422e+01   0.03586929   0.02538827 -67.30 0.0008401052    1.403    0.287
        76 -11.2994     15.2645    109.6363   2.6049150703e+02  -5.2351528766e+01   0.06833135   0.04407037 -74.60  0.001754714    1.600    0.375
        77 -11.4075     79.5314    108.2055   2.6174401873e+02  -5.4524921026e+01   0.07300449      0.04047 -70.16  0.002090858    1.820    0.451
        78  -9.3745     45.5153    105.5677   2.6087241541e+02  -5.3415654357e+01   0.03164114   0.01682616  26.14 0.0005275442    1.805    0.446
        79 -11.0043     51.5813     99.8273   2.6067089365e+02  -5.3688326888e+01   0.08437774   0.04377522  49.66  0.002179448    2.151    0.535
        80  -9.8018     85.7938    103.4677   2.6160562046e+02  -5.4793816326e+01   0.03157263   0.02529518  21.48 0.0006267366    1.244    0.196
        81 -11.8064      9.0923     96.9994   2.5967351812e+02  -5.2290988186e+01   0.06265362   0.05465186 -49.31 0.0005647642    1.141    0.124
        82 -10.5727    244.7440     99.9994   2.6539863252e+02  -6.0124597720e+01   0.02488834   0.01562862  23.28 0.0008973291    1.592    0.372
        83 -12.1629     67.2851     95.1086   2.6072462529e+02  -5.4273331188e+01   0.05859448   0.04738278 -78.28  0.001123541    1.270    0.213
        84  -9.4941    210.1550     98.2341   2.6431362555e+02  -5.9010727842e+01   0.02629071   0.02385434  67.93 0.0004236369    1.154    0.134
        85  -9.9333     67.1909     81.3619   2.5992459879e+02  -5.4431958547e+01   0.05443648   0.03244525  52.36  0.001899355    1.852    0.460
        86 -11.2682     79.1166     93.6723   2.6088997419e+02  -5.4689034064e+01    0.1079199   0.08213903  14.85  0.004208343    1.333    0.250
        87 -12.5703     75.8954     79.5370   2.5999500806e+02  -5.4747528227e+01    0.1043339   0.05717849 -39.23  0.003499148    1.990    0.497
        88 -12.0251    126.0265     94.5702   2.6198109286e+02  -5.6255014801e+01   0.03222422   0.03031329   1.02 0.0001908292    1.075    0.070
        89  -9.7382    121.6399     93.7454   2.6183057194e+02  -5.6118160977e+01   0.03506148   0.02651357  16.05   0.00102672    1.342    0.255
        90  -9.9724     51.0454     91.4926   2.6018385466e+02  -5.3768736110e+01   0.03770424   0.03050749  72.34  0.001169566    1.338    0.253
        91  -9.8311     52.1411     87.1585   2.5995729846e+02  -5.3856183252e+01   0.03042482   0.02536226  19.20 0.0003161378    1.196    0.164
        92 -10.4324     35.7089     92.8356   2.5995507760e+02  -5.3235849984e+01   0.05756548   0.03308376 -13.80  0.001564865    2.198    0.545
        93 -11.5037     45.2064     84.3009   2.5965615513e+02  -5.3654778676e+01   0.07009015   0.05503245 -70.97  0.002050275    1.277    0.217
        94 -10.2680     37.2765     85.8528   2.5958981393e+02  -5.3369037261e+01   0.06076925   0.03341738  89.16   0.00132711    2.242    0.554
        95 -11.8017     43.1026     91.2087   2.6000887684e+02  -5.3504103990e+01   0.06243884   0.03799374  12.65 0.0004462617    1.712    0.416
        96  -9.9724     39.2471     90.1906   2.5987479440e+02  -5.3385799188e+01   0.04327982   0.02852155  61.98 0.0007922173    1.734    0.423
        97 -11.0681     98.2693     90.9903   2.6114402005e+02  -5.5366431779e+01   0.03187637   0.02617572 -67.36 0.0002448205    1.212    0.175
        98 -11.6161      5.7422     88.6605   2.5914871422e+02  -5.2272368970e+01   0.09889618   0.04130522 -65.65  0.003047223    2.254    0.556
        99 -10.1209      9.4885     86.5083   2.5909871782e+02  -5.2422890404e+01   0.03515428    0.0290663 -41.31 0.0007155024    1.223    0.182
       100  -9.9094     67.0475     88.4353   2.6033307251e+02  -5.4344521519e+01   0.03527803    0.0232999  39.49 0.0006384171    1.511    0.338
       101 -10.1892     90.3714     86.0263   2.6067970913e+02  -5.5160126170e+01   0.04761994   0.03502837 -10.57  0.001855105    1.507    0.337
       102  -9.0524    104.2822     87.3314   2.6105745694e+02  -5.5613411116e+01   0.01936953   0.01303185  53.02 0.0004533996    1.610    0.379
       103 -10.4959    143.1841     84.3619   2.6175532599e+02  -5.6958966753e+01   0.03215101   0.02766187  25.87 0.0004371817    1.156    0.135
       104  -9.6444    113.6501     83.3230   2.6102250116e+02  -5.5977718430e+01    0.0406957   0.02487238 -19.64   0.00138693    2.001    0.500
       105  -9.9684    110.6589     82.3490   2.6089808139e+02  -5.5888628310e+01   0.03911086    0.0192164 -45.15 0.0008303858    2.109    0.526
       106  -9.3685    103.4292     79.9894   2.6059943201e+02  -5.5672895114e+01   0.02765009   0.01778803  18.75 0.0004977526    1.559    0.359
       107 -11.3638     52.9400     74.6984   2.5925478225e+02  -5.4025522332e+01   0.08780681   0.04403283   8.14  0.002781807    2.247    0.555
       108  -9.8812     46.8634     75.3714   2.5917588672e+02  -5.3812016806e+01   0.04081643   0.02813639  31.10  0.001055375    1.417    0.294
       109  -9.5232     92.5035     71.4617   2.5985838486e+02  -5.5403310861e+01    0.0319473   0.01827488  13.02 0.0006081982    1.830    0.454
       110 -10.8051     89.2890     77.6690   2.6016144251e+02  -5.5222353562e+01   0.05959652   0.03712516 -60.64  0.001609643    1.549    0.354
       111 -10.4408     94.6269     76.2736   2.6019006633e+02  -5.5419250923e+01   0.04962392   0.03528206 -68.96  0.001315411    1.398    0.285
       112 -10.0245     58.1843     77.5363   2.5952202559e+02  -5.4171076956e+01   0.03180994   0.02555332  14.98 0.0005397034    1.253    0.202
       113 -10.6522      2.0670     71.4151   2.5812321730e+02  -5.2336790130e+01   0.07533053   0.03823081  11.79   0.00245977    2.078    0.519
       114  -8.6281    126.6881     76.7250   2.6091037217e+02  -5.6497199545e+01   0.01882225   0.01335252  59.28 0.0002484773    1.557    0.358
       115 -10.8746     14.0171     74.7363   2.5852388930e+02  -5.2705921759e+01    0.0483813   0.03692507 -11.84  0.001593438    1.412    0.292
       116 -10.2404    245.5075     75.4986   2.6378623602e+02  -6.0489193409e+01   0.01820277   0.01760392 -29.86 9.499741e-05    1.034    0.033
       117  -9.6735    103.4044     74.6400   2.6027755469e+02  -5.5735340702e+01   0.03638795   0.02300618 -72.31  0.001327385    1.600    0.375
       118 -11.2171     27.4805     73.1843   2.5868394329e+02  -5.3179223526e+01   0.07258407   0.04543243  83.42  0.001182242    1.878    0.468
       119 -10.5349     34.7347     71.7012   2.5873479375e+02  -5.3441538398e+01    0.0616074   0.02517738 -53.96  0.001868778    2.294    0.564
       120 -10.1952     40.6203     73.0797   2.5892472357e+02  -5.3625933321e+01   0.05029401    0.0320453  80.64    0.0012993    1.852    0.460
       121 -11.1202     40.5754     68.9914   2.5868913494e+02  -5.3669520883e+01   0.03948251   0.03466647 -68.70 0.0006249073    1.137    0.120
       122  -9.9594     16.1706     95.6564   2.5973401529e+02  -5.2544768002e+01   0.03238395   0.02479504   1.63  0.001298541    1.377    0.274
       123 -10.3125     80.8410     72.3164   2.5967011909e+02  -5.4998269031e+01   0.07025602   0.03302298  13.45  0.002184336    2.273    0.560
       124  -9.6407     77.9864     67.4818   2.5932636195e+02  -5.4956418901e+01    0.0417342   0.02459485 -38.41  0.001448621    1.829    0.453
       125  -9.3334    154.2785     72.4195   2.6127024197e+02  -5.7479759281e+01   0.03461513   0.01828827 -77.35  0.001121582    2.068    0.516
       126  -9.4145     86.6037     69.8233   2.5963942287e+02  -5.5222164316e+01   0.02644439   0.01736781  -0.08 0.0009536589    1.695    0.410
       127 -10.5996    122.7705     68.7191   2.6033384946e+02  -5.6460232947e+01   0.05165571   0.03354504 -74.34  0.001339536    1.576    0.366
       128  -9.9237     13.9653     67.4764   2.5811448948e+02  -5.2782546793e+01   0.05890872   0.01893591 -75.50  0.001491544    3.411    0.707
       129  -9.4425     92.1626     57.8960   2.5903775602e+02  -5.5545626601e+01   0.04995445   0.02267683 -33.51  0.001421636    2.800    0.643
       130 -10.0778     96.5192     65.9044   2.5960808225e+02  -5.5603289059e+01   0.03522525   0.02580026  53.65 0.0003700888    1.449    0.310
       131 -11.2013     92.7632     62.5890   2.5933207212e+02  -5.5513417013e+01    0.0628391   0.03315181 -59.92 0.0006151776    1.796    0.443
       132 -10.5451     14.0384     56.2979   2.5748413093e+02  -5.2902937056e+01   0.04083964   0.02959151  66.39 0.0004265072    1.516    0.340
       133 -12.3785      6.0258     61.8700   2.5765872272e+02  -5.2572243772e+01    0.1008487    0.0629669  88.40  0.003146874    1.815    0.449
       134 -10.6205      9.5135     56.5189   2.5741802782e+02  -5.2746630085e+01   0.04456225   0.02990272 -43.30  0.001248604    1.522    0.343
       135  -9.8979    201.8855     64.8871   2.6193209692e+02  -5.9173439105e+01   0.02949041   0.01991892 -35.78 0.0005134571    1.591    0.372
       136  -9.7558    105.2215     63.5984   2.5964880268e+02  -5.5924946788e+01   0.03262094   0.02311026 -82.82   0.00124827    1.497    0.332
       137 -10.2068    158.8577     62.9712   2.6078013894e+02  -5.7748620187e+01   0.03711363   0.02613655  88.65 0.0004473953    1.588    0.370
       138  -9.8506     84.5157     62.2718   2.5914707731e+02  -5.5236754497e+01   0.03644731   0.02592144   9.73  0.001408217    1.456    0.313
       139  -9.7045     57.9498     62.4089   2.5863666014e+02  -5.4332050843e+01   0.03763107   0.02531779 -13.25  0.001385067    1.688    0.408
       140 -11.9155     46.4133     59.2500   2.5823567858e+02  -5.3973837924e+01    0.1070077   0.05698778 -65.16  0.002971454    1.801    0.445
       141 -11.1151     43.0000     60.9444   2.5827052425e+02  -5.3839444965e+01    0.0510971   0.02775349  13.62 0.0008249501    1.898    0.473
       142 -11.0554     40.7169     57.1393   2.5800852576e+02  -5.3802488587e+01   0.08517569   0.02430065 -55.76  0.002246624    3.025    0.669
       143  -9.0126     65.3050     61.6711   2.5873446335e+02  -5.4590284512e+01    0.0255938    0.0164977  28.00 0.0006538287    1.507    0.336
       144  -9.6713     66.1938     56.4525   2.5844409064e+02  -5.4677558757e+01   0.09040852   0.01029692  35.23  0.001794714    5.223    0.809
       145  -9.0889    151.1172     61.1719   2.6049085575e+02  -5.7508430034e+01   0.02550611   0.02029833 -36.90 0.0004400453    1.293    0.227
       146 -10.0226    113.7600     60.6792   2.5964929066e+02  -5.6248147361e+01   0.03451847   0.02930991  14.10 0.0007894423    1.186    0.157
       147 -10.5771     31.4054     53.2528   2.5761639292e+02  -5.3526263967e+01   0.08791704   0.03290789 -79.40  0.002365773    3.090    0.676
       148  -9.5884     29.5129     59.4994   2.5794086780e+02  -5.3395992688e+01   0.05178641   0.03418192  -9.42  0.001900368    1.713    0.416
       149  -9.9944     26.0270     59.4817   2.5787716779e+02  -5.3277563400e+01   0.04968842   0.02925743 -66.12  0.001406115    1.649    0.393
       150 -10.9963     25.5397     55.6335   2.5764860135e+02  -5.3301496058e+01     0.075818   0.04563189  85.51  0.001877335    1.938    0.484
       151 -10.9620    118.3799     55.8779   2.5945142996e+02  -5.6459731306e+01    0.2048154   0.07308277 -32.47  0.004414466    5.023    0.801
       152  -9.9150    124.6417     56.4301   2.5961722309e+02  -5.6666176226e+01   0.03491979   0.02504942  31.66 0.0007483043    1.369    0.270
       153 -10.0990    122.7420     44.6047   2.5884439717e+02  -5.6734262686e+01   0.03376848   0.03057327 -71.87 0.0006253772    1.105    0.095
       154 -10.3193    114.0965     37.3804   2.5822188451e+02  -5.6517777384e+01   0.04615667   0.03126423  48.14   0.00113838    1.536    0.349
       155 -10.6340     49.8045    249.1515   2.6873574231e+02  -5.1571415753e+01   0.04227513   0.01658499 -44.21   0.00117654    2.819    0.645
       156 -11.6876    117.2031     45.4525   2.5878390866e+02  -5.6536128501e+01     0.085428   0.05936777  32.46  0.002103611    1.411    0.291
       157 -10.8296    120.1882     40.6003   2.5854351818e+02  -5.6691029220e+01   0.05161496   0.02487792 -86.24 0.0003447978    2.526    0.604
       158 -11.6640    119.2523     37.0083   2.5830130336e+02  -5.6697929579e+01   0.05669861   0.04447045 -16.65  0.001224276    1.363    0.266
       159 -11.9140     76.4778     52.9564   2.5843382143e+02  -5.5065869172e+01   0.06613343   0.04671581  43.30 0.0008945381    1.434    0.303
       160 -11.3621     72.8534     47.4533   2.5803678963e+02  -5.5001406715e+01    0.1355624   0.05129524  -0.24  0.001751885    4.252    0.765
       161  -8.6170    135.6747     58.6997   2.5999470994e+02  -5.7014440416e+01   0.01947418   0.01316004  57.31 0.0007028533    1.635    0.388
       162  -9.0287    106.7046     58.3781   2.5936229372e+02  -5.6034660599e+01     0.020144   0.01284707 -30.63 0.0007022893    1.750    0.429
       163 -10.3430     87.9753     55.9948   2.5884005759e+02  -5.5424231168e+01   0.06858817   0.01594088  28.21  0.001691629    3.416    0.707
       164 -10.1430    157.0045     55.0456   2.6023521639e+02  -5.7779833688e+01   0.05607287   0.03470627 -33.01  0.001984993    1.802    0.445
       165 -11.0661    154.9954     49.0183   2.5980708780e+02  -5.7781645153e+01   0.04595409   0.02370311  28.75 0.0003839281    1.846    0.458
       166  -9.7241    101.1490     55.4099   2.5906841795e+02  -5.5879062771e+01   0.02775726     0.015273 -56.20 0.0009484375    1.738    0.424
       167  -9.4890     55.4890     50.4526   2.5789026544e+02  -5.4376994095e+01   0.02783396   0.02340309  61.98 7.174833e-05    1.245    0.196
       168  -9.7510     52.0948     48.1952   2.5769567679e+02  -5.4284958140e+01   0.03445815   0.02923577 -20.84 0.0004898768    1.225    0.184
       169 -10.2983     60.5695     52.2914   2.5809265421e+02  -5.4530712810e+01   0.05106077   0.02916318  12.11  0.001769413    1.819    0.450
       170 -10.6221     60.9283     47.0905   2.5779273269e+02  -5.4598138074e+01   0.06985492   0.03490231  45.86  0.002250084    2.109    0.526
       171  -8.6112     93.5233     52.5233   2.5874082488e+02  -5.5651409815e+01   0.01826386   0.01752675  54.65 0.0008091417    1.055    0.053
       172 -10.6835     46.8945     48.6985   2.5763067770e+02  -5.4102190506e+01    0.0759381   0.03650431  49.44  0.002134664    2.307    0.567
       173 -11.8564     43.0396     44.2220   2.5730060461e+02  -5.4017026325e+01   0.08498292   0.05641733 -66.53 0.0007583931    1.473    0.321
       174  -9.9084     10.8993     51.6998   2.5716942871e+02  -5.2843481894e+01   0.02951485   0.02494466   8.00 0.0003651318    1.197    0.165
       175 -10.3360    243.9459     51.3135   2.6209930116e+02  -6.0752103735e+01   0.02614128   0.02294891 -65.45 0.0005689759    1.135    0.119
       176  -9.7383    144.9814     50.4557   2.5967958596e+02  -5.7425199442e+01   0.03500963    0.0226544  39.08 0.0005376818    1.540    0.351
       177  -9.3888    189.0513     49.6653   2.6062347951e+02  -5.8927316387e+01   0.02481959   0.02268607 -70.45 0.0003320092    1.095    0.087
       178  -9.7424     82.5843     47.3041   2.5821301023e+02  -5.5335127346e+01   0.04818503   0.01785329  31.07  0.001404273    2.442    0.590
       179  -9.7975      1.9494     48.7154   2.5684922902e+02  -5.2568813150e+01     0.034592   0.02693183   0.02 0.0008315783    1.338    0.252
       180 -10.1030     17.9739     40.8790   2.5667379897e+02  -5.3194451673e+01    0.0442802   0.02376037  26.99 0.0008933577    1.774    0.436
       181 -10.6957     31.6159     44.9394   2.5714113097e+02  -5.3619430369e+01    0.0739336   0.04437439  81.54  0.002554513    1.964    0.491
       182 -11.0697     20.8799     45.9152   2.5701138953e+02  -5.3242910792e+01   0.05896017   0.04511629  31.64   0.00119285    1.285    0.222
       183 -10.3242     26.1712     42.9086   2.5692980739e+02  -5.3454112265e+01    0.0442166   0.03343333 -38.95 0.0009270398    1.358    0.264
       184 -10.2323     23.6548     37.5828   2.5658050246e+02  -5.3421561790e+01   0.07984383   0.02812976 -55.29  0.002287311    2.583    0.613
       185 -10.0373     13.2898     46.3583   2.5690708553e+02  -5.2979377900e+01   0.03946617   0.02615701  52.63 0.0009418263    1.604    0.376
       186  -9.9089    146.2008     44.8654   2.5935229011e+02  -5.7530107720e+01   0.05618546   0.02762652  -8.12  0.001401916    2.847    0.649
       187  -9.7548    199.5255     45.0158   2.6056442153e+02  -5.9336267692e+01   0.03977821   0.02250359 -52.03  0.001386431    1.719    0.418
       188  -9.9270    139.4253     44.2931   2.5917199469e+02  -5.7305989712e+01   0.05746304   0.03077559  75.44  0.001767136    2.510    0.602
       189 -10.3966    156.2869     42.4858   2.5941818600e+02  -5.7899950327e+01   0.03669487   0.03369648  -5.83  0.001092016    1.109    0.098
       190 -10.8717     98.1301     41.5036   2.5816212704e+02  -5.5928102128e+01   0.03837618   0.02992092 -47.97 0.0003380944    1.278    0.217
       191  -9.3684     91.4198     41.6018   2.5803842359e+02  -5.5697801917e+01   0.03677827   0.01661991 -44.86  0.001117091    2.305    0.566
       192 -10.0334     56.7923     41.9637   2.5741466670e+02  -5.4510374960e+01   0.03919491    0.0242701 -64.04  0.001004305    1.562    0.360
       193 -10.2899      9.7980     30.4176   2.5594096860e+02  -5.3017582365e+01   0.08049069   0.04752117 -85.31  0.002832281    1.831    0.454
       194  -9.6003      3.1367     39.3112   2.5633806256e+02  -5.2703075601e+01   0.06236934   0.02041056 -49.25  0.001672265    2.995    0.666
       195 -10.7221      4.5089     35.7641   2.5615948815e+02  -5.2784735762e+01   0.05810381   0.04986261 -28.84  0.002496985    1.196    0.164
       196  -9.1066     34.6674    245.3105   2.6815580183e+02  -5.1147759197e+01   0.01941909    0.0132175 -30.10 0.0007043083    1.674    0.403
       197 -11.0486     60.8170     36.3678   2.5715616321e+02  -5.4705630350e+01   0.05943429    0.0346407  39.39  0.001286828    1.702    0.413
       198 -10.6103     68.8597     32.7496   2.5708526722e+02  -5.5017996727e+01   0.07761554   0.03771778 -65.73  0.002331437    1.951    0.487
       199  -9.2798    172.5316    242.4844   2.7182860745e+02  -5.5557671603e+01   0.01795021   0.01767424 -29.69 0.0008095963    1.013    0.013
       200 -12.2547     58.1354     29.8868   2.5672396622e+02  -5.4679309536e+01   0.05388094   0.03920589  43.70  0.001139457    1.390    0.281
       201 -11.7158     49.1898     30.3420   2.5659507047e+02  -5.4368069210e+01    0.1007564   0.05298137 -72.34  0.002775016    1.885    0.469
       202  -8.7291    195.3075     37.3503   2.5995699378e+02  -5.9283160459e+01   0.02001621   0.01282578  53.47 0.0007043238    1.710    0.415
       203 -11.3994    175.5934     32.0034   2.5916070527e+02  -5.8674306635e+01   0.09234484   0.05434239  32.71  0.002280459    1.647    0.393
       204 -10.5601    153.0552     35.9498   2.5893024493e+02  -5.7862958560e+01   0.03678889   0.02656444 -87.04 0.0003426644    1.484    0.326
       205 -10.2302    131.7123    240.9675   2.7053100042e+02  -5.4300598428e+01   0.02598248   0.02419685  28.46 0.0006678793    1.078    0.072
       206 -11.0397     67.6151    240.7434   2.6876127008e+02  -5.2269371302e+01    0.0391182   0.02776082  62.11 0.0009545312    1.672    0.402
       207 -12.4598    113.5973     25.0336   2.5744497179e+02  -5.6630636191e+01    0.1892868   0.06068089 -80.21   0.00451608    3.930    0.746
       208 -10.0918    240.6983     32.0020   2.6068384097e+02  -6.0879146724e+01   0.03486221   0.02486337  67.62  0.001293367    1.596    0.373
       209  -9.8617    217.0000     32.0546   2.6010993032e+02  -6.0078741939e+01   0.02704098   0.02627813 -16.71 0.0003247487    1.029    0.029
       210 -10.6862    188.6343     27.5588   2.5915552685e+02  -5.9167520647e+01   0.06078125   0.04415992  56.49  0.001622423    1.481    0.325
       211  -9.8480    183.0715     31.4436   2.5928896255e+02  -5.8934949879e+01   0.04299667    0.0254011 -10.09  0.001320901    2.058    0.514
       212 -11.0322    182.8639     25.5762   2.5889689441e+02  -5.8993013781e+01   0.05080846   0.03896701  -8.44  0.001252078    1.401    0.286
       213 -11.1231    159.9899     29.5043   2.5866210463e+02  -5.8170160848e+01    0.0665985   0.03540097 -81.45  0.002184272    2.075    0.518
       214 -10.5899    147.3571    239.0361   2.7088176380e+02  -5.4825969025e+01   0.04243133   0.03104973  -1.36  0.001061248    1.645    0.392
       215 -10.2171    135.7163     30.4631   2.5822141154e+02  -5.7330802979e+01   0.03552354   0.02772337  39.79 0.0008811982    1.284    0.221
       216 -10.0066     13.9494     22.6822   2.5556457936e+02  -5.3233782334e+01   0.03497545    0.0223986 -73.72 0.0003760101    1.559    0.359
       217 -11.8333     26.6048     28.4499   2.5610259051e+02  -5.3612429937e+01   0.07439602   0.05830256 -36.98  0.002402377    1.311    0.237
       218 -10.0763     76.3450    239.7041   2.6893612478e+02  -5.2563908365e+01   0.04080536    0.0212511  34.07  0.001379564    1.861    0.463
       219 -12.5162    125.6437     27.6166   2.5784061907e+02  -5.7016416884e+01    0.0649594   0.04535199 -41.59  0.001106088    1.467    0.318
       220 -10.6175    230.2181     27.0971   2.6008744495e+02  -6.0583002299e+01   0.04190169   0.02936754 -86.38 0.0009371229    1.554    0.356
       221  -9.1864    200.3217     28.3027   2.5946827699e+02  -5.9556408152e+01   0.01945287   0.01311113  56.58 0.0006851262    1.632    0.387
       222  -9.1322    196.8427     28.6461   2.5941220122e+02  -5.9434390147e+01   0.02683877   0.01536026 -57.96 0.0005606959    1.669    0.401
       223 -10.2066    150.7196     27.1727   2.5831813776e+02  -5.7878859359e+01    0.0398356    0.0224919  55.49  0.001328166    2.022    0.506
       224 -10.8694    144.5142     25.6837   2.5809561407e+02  -5.7682615270e+01   0.06633725   0.02575264 -58.38  0.001980123    2.332    0.571
       225 -10.8030    148.0757     22.5809   2.5796895022e+02  -5.7837340564e+01    0.0489392   0.02852369  83.59   0.00145949    2.059    0.514
       226  -9.1379    206.7299     25.9627   2.5945732652e+02  -5.9800326913e+01   0.02300308   0.01581458  20.15 0.0003726599    1.446    0.308
       227 -10.3082    155.5282     24.5403   2.5824784489e+02  -5.8071406678e+01   0.04038977   0.02757012 -53.85 0.0007499699    1.430    0.301
       228 -10.1814    155.3279     21.3071   2.5803462034e+02  -5.8098958441e+01   0.04619865   0.02585635  57.47   0.00140869    2.078    0.519
       229  -9.2083     15.5109    233.9872   2.6710913378e+02  -5.0703688557e+01   0.02792319   0.01747248  27.15  0.001022932    1.575    0.365
       230  -8.8904    189.6722    229.7097   2.7164769529e+02  -5.6312480879e+01   0.01870813   0.01388715  67.61 0.0006906694    1.619    0.382
       231 -11.1548    135.5231     22.2087   2.5769374122e+02  -5.7411420158e+01   0.08261706   0.03697905 -73.01  0.002560515    2.239    0.553
       232  -8.7765     85.9704     23.7424   2.5685084852e+02  -5.5695963786e+01    0.0216482   0.01570724 -75.29 0.0002208401    1.387    0.279
       233  -9.4506    248.6771    223.6625   2.7322883910e+02  -5.8251866610e+01   0.01928543    0.0137626  65.02 0.0007050824    1.716    0.417
       234  -9.2215    120.7673    223.0196   2.6924635085e+02  -5.4243829184e+01   0.02494905   0.01516836  25.68 0.0008861917    1.659    0.397
       235 -10.1769     10.0000    218.0098   2.6616095810e+02  -5.0757960705e+01   0.02994437   0.01025494  23.67 0.0006597424    2.920    0.658
       236  -9.1541     44.5266    215.4864   2.6685414022e+02  -5.1910211916e+01   0.01786259   0.01772576 -18.23 0.0008099262    1.006    0.006
       237  -9.3482    164.5208    211.8975   2.6987957959e+02  -5.5816200192e+01   0.02695679   0.01791105  26.72 0.0006204405    1.513    0.339
       238 -10.6369      8.8452     19.8629   2.5532229493e+02  -5.3085181925e+01   0.03330517   0.03192775  12.34  0.001514359    1.042    0.040
       239  -8.9840    223.6669     22.2708   2.5959913231e+02  -6.0416464454e+01   0.01937502   0.01277843 -38.59 0.0003005829    1.592    0.372
       240 -10.6122    216.2586     20.3987   2.5929833340e+02  -6.0186198913e+01   0.04619348   0.03166137  60.13  0.001323805    1.625    0.385
       241 -10.8863    179.3622     20.4491   2.5848196821e+02  -5.8929457969e+01   0.08292238   0.04238829  73.32  0.002467708    2.699    0.629
       242 -10.8536      9.3936    211.2482   2.6579855758e+02  -5.0834552288e+01   0.03850882    0.0295576 -44.90  0.001569314    1.306    0.234
       243  -9.7506     40.0045    207.2074   2.6630861375e+02  -5.1884536188e+01   0.02831171   0.02034191 -15.81  0.001070805    1.628    0.386
       244  -9.7273     74.7586     19.3188   2.5638242814e+02  -5.5354794357e+01   0.03588121   0.02198602  32.32 0.0007591054    1.584    0.369
       245  -9.7192     46.5358     20.0294   2.5594161541e+02  -5.4377929980e+01    0.0370799   0.02283971 -53.18  0.001351423    1.586    0.369
       246  -9.5927     79.0751    204.9567   2.6715513155e+02  -5.3182686903e+01   0.04860973   0.02507857   5.37  0.001432567    2.755    0.637
       247 -11.0587      5.1792    201.9173   2.6521954811e+02  -5.0828613079e+01   0.09564236  0.001669936  34.01  0.001770831    6.200    0.839
       248  -9.5276     15.9609    190.2158   2.6485268320e+02  -5.1341912973e+01   0.03401209   0.02391284  -5.99  0.001280315    1.649    0.394
       249 -10.2251    211.0708     16.2267   2.5889513538e+02  -6.0056015412e+01   0.03129378   0.02600281   1.37 0.0002586226    1.243    0.195
       250  -9.2674    199.1761     17.5914   2.5872218023e+02  -5.9636120140e+01    0.0255085   0.01736273  88.06  0.000722109    1.635    0.388
       251 -12.3878      4.8788    183.5092   2.6425294206e+02  -5.1070901013e+01    0.1046051   0.07243816  10.33   0.00402282    1.539    0.350
       252  -9.3199     28.0027    175.9914   2.6437042664e+02  -5.1930749928e+01   0.02215147   0.02156932  11.26 0.0008913027    1.024    0.024
       253 -10.2596     16.0182    174.4469   2.6402031395e+02  -5.1558116173e+01   0.03629564   0.02570471  -5.89  0.001121858    1.618    0.382
       254 -10.6127    237.6428     16.4548   2.5952673129e+02  -6.0955559515e+01   0.04722471   0.02261803 -73.09  0.001499336    2.138    0.532
       255 -10.5929    186.4831     15.0670   2.5827676312e+02  -5.9230332464e+01   0.03360935   0.02871568 -63.87 0.0003734576    1.156    0.135
       256 -11.7596      9.1606    167.0481   2.6347712211e+02  -5.1430858284e+01    0.1155033   0.03954689 -56.15  0.003294101    2.614    0.617
       257  -9.7122    242.3224     15.3093   2.5955830629e+02  -6.1126895532e+01   0.01951712   0.01305384  56.12 0.0002877604    1.648    0.393
       258 -12.8418     13.4558    158.9857   2.6313941307e+02  -5.1678046980e+01    0.1238452   0.07029555  33.12  0.004400723    1.701    0.412
       259 -12.8049     22.8727    148.7138   2.6278764075e+02  -5.2122582391e+01   0.08213956   0.04391302  54.32   0.00161432    2.255    0.557
       260 -10.7726     16.7349    147.9846   2.6261730652e+02  -5.1928515338e+01   0.04101028   0.03326066  21.30 0.0006741823    1.227    0.185
       261 -10.5967     18.2472    165.5320   2.6359386610e+02  -5.1750192123e+01   0.05774001   0.02407852  33.32  0.001776275    2.238    0.553
       262 -10.5967    205.0258    163.4364   2.6824204630e+02  -5.7885400792e+01   0.03622506   0.02748119  26.54 0.0007777936    1.316    0.240
       263  -9.6943    215.0081    161.5112   2.6842384759e+02  -5.8236570073e+01   0.02509484   0.01555272  78.62 0.0004133332    2.319    0.569
       264 -10.1933     28.8933    160.6888   2.6356727047e+02  -5.2165316565e+01   0.03272891   0.02926031 -47.58  0.001236239    1.112    0.101
       265 -10.0375     31.5480    156.3687   2.6339167287e+02  -5.2309996411e+01   0.03612378   0.01840624  13.83  0.001151345    2.164    0.538
       266  -9.6280    104.4082    154.2029   2.6496997954e+02  -5.4743201679e+01   0.02623929   0.01760594   4.49 0.0009523855    1.697    0.411
       267 -10.2329     49.6758    146.2749   2.6323977591e+02  -5.3042568870e+01   0.03906695   0.02927108   1.81  0.001298493    1.447    0.309
       268 -10.8423     46.5201    145.9445   2.6315138850e+02  -5.2942298871e+01    0.1382917   0.04112433  27.87  0.003703741    2.957    0.662
       269 -10.6227      4.3673    153.5907   2.6265773068e+02  -5.1447228515e+01    0.0421124     0.020716 -60.41  0.001006299    1.925    0.481
       270  -9.1392     61.1934    152.3683   2.6383803219e+02  -5.3342919806e+01   0.02717714   0.01560224 -55.50 0.0009487196    1.675    0.403
       271  -9.0275     55.4813    152.5707   2.6371882530e+02  -5.3151403599e+01   0.01811649   0.01744084  62.82 0.0002397481    1.064    0.060
       272  -9.6855     29.4928    152.4981   2.6313630538e+02  -5.2292753989e+01   0.01790847   0.01778701  39.95 -4.363466e-05    1.017    0.017
       273 -11.9076      4.5366    143.0930   2.6209851514e+02  -5.1585794421e+01    0.1113611   0.05908836 -38.37  0.002750326    2.112    0.526
       274 -11.4903     12.2457    136.0757   2.6187830144e+02  -5.1929728365e+01   0.09437324   0.04726391  49.18  0.003000712    2.257    0.557
       275  -9.4984    104.1271    147.1227   2.6455767164e+02  -5.4832293968e+01   0.02689534   0.02329556  59.64  0.001143193    1.217    0.178
       276 -10.6736     33.0430    144.3647   2.6276947421e+02  -5.2515838176e+01   0.03622408   0.03550011 -17.39 0.0008072157    1.016    0.016
       277 -12.5476    104.6508     32.5797   2.5774101517e+02  -5.6245625667e+01   0.08939053   0.05600056  88.99            0    1.796    0.443
       278 -10.4324     40.8970    138.9398   2.6264108267e+02  -5.2846419060e+01   0.05338483   0.03770498  22.19  0.001748482    1.406    0.289
       279 -11.1796     80.4047    138.7406   2.6351513340e+02  -5.4160935749e+01   0.03453074   0.02965284 -51.33 0.0003229093    1.153    0.133
       280 -11.6657     22.5605    136.0728   2.6209251308e+02  -5.2273014384e+01   0.08774182   0.05571155 -46.84  0.002367552    1.583    0.368
       281 -11.0206     29.5505    132.6145   2.6204964493e+02  -5.2549171402e+01   0.06521817    0.0415194 -76.11  0.001652651    1.661    0.398
       282  -9.3929     32.0445    137.5039   2.6237148841e+02  -5.2570444072e+01   0.02722484   0.01795128 -69.58 0.0004492528    1.530    0.346
       283 -10.7045      9.9695    127.3701   2.6135845304e+02  -5.1961238083e+01   0.05872107   0.04266217  33.44  0.002338179    1.353    0.261
       284  -8.9168     26.5192    127.4967   2.6170440227e+02  -5.2511932903e+01   0.01790382   0.01779622  -7.89  8.26185e-06    1.004    0.004
       285  -9.9663      5.5660     22.4535   2.5541902828e+02  -5.2948421861e+01   0.03501863   0.02894026  87.61 0.0006022443    1.255    0.203
       286  -9.2672     22.9914    126.7305   2.6158924146e+02  -5.2403673354e+01   0.02474599   0.02279933 -71.97  0.000178791    1.094    0.086
       287  -9.7131     33.7640    125.9615   2.6177064353e+02  -5.2772779842e+01   0.02893435   0.02437399  53.55  0.001219559    1.235    0.191
       288  -9.7234      2.1446    125.7267   2.6111221838e+02  -5.1720045362e+01   0.03245786   0.02494271  -4.22  0.001301389    1.400    0.286
       289 -11.0786    104.4874    122.5452   2.6314297716e+02  -5.5175245152e+01    0.0459169   0.03812374 -46.65 0.0009322439    1.202    0.168
       290  -9.9698     55.9449    121.9198   2.6201597442e+02  -5.3564031556e+01   0.03377811   0.02396382 -55.88   0.00108093    1.377    0.274
       291  -9.2852     13.2447    122.5722   2.6116252042e+02  -5.2128999029e+01   0.02481854   0.01757858 -89.35 0.0009368498    1.576    0.365
       292  -9.6615     44.5409    120.0384   2.6166698642e+02  -5.3206354047e+01   0.03468915   0.02523836  -7.31 0.0006148205    1.532    0.347
       293  -9.9514     43.1764    115.9831   2.6141089010e+02  -5.3210704613e+01   0.03439859   0.02901255 -46.10 0.0005661913    1.185    0.156
       294  -9.9317    244.3315    117.3251   2.6652078111e+02  -5.9859311675e+01    0.0196171   0.01341675  60.28 0.0007050772    1.706    0.414
       295  -9.6257     79.0325    115.1763   2.6213571612e+02  -5.4420748652e+01   0.02812728     0.024307  64.65 0.0008434179    1.224    0.183
       296 -11.0288     17.2403    100.7274   2.6003666199e+02  -5.2522270337e+01   0.05384205   0.03438687 -49.96 0.0004660886    1.549    0.354
       297 -11.5592     22.0021     93.5293   2.5972730374e+02  -5.2765688528e+01    0.1097365   0.05778168 -40.36  0.002548052    2.060    0.515
