#   1 NUMBER                 Running object number                                     
#   2 MAG_AUTO               Kron-like elliptical aperture magnitude                    [mag]
#   3 X_IMAGE                Object position along x                                    [pixel]
#   4 Y_IMAGE                Object position along y                                    [pixel]
#   5 X_WORLD                Barycenter position along world x axis                     [deg]
#   6 Y_WORLD                Barycenter position along world y axis                     [deg]
#   7 A_WORLD                Profile RMS along major axis (world units)                 [deg]
#   8 B_WORLD                Profile RMS along minor axis (world units)                 [deg]
#   9 THETA_WORLD            Position angle (CCW/world-x)                               [deg]
#  10 FWHM_WORLD             FWHM assuming a gaussian core                              [deg]
#  11 ELONGATION             A_IMAGE/B_IMAGE                                           
#  12 ELLIPTICITY            1 - B_IMAGE/A_IMAGE                                       
         1 -15.5455     72.3094    193.3395   2.9207945736e+02   5.1224657769e+00    0.1447822    0.1006599  46.52   0.01535519    1.515    0.340
         2 -16.1938    138.9327    110.8706   2.9081034747e+02   5.6954931551e+00    0.1990441    0.1328326  74.70   0.01937709    2.015    0.504
         3 -15.0712    139.4566     70.8589   2.9056429817e+02   6.1570237342e+00    0.1083794   0.07812028 -19.48   0.01139085    1.653    0.395
         4 -13.8014     50.3562     99.0867   2.9177242374e+02   6.3446753658e+00   0.08007969   0.05503107 -50.33  0.008529061    1.427    0.299
         5 -15.3131     21.9331     79.7688   2.9198857400e+02   6.7329836772e+00    0.1469402    0.1051803 -64.21   0.01592694    1.401    0.286
         6 -13.2730     84.2522     49.8275   2.9108191565e+02   6.7208747964e+00   0.06208346   0.03781639 -77.46  0.005923583    1.963    0.491
         7 -15.0022     65.3666     44.9356   2.9127299540e+02   6.8868353163e+00    0.1239549   0.09886121  40.51     0.014197    1.270    0.213
         8 -12.1724    122.9925     40.7483   2.9057549659e+02   6.6019068048e+00   0.01684343   0.01584896 -27.77  0.002085816    1.072    0.067
         9 -11.8596    171.6924     45.1675   2.9003439068e+02   6.2680182563e+00   0.01496725   0.01399577  -1.60  0.001844433    1.095    0.087
        10 -10.1807    167.0051    220.3194   2.9113854913e+02   4.2613068685e+00   0.01257447  0.009388712  74.91  0.001330237    1.627    0.385
        11 -10.8033    140.2806    216.3552   2.9142567692e+02   4.4620711961e+00   0.01578103   0.01277689 -40.14  0.001579472    1.256    0.204
        12 -11.0316    177.7639    216.3522   2.9098975236e+02   4.2450828226e+00   0.01795868   0.01556646  34.34  0.002135174    1.158    0.136
        13 -10.4758    110.1543    215.8844   2.9177337869e+02   4.6417726585e+00   0.01214907  0.009460552 -79.35  0.001342524    1.402    0.287
        14 -11.0174    108.0229    211.2418   2.9177048347e+02   4.7080569093e+00   0.02835588   0.01070456 -48.63   0.00222631    2.621    0.618
        15 -12.5137    152.1773    210.7934   2.9125407527e+02   4.4578487873e+00   0.04014243   0.02572399  43.19  0.004094461    1.611    0.379
        16 -11.8297    145.1864    208.6968   2.9132286976e+02   4.5226794230e+00   0.02726918   0.02123078 -71.00  0.002929791    1.334    0.250
        17 -11.7748    123.1371    207.1110   2.9156994035e+02   4.6686845213e+00   0.01901467   0.01062227 -44.01   0.00178752    1.863    0.463
        18 -12.9951    122.6383    237.9349   2.9175966305e+02   4.3133088215e+00    0.0337686   0.02300767  23.53  0.003558963    1.499    0.333
        19 -10.2100    119.1191    200.8726   2.9157945259e+02   4.7644304288e+00   0.01302352  0.008810748 -55.52  0.001364288    1.436    0.304
        20 -11.6463    189.1582    198.0274   2.9074769923e+02   4.3919293862e+00   0.01528669   0.01238154  77.72   0.00172025    1.418    0.295
        21 -10.1287    152.9539    199.0350   2.9117477820e+02   4.5899863704e+00   0.01130415  0.007714221 -27.96  0.001138443    1.718    0.418
        22 -10.2739     21.7351    206.5949   2.9274741426e+02   5.2599007348e+00   0.01165673   0.00839125  81.39  0.001196466    1.735    0.424
        23 -10.9573    113.6009    192.5883   2.9159421311e+02   4.8926313359e+00   0.02419877   0.01259224 -78.38  0.002010436    2.607    0.616
        24 -12.2871    193.3973    191.2876   2.9065808628e+02   4.4456392380e+00   0.02834079   0.01856836  21.02  0.002911448    1.594    0.372
        25 -12.9052    206.3737    185.2971   2.9047137276e+02   4.4399528607e+00   0.04872977   0.03041624  -0.13  0.004556744    2.140    0.533
        26 -11.2783    140.0272    188.8186   2.9126412033e+02   4.7835455785e+00   0.02815678   0.01496195 -65.33  0.002599653    1.930    0.482
        27 -11.1584    144.7987    192.4044   2.9123002873e+02   4.7142527622e+00   0.01426839   0.01193786  15.23  0.001656709    1.237    0.191
        28 -11.3224    144.7105    188.6977   2.9120889939e+02   4.7578381432e+00   0.01775614   0.01110173  47.86   0.00175836    1.735    0.424
        29  -9.8242    131.2562    193.5722   2.9139459809e+02   4.7790660628e+00  0.009078862  0.006495357  10.19 0.0009454163    1.558    0.358
        30 -11.7701     37.1077    189.3559   2.9246571914e+02   5.3718118496e+00   0.02922536   0.01413619 -62.69  0.002600693    2.049    0.512
        31 -13.8373     94.6814    191.0951   2.9180555894e+02   5.0193520851e+00   0.07132737   0.05133312  70.75  0.007433744    1.717    0.418
        32 -12.9178      8.4979    187.3461   2.9278706235e+02   5.5599290614e+00   0.04212232   0.02704335   0.85  0.004058755    1.999    0.500
        33  -9.2290    154.3030    190.3245   2.9110701235e+02   4.6833872492e+00  0.007010063  0.004888138 -29.62 0.0007031095    1.639    0.390
        34 -10.6881    122.6193    187.6123   2.9145951450e+02   4.8983043976e+00   0.01810763   0.01293758  72.67  0.001863125    1.752    0.429
        35 -10.5933    121.1850    181.6585   2.9144063763e+02   4.9757983426e+00   0.01597921   0.01389437 -37.93  0.001709821    1.164    0.141
        36 -12.8907    167.5530    179.7946   2.9088988362e+02   4.7289682280e+00   0.03452156   0.03315029 -89.81  0.004328276    1.074    0.069
        37 -10.7581    130.2832    184.5572   2.9135205350e+02   4.8894666221e+00   0.01871446   0.01360248  37.67  0.002038242    1.378    0.274
        38 -10.7641    152.3781    184.1601   2.9109254918e+02   4.7661626836e+00   0.01477555   0.01014384 -18.57  0.001480359    1.810    0.448
        39 -11.5498    197.1181    182.3611   2.9056139651e+02   4.5277423570e+00   0.01694929       0.0136 -62.46  0.001935902    1.240    0.193
        40 -10.8566    193.2806    178.7030   2.9058411709e+02   4.5924888304e+00   0.01832139   0.01050887  65.51    0.0015534    2.619    0.618
        41 -10.7642    103.3792    183.2433   2.9165740816e+02   5.0603515776e+00   0.01342507   0.01219147 -51.28  0.001628788    1.086    0.079
        42 -12.6498     19.2185    178.1785   2.9260756218e+02   5.6048253906e+00   0.03254399   0.01636042 -60.42  0.002973889    1.927    0.481
        43 -10.4757    131.3639    178.7201   2.9130458696e+02   4.9510474737e+00   0.01883089  0.009360252 -38.21  0.001585953    2.417    0.586
        44 -10.0744     26.2923    180.6458   2.9253983335e+02   5.5354004030e+00  0.006955808  0.005008816  66.65 0.0004993585    1.683    0.406
        45 -10.6626    182.1033    175.1824   2.9069302903e+02   4.6982021091e+00   0.02245673    0.0097334 -68.36   0.00179983    2.606    0.616
        46 -11.4900     99.8540    175.1447   2.9165008945e+02   5.1748638678e+00   0.02549237   0.01249231  50.79  0.002124419    2.531    0.605
        47 -11.8288    195.7690    172.9933   2.9052099300e+02   4.6443716727e+00   0.01739007   0.01523086 -51.04  0.001916571    1.125    0.111
        48 -11.5458    107.6327    170.2497   2.9153025957e+02   5.1867843436e+00    0.0252515   0.01021777  18.84  0.001886229    3.081    0.675
        49 -12.6567    178.3181    200.2099   2.9088679598e+02   4.4294047767e+00   0.04215472   0.02245265  15.47  0.003738842    2.234    0.552
        50 -11.4813     27.0982    169.3927   2.9246338797e+02   5.6616018188e+00   0.01829718   0.01488372 -46.14  0.002107172    1.221    0.181
        51 -11.0951    141.7514    169.2518   2.9112705971e+02   5.0009357310e+00    0.0163736    0.0131645  44.37  0.001465563    1.277    0.217
        52 -10.8222    215.5048    168.1702   2.9026264862e+02   4.5858547476e+00   0.01759019   0.01216678  81.47  0.001755392    1.880    0.468
        53 -11.5934    162.4397    165.0857   2.9086135617e+02   4.9294860325e+00   0.02013071   0.01353834  76.44  0.001961505    1.990    0.497
        54 -11.4191    149.3119    166.7973   2.9102437660e+02   4.9856655867e+00   0.03158179   0.01475155  38.38  0.002780172    2.111    0.526
        55 -12.3060    151.2157    160.6508   2.9096543883e+02   5.0460499983e+00   0.03391817    0.0256989 -12.73  0.003680004    1.539    0.350
        56 -11.1402    191.6190    207.8841   2.9077805087e+02   4.2631681257e+00   0.01791785   0.01189738 -83.79  0.001771847    1.850    0.459
        57 -11.7500     49.2318    166.1648   2.9218620578e+02   5.5715549471e+00   0.03091712   0.01367852 -56.01  0.002678219    2.120    0.528
        58 -11.1495    180.4194    159.8929   2.9062107124e+02   4.8855648110e+00   0.02061646   0.01027655  25.23  0.001847507    2.049    0.512
        59 -11.0339    175.5366    167.5035   2.9072344584e+02   4.8254773112e+00   0.02241938   0.01496419  36.53  0.002346233    1.490    0.329
        60 -11.3245    176.1210    162.7053   2.9068791913e+02   4.8778244939e+00   0.02049296   0.01770478  84.66   0.00241257    1.270    0.213
        61 -11.0045    125.9226    167.1839   2.9129896385e+02   5.1166024601e+00   0.01692838   0.01463146   6.46  0.001645417    1.215    0.177
        62 -11.8762    180.4521    206.4889   2.9089953118e+02   4.3440941618e+00   0.03054818   0.01271799 -48.23  0.002514537    2.393    0.582
        63 -13.3215    199.2054    160.1823   2.9040429795e+02   4.7732171158e+00   0.03676337   0.03454511  46.34  0.004562159    1.087    0.080
        64 -10.8986     89.3462    163.6151   2.9170360558e+02   5.3696092005e+00   0.01992194   0.01262663  51.96  0.001967016    1.791    0.442
        65 -11.3910    209.7353    163.1717   2.9029977080e+02   4.6773879389e+00   0.01662889   0.01438293 -20.38   0.00175136    1.227    0.185
        66 -11.8726     58.5648    160.6460   2.9204451546e+02   5.5818725885e+00   0.02405971   0.02116351  63.22  0.002872118    1.219    0.180
        67 -11.9639    102.6307    157.4997   2.9151231597e+02   5.3638939868e+00   0.03408501   0.01093628 -53.34  0.002559135    2.820    0.645
        68 -10.4739     91.7248    158.0363   2.9164256545e+02   5.4207059627e+00   0.01597286   0.00977123  27.39  0.001592705    1.634    0.388
        69  -9.9265     90.4880    154.4917   2.9163579362e+02   5.4690518313e+00   0.01131413  0.009106351 -76.49  0.001276229    1.321    0.243
        70 -13.1051     20.0949    154.3132   2.9245512732e+02   5.8772596095e+00    0.0360651   0.03158222  65.92  0.004298868    1.234    0.190
        71 -12.6342     12.6018    145.5577   2.9249028597e+02   6.0221908188e+00   0.03299763   0.02457756  19.58  0.003632531    1.391    0.281
        72 -11.4521    232.5034    152.4789   2.8997102043e+02   4.6693174665e+00   0.03020421   0.01601992 -81.11  0.002487499    2.712    0.631
        73 -12.6120    187.5224    153.5552   2.9050047813e+02   4.9179726183e+00   0.02437131    0.0175559  63.28  0.002558528    1.651    0.394
        74 -10.7389    222.3002    161.3877   2.9014301558e+02   4.6251541374e+00   0.01870625  0.009643572  51.82  0.001598882    2.404    0.584
        75 -12.9948    116.1529    145.6925   2.9128420228e+02   5.4228836951e+00   0.04646547   0.03420022 -79.31  0.005007556    1.517    0.341
        76 -12.8517    106.0105    143.6662   2.9139023121e+02   5.5051101030e+00    0.0475895    0.0302137 -59.83   0.00487216    1.540    0.351
        77 -11.5670    179.0181    152.9864   2.9059600779e+02   4.9739117925e+00   0.01575585   0.01136513 -62.00  0.001704339    1.375    0.273
        78 -10.8653    173.7954    153.9065   2.9066228659e+02   4.9935145687e+00   0.01760462  0.008234899  28.08  0.001540718    2.113    0.527
        79 -10.4123    213.8488    152.7485   2.9018947807e+02   4.7745352196e+00   0.01342707  0.008671636  78.97  0.001247706    2.177    0.541
        80 -11.9498    200.3280    150.6499   2.9033412242e+02   4.8773987722e+00   0.01777788   0.01231974  56.17  0.001836779    1.656    0.396
        81 -11.1898    126.6242    150.4210   2.9119053417e+02   5.3073315929e+00   0.01724095    0.0154564 -47.97  0.002083838    1.102    0.092
        82 -11.1816      2.9872    151.5135   2.9263789196e+02   6.0082789792e+00   0.01457886   0.01080834 -13.92  0.001549345    1.594    0.373
        83  -9.9747     60.9809    150.5008   2.9195579234e+02   5.6858619634e+00   0.01041117  0.006446194  28.44  0.001035416    1.607    0.378
        84 -10.6079    161.7742    148.0010   2.9076681623e+02   5.1318136170e+00   0.01531635   0.01218343  89.80  0.001682683    1.432    0.302
        85 -11.4092    138.5479    145.2237   2.9102058133e+02   5.2986706166e+00   0.03244224   0.01944132 -47.82  0.003210972    1.659    0.397
        86 -10.2655     80.8959    145.3909   2.9169317274e+02   5.6302555732e+00   0.01731403  0.008473524  64.08  0.001172333    4.100    0.756
        87 -11.1132      3.5177    145.2281   2.9259424579e+02   6.0782997890e+00   0.01351624   0.01030335  59.23  0.001084575    1.476    0.323
        88 -11.8192    198.5809    142.8345   2.9030759772e+02   4.9782930801e+00   0.01973252   0.01281728 -68.65  0.002006854    1.612    0.380
        89 -10.2868     53.7566    143.2876   2.9199692413e+02   5.8113961165e+00   0.01180587  0.009804945 -57.86  0.001366752    1.185    0.156
        90 -11.0088    218.1276    205.3309   2.9045469739e+02   4.1391102785e+00    0.0160757   0.01366199  29.43  0.001890749    1.179    0.152
        91 -10.2667     28.6871    140.1107   2.9227023662e+02   5.9928723935e+00   0.01206451  0.008982778  41.14  0.001319766    1.364    0.267
        92 -10.8742    205.0574    139.3618   2.9021145177e+02   4.9810133381e+00   0.01395034  0.007632334  41.58  0.001303441    1.869    0.465
        93 -12.7179    152.8675     89.8604   2.9052204322e+02   5.8586646659e+00   0.04075896   0.02852863  62.81  0.004202975    1.725    0.420
        94 -10.5361    168.0435    236.9670   2.9122591328e+02   4.0618735615e+00   0.01430292  0.009518454  25.72  0.001482478    1.516    0.340
        95 -10.1953     88.3163    133.8343   2.9153760999e+02   5.7216783083e+00   0.01333506   0.00843466 -14.90  0.001232106    2.163    0.538
        96 -10.7864    196.2197    132.5031   2.9027312425e+02   5.1119628935e+00   0.01272943   0.00935896 -62.60  0.001048752    1.353    0.261
        97 -10.7142    112.0730    130.9356   2.9124343597e+02   5.6179596104e+00   0.01655791   0.01505144  59.07  0.002009338    1.156    0.135
        98 -10.5811     44.2047    131.4048   2.9203732329e+02   6.0046125717e+00    0.0144966   0.01173762  41.61  0.001593646    1.256    0.204
        99 -10.3163     60.2695    130.1024   2.9184223238e+02   5.9270579211e+00   0.01608734  0.008132142 -32.74  0.001298965    2.713    0.631
       100 -11.1004    144.4962    235.5155   2.9149102419e+02   4.2150168752e+00   0.01226852   0.01185264  11.48  0.001533474    1.042    0.040
       101 -10.7698    245.4747    128.5530   2.8967674223e+02   4.8716217243e+00   0.01463775    0.0119456  60.75  0.001665541    1.349    0.259
       102 -10.5460    117.2020    127.0691   2.9116053452e+02   5.6331966052e+00   0.02299853   0.01132828 -71.31  0.001953224    2.373    0.579
       103 -10.6797    233.6129    127.6935   2.8980944121e+02   4.9505589757e+00   0.01721754   0.01073619  53.98  0.001666803    1.881    0.468
       104 -10.6083    221.8246    125.6870   2.8993444612e+02   5.0423628366e+00   0.02077639  0.009203685 -40.20  0.001639946    2.727    0.633
       105 -11.0526    210.4992    124.1120   2.9005669929e+02   5.1264509201e+00     0.021681   0.01407378  73.93  0.002047291    2.133    0.531
       106 -14.1372    185.0807    111.8615   2.9027894132e+02   5.4162911588e+00   0.07144085   0.05889815 -44.13   0.00830754    1.213    0.175
       107 -12.5148    100.1669    117.1615   2.9129974070e+02   5.8468778381e+00   0.03700723   0.02607242   8.52  0.003881801    1.612    0.380
       108 -11.3093     65.8677    117.6702   2.9170264450e+02   6.0392098171e+00   0.02240987   0.01355275 -57.98   0.00223855    1.601    0.375
       109 -12.1559      7.3249    118.2726   2.9238906738e+02   6.3697235456e+00   0.03023276   0.01519069  38.57  0.002757156    1.975    0.494
       110 -11.5428    171.1418    116.3515   2.9046811784e+02   5.4450624977e+00   0.02155237   0.01264011   9.75  0.001979819    2.126    0.530
       111 -10.7313    236.9023    117.8337   2.8971202571e+02   5.0458595227e+00   0.01073466  0.009141122 -20.92  0.001246159    1.257    0.204
       112 -10.8307     86.7831    117.1433   2.9145563922e+02   5.9244864205e+00   0.01426636  0.009792861 -63.48 0.0009668338    1.455    0.313
       113 -14.0794     47.8475     83.1970   2.9170663422e+02   6.5437376196e+00    0.0690069   0.06130617 -77.96  0.008317596    1.172    0.147
       114 -10.8370    114.4074    233.2974   2.9182775248e+02   4.4147870424e+00   0.01649116  0.007571688 -56.23  0.001442664    2.053    0.513
       115 -14.0784     36.9257    110.1634   2.9199531917e+02   6.2934440178e+00   0.08674999   0.06616053  41.80  0.009704949    1.335    0.251
       116 -11.3822     73.0236    230.2722   2.9229124950e+02   4.6889511237e+00   0.02233862  0.009749143 -64.66  0.001860973    2.351    0.575
       117 -11.3964    219.6748    110.3392   2.8986733404e+02   5.2329902052e+00   0.01975101   0.01003813 -49.08  0.001798546    1.936    0.484
       118 -11.2362     71.4618    133.9573   2.9173479407e+02   5.8176337627e+00   0.02067264    0.0164726  16.32  0.002348239    1.306    0.234
       119 -11.0355     85.2834    109.4324   2.9142698106e+02   6.0227422316e+00     0.020116   0.01619503 -59.09  0.002307848    1.224    0.183
       120 -12.1451     63.3156    109.0313   2.9168074178e+02   6.1543255730e+00   0.04073777   0.01993966  37.78   0.00367834    2.011    0.503
       121 -10.4081     68.3927    105.2558   2.9159894693e+02   6.1688708873e+00   0.01270897   0.01110319 -84.13  0.001139407    1.220    0.180
       122 -10.3969    106.4166    109.7617   2.9118259598e+02   5.8966822622e+00   0.01317271   0.01105014 -15.33  0.001376698    1.296    0.229
       123 -11.5832    238.9895    103.5478   2.8960198362e+02   5.1994821305e+00   0.02715865   0.01707191  33.28  0.002768073    1.568    0.362
       124 -10.8522    107.6250    103.2274   2.9112937765e+02   5.9655913218e+00   0.01430714  0.009872144 -15.94  0.001435678    1.810    0.447
       125 -11.0210    224.9335    102.8291   2.8976109085e+02   5.2895683727e+00   0.01625432  0.008276066  34.68   0.00149066    1.908    0.476
       126 -12.0364    169.0688     98.2830   2.9038388225e+02   5.6668785123e+00    0.0227577   0.01936654  36.36  0.002685431    1.181    0.153
       127 -12.9442    210.7860     96.2749   2.8988628742e+02   5.4478747118e+00   0.04098832   0.02622268  40.24  0.004198531    1.579    0.366
       128 -10.5381     76.9287     94.8302   2.9143700187e+02   6.2406661905e+00   0.01473336  0.009921672 -68.70  0.001523894    1.547    0.354
       129 -11.8352     94.8356     88.0671   2.9118766995e+02   6.2156760353e+00   0.02952622   0.01788989 -62.95  0.002938627    1.644    0.392
       130 -13.7738    105.1101     82.3925   2.9103385928e+02   6.2221185080e+00   0.06978697     0.052129 -33.69  0.007634893    1.440    0.306
       131 -13.7922    100.8461     70.6195   2.9101301003e+02   6.3834970924e+00   0.06069461   0.04347351  24.22  0.006577214    1.416    0.294
       132 -11.4595    195.5381     92.8742   2.9004328929e+02   5.5759531024e+00   0.02335968   0.01499477 -88.40   0.00222099    2.063    0.515
       133 -10.8120    198.5555    121.9950   2.9018293110e+02   5.2204006191e+00   0.01817327   0.01068449 -45.15  0.001762709    1.736    0.424
       134 -10.6599    202.8448     84.2113   2.8990624016e+02   5.6340201548e+00    0.0162695   0.01291661  12.44  0.001835366    1.337    0.252
       135 -10.1919    246.3174    113.3300   2.8957555831e+02   5.0433602666e+00  0.007095298  0.004886359 -28.82 0.0007046833    1.684    0.406
       136 -10.9338    198.2889     79.4853   2.8993087687e+02   5.7153381695e+00   0.01458446   0.01165075  32.04  0.001661927    1.250    0.200
       137 -10.2130    186.9832     80.2698   2.9006718768e+02   5.7719321210e+00  0.009551576   0.00902622  13.78  0.001174283    1.069    0.065
       138 -10.8006    246.9866     77.2134   2.8935079135e+02   5.4584058265e+00   0.01055154  0.006859143 -39.96 0.0007367008    1.636    0.389
       139 -11.0448    202.2387     74.5878   2.8985548911e+02   5.7492007218e+00   0.01961601  0.009976199  21.47  0.001744148    2.125    0.529
       140 -11.7924     61.8524     72.6423   2.9148002757e+02   6.5854689135e+00   0.02074959   0.01058181  29.33  0.001905561    1.925    0.481
       141 -10.0865    216.3034     72.3476   2.8967836896e+02   5.6933993399e+00  0.007129254  0.004843312 -30.60 0.0007040425    1.693    0.409
       142 -11.0084    234.0022     69.0062   2.8945242004e+02   5.6291682323e+00   0.01137368  0.007836848  62.71  0.001144461    1.769    0.435
       143 -11.4890     81.4522     86.5611   2.9133473020e+02   6.3105654476e+00   0.03297766   0.01994479 -11.16  0.002929575    2.416    0.586
       144 -10.9433    201.5609     66.7266   2.8981614525e+02   5.8443402118e+00   0.01330679  0.005968129 -57.42  0.001144695    2.105    0.525
       145 -12.7853    171.7131     63.4794   2.9014416779e+02   6.0554642348e+00   0.04714828   0.02269722  37.51   0.00422802    2.037    0.509
       146 -11.4916    222.3507     63.6450   2.8955571184e+02   5.7591530342e+00   0.01688077  0.009250264 -22.28  0.001356246    2.890    0.654
       147 -12.3335    206.7770    229.2957   2.9072992919e+02   3.9266107792e+00   0.02578042   0.01798532 -37.71  0.002716755    1.528    0.346
       148 -12.3945     12.9541    228.3509   2.9297902965e+02   5.0574415970e+00   0.03421856   0.02575716  33.16  0.003811086    1.323    0.244
       149 -10.5689     52.7867    133.7956   2.9195154084e+02   5.9273187767e+00   0.01654397   0.01097385 -60.87  0.001719714    1.483    0.326
       150 -10.8849    188.4939    222.2341   2.9090017774e+02   4.1145868449e+00   0.01303745  0.009442863  27.67  0.001410355    1.382    0.277
       151 -12.4153    129.3645     55.8936   2.9059212124e+02   6.3892283958e+00   0.02488139   0.01821841  -8.98  0.002630572    1.635    0.388
       152 -11.0961    184.3980    132.7997   2.9041244486e+02   5.1771395868e+00   0.02264425    0.0130002 -52.06   0.00220379    1.686    0.407
       153 -10.9150    233.1631     55.8170   2.8938287680e+02   5.7869901440e+00  0.009752603  0.007814115 -28.45  0.001091053    1.345    0.257
       154 -12.5711      6.2443     49.9412   2.9199334532e+02   7.1697200755e+00   0.05158202   0.02956401 -26.41  0.004538682    2.394    0.582
       155 -12.1029    189.2918    131.0164   2.9034481160e+02   5.1694431962e+00   0.02135006   0.01972283  89.37  0.002616492    1.139    0.122
       156 -10.5759    113.2044     42.4639   2.9069995852e+02   6.6387257636e+00    0.0131047  0.009423929 -61.25  0.001412995    1.375    0.273
       157 -11.8258    249.6166     46.3072   2.8913435243e+02   5.8013981679e+00   0.02975354  0.008969705 -66.68  0.001915852    4.014    0.751
