#   1 NUMBER                 Running object number                                     
#   2 MAG_AUTO               Kron-like elliptical aperture magnitude                    [mag]
#   3 X_IMAGE                Object position along x                                    [pixel]
#   4 Y_IMAGE                Object position along y                                    [pixel]
#   5 X_WORLD                Barycenter position along world x axis                     [deg]
#   6 Y_WORLD                Barycenter position along world y axis                     [deg]
#   7 A_WORLD                Profile RMS along major axis (world units)                 [deg]
#   8 B_WORLD                Profile RMS along minor axis (world units)                 [deg]
#   9 THETA_WORLD            Position angle (CCW/world-x)                               [deg]
#  10 FWHM_WORLD             FWHM assuming a gaussian core                              [deg]
#  11 ELONGATION             A_IMAGE/B_IMAGE                                           
#  12 ELLIPTICITY            1 - B_IMAGE/A_IMAGE                                       
         1 -12.6654    219.2993     76.2790   7.5600947147e+01   2.0355576568e+01     2.932494     0.335214 -41.50  0.006942149    6.136    0.837
         2 -17.3266    238.6564     22.4928   6.1031684983e+01   2.3715277979e+01      4.54045     2.354887 -41.55   0.02378985    1.816    0.449
         3 -12.0112    122.8272     35.3246   8.2131074369e+01   4.9710757692e+01     1.383321    0.8402955 -59.06  0.001092581    2.582    0.613
         4  -8.8817    167.2183     16.1144   6.7895619618e+01   4.1419962967e+01     0.305303    0.2161131 -46.30 0.0009429021    1.536    0.349
         5 -10.5283    136.5672     16.6285   7.3158101118e+01   4.8674082907e+01     0.370188    0.3005682  36.05  0.002245495    1.215    0.177
         6  -9.0555    176.7803     14.8165   6.6194839977e+01   3.9232562452e+01    0.2217255    0.1867359 -88.36 0.0003711677    1.109    0.098
         7  -8.2468    171.2116     10.2456   6.5732945738e+01   4.1043291456e+01    0.2165419     0.175365 -42.71 0.0007237577    1.368    0.269
         8 -10.4801    133.8664      8.0800   7.0958662713e+01   5.0095701975e+01     0.433946    0.2561057 -20.32   0.00231773    1.981    0.495
         9  -9.0908    151.6124      9.6131   6.8428207016e+01   4.5807004993e+01    0.2366342    0.1914218  40.28 0.0006566203    1.267    0.211
        10  -8.1258    179.4314      8.8800   6.4296543670e+01   3.9191884652e+01    0.2189248    0.1652563 -71.59 0.0005866339    1.341    0.254
        11 -10.3216    140.3772      7.0389   6.9495728960e+01   4.8681507512e+01    0.3099489    0.2740295  36.97 0.0003134116    1.158    0.137
        12  -8.8833    165.5966      7.6353   6.5796957222e+01   4.2645933644e+01    0.2905925     0.258182  84.90 0.0009337794    1.077    0.071
        13  -9.7004    160.0127      4.1565   6.5616806598e+01   4.4298720882e+01    0.3292465    0.2506948 -52.17  0.001218033    1.461    0.315
        14  -9.8730    175.6278      3.0650   6.3265611097e+01   4.0658725228e+01    0.3103415    0.2315338 -23.58  0.001873288    1.636    0.389
        15  -9.6482    147.0744      3.5092   6.7345896752e+01   4.7418313771e+01    0.3413529     0.243517 -54.71  0.001986539    1.644    0.392
        16  -8.5992     14.9429      5.1085   1.0650402019e+02   7.0788226933e+01    0.1492559    0.1224199 -10.07  0.000568539    1.301    0.231
        17  -8.2806    153.8409      3.7113   6.6380075980e+01   4.5804889814e+01    0.2484901     0.141447 -55.21  0.001240322    2.171    0.539
        18  -7.3608    189.5426      2.6948   6.1547992016e+01   3.7363021829e+01     0.162001    0.1097444 -50.46  0.000932221    1.528    0.346
        19  -9.1548    180.9213      2.2278   6.2414273885e+01   3.9467345938e+01    0.2028124    0.1813227 -84.78 0.0003567567    1.108    0.098
        20  -9.3329    126.0528      2.4942   7.0593038384e+01   5.2336722173e+01    0.3189248    0.1243927  49.21  0.001453351    2.093    0.522
        21  -9.3282    231.1879    117.0257   8.3318251235e+01   1.0443960237e+01    0.3323887    0.1772214 -50.40   0.00108815    1.886    0.470
        22  -9.4644    226.8896    118.1482   8.4298861660e+01   1.1166773397e+01    0.3495638    0.1991312 -39.62 0.0009463481    1.640    0.390
        23  -9.3748    214.4749    117.5550   8.6332966902e+01   1.4028213618e+01    0.3163804    0.2592261  29.12 0.0005890923    1.448    0.310
        24 -10.1195    221.4169    112.4461   8.3900209357e+01   1.3433885632e+01    0.4592581    0.3872707  28.74  0.002404699    1.417    0.294
        25  -9.1353    226.2775    111.9622   8.2962766273e+01   1.2444889875e+01    0.3422626    0.2655027  17.41  0.000865164    1.781    0.439
        26  -8.3111    226.9135    107.0314   8.1704944578e+01   1.3207718056e+01    0.2235698     0.206386 -51.47 0.0004964375    1.028    0.027
        27  -8.1818    217.4366    105.7696   8.2996847468e+01   1.5572803414e+01    0.2940761    0.1344629 -42.97  0.001138054    2.042    0.510
        28  -7.9915    197.0777    104.9942   8.6489553229e+01   2.0463278833e+01    0.2295363    0.2222441 -56.72  0.000434704    1.044    0.043
        29  -8.1074    226.5116     99.2752   7.9950725415e+01   1.4699664930e+01    0.2710698    0.1927497 -58.66 0.0008153342    1.420    0.296
        30  -8.3782    210.7933    100.1491   8.2787384407e+01   1.8146014001e+01    0.1954475    0.1785846  14.91 0.0003884596    1.312    0.238
        31  -7.1374    200.3045    100.3281   8.4715613783e+01   2.0584022880e+01    0.1504669    0.1227825   9.68 0.0007035198    1.650    0.394
        32  -7.1327    185.6432    100.2730   8.7516904925e+01   2.4103939840e+01     0.159044     0.119563 -84.26 0.0002567792    1.646    0.393
        33  -8.5320    230.4572     97.0202   7.8801690930e+01   1.4217698428e+01     0.304045    0.2072191 -44.46  0.001020353    1.347    0.258
        34  -8.9019    230.6308     92.8655   7.7807487485e+01   1.4909557571e+01    0.2950562    0.2569957  47.81 0.0005340255    1.304    0.233
        35  -7.1957     96.2530     95.3528   1.0821905203e+02   4.4822465817e+01    0.1468564     0.108409 -20.65 0.0004627822    1.600    0.375
        36  -8.8271    210.1396     92.4624   8.1014977668e+01   1.9702439674e+01    0.3118035     0.257347 -28.49  0.001043473    1.334    0.250
        37  -9.1991    188.7780     91.4425   8.4617160371e+01   2.5014257530e+01    0.5257932    0.2675294 -52.81  0.001382259    2.205    0.547
        38  -8.1845    171.4449     88.6918   8.7351387212e+01   2.9743493706e+01    0.2736098    0.1849592  34.78  0.001179506    1.786    0.440
        39  -8.1114    165.8207     87.4367   8.8198862116e+01   3.1342183875e+01    0.2366432    0.1961903 -28.65 0.0009506852    1.309    0.236
        40  -7.6072    107.2800     87.9667   1.0295045532e+02   4.4292463274e+01    0.2284867    0.1118906 -61.66 0.0006981798    3.950    0.747
        41 -10.0641    206.6610     84.2030   7.9558468284e+01   2.1999070705e+01    0.2852108    0.2521425 -55.01 0.0003431957    1.080    0.074
        42  -8.7331    156.6323     81.1972   8.8464441903e+01   3.4710031299e+01    0.3421036    0.2292064 -52.35 0.0009228044    1.608    0.378
        43  -9.0025    174.9952     79.3159   8.4081105520e+01   3.0582880321e+01     0.267705    0.2449786  71.84 0.0009652385    1.063    0.059
        44  -8.0952     61.8141     78.8413   1.1431663454e+02   5.3613485416e+01    0.2066723     0.165505 -25.00 0.0008123344    1.189    0.159
        45  -8.8220    103.3075     76.8036   1.0077132715e+02   4.7241346441e+01    0.3857371    0.2408375 -27.43  0.001150001    1.801    0.445
        46  -7.7471    181.1781     75.0725   8.1735362528e+01   2.9801910951e+01    0.2204775    0.2054258  13.64 0.0006087946    1.252    0.201
        47  -7.6320    190.7233     72.2822   7.9254932104e+01   2.7923975926e+01    0.3069537    0.1598504 -66.48 0.0008827773    3.260    0.693
        48  -9.0404    194.8762     71.0939   7.8225853787e+01   2.7101923110e+01    0.3806673    0.2830057  52.72 0.0009054213    1.369    0.270
        49  -8.7433    227.0121    138.5449   8.8947773411e+01   7.3259188828e+00    0.2153297    0.1455679  50.39 0.0005795215    1.589    0.371
        50  -8.2355    211.7747     73.1369   7.5989137170e+01   2.2662817800e+01    0.2238412    0.1935394  70.13 0.0004981976    1.149    0.130
        51  -8.9339    202.4368     60.7579   7.4353420748e+01   2.6914234214e+01    0.5067757    0.2713694  48.60  0.001416069    2.037    0.509
        52  -9.3311    196.9989     64.9459   7.6284814495e+01   2.7583929393e+01    0.4002773    0.2143538  58.37 0.0003312952    1.803    0.445
        53  -9.2955    170.8063     65.8803   8.1202073632e+01   3.3901056389e+01    0.6536183    0.4754745  25.70  0.003040822    1.821    0.451
        54  -7.4318    156.5000     65.0293   8.3854360450e+01   3.7540894938e+01    0.2161984     0.147107 -36.39  0.001012654    1.530    0.346
        55  -7.6076    216.2406     61.8125   7.2565584371e+01   2.3418930837e+01    0.2095172    0.1638659 -64.50 0.0006136983    1.214    0.176
        56  -8.9440    209.2112     65.1959   7.4424928306e+01   2.4570544300e+01     0.297377    0.2096658 -39.00 0.0008958922    1.431    0.301
        57  -7.6430    161.0532     60.3184   8.1552880958e+01   3.7187909959e+01    0.2620205    0.1828971 -54.59  0.001244009    1.584    0.369
        58  -7.3939    196.1212     58.8586   7.4860036213e+01   2.8756153531e+01    0.1755614     0.163428  44.59 0.0009923797    1.221    0.181
        59  -7.1065    187.5184     58.5017   7.6174329656e+01   3.0934250956e+01    0.1446594    0.1353921  79.57 9.837022e-05    1.044    0.042
        60  -9.2236    149.2825     56.9324   8.3004845979e+01   4.0564628543e+01    0.4591458     0.214429  39.92  0.001720934    2.538    0.606
        61 -10.4372    180.9235     54.2561   7.6157622741e+01   3.3212449537e+01    0.3399102     0.261102  89.15  0.001741946    1.377    0.274
        62  -9.3863    202.6330     71.1808   7.6955374334e+01   2.5192346023e+01    0.4903437    0.2449011 -50.81  0.001989075    2.084    0.520
        63  -7.3097    113.4803    138.5082   1.1414880743e+02   3.1866043846e+01    0.1522897    0.1437031 -77.30 5.348633e-05    1.013    0.013
        64  -8.1267    170.0576     52.3068   7.7544592809e+01   3.6192290802e+01    0.2571782    0.1899731 -65.20 0.0009590648    1.523    0.343
        65  -7.8095    162.5016     51.4741   7.8721184326e+01   3.8174892279e+01    0.1441478    0.1342873  65.38 0.0001553465    1.014    0.014
        66  -8.9506    142.2540     49.0961   8.2145819407e+01   4.3401365670e+01     0.311962    0.2018407  -3.31  0.001254122    2.321    0.569
        67  -6.4001    189.6796     42.2810   7.1563056270e+01   3.2756787258e+01     0.591109    0.1702151 -33.63  0.002003271    3.551    0.718
        68 -10.1753    195.5405     39.7833   7.0060887435e+01   3.1653285560e+01    0.4179122    0.2298168 -38.22  0.001485742    1.856    0.461
        69  -8.0421    180.9615     47.0027   7.4190526467e+01   3.4257215697e+01    0.2036119    0.1929745  73.93 0.0003822298    1.074    0.069
        70  -8.6144    151.9272     46.6786   7.9389801525e+01   4.1435318566e+01    0.3099566    0.1823717  60.08  0.000776175    1.605    0.377
        71  -9.5049     13.0990    197.8487   1.4618881840e+02   3.1940547145e+01    0.2881966    0.1533944  66.85  0.001287922    1.698    0.411
        72 -10.0385    115.8323     34.6152   8.3572176969e+01   5.1331581387e+01    0.4327403    0.2539164  57.61 0.0008749831    1.704    0.413
        73 -11.0254    113.1950     30.5020   8.2814299616e+01   5.2401165819e+01    0.6430299    0.4235034  46.28  0.002847545    1.360    0.265
        74  -7.7560    141.3234     40.3335   7.9636165125e+01   4.4827372879e+01    0.1468284    0.1012294  27.78 -0.0001569447    1.707    0.414
        75 -10.5285    170.7911     36.9110   7.3107634608e+01   3.8134026228e+01    0.2893803    0.2474817  85.69 0.0005000709    1.128    0.114
        76  -9.7471    151.9473     36.1957   7.6252262709e+01   4.2826434081e+01    0.3075945    0.2603022  45.20  0.001360228    1.148    0.129
        77  -8.9177    146.8780     34.4252   7.6693900351e+01   4.4263733016e+01    0.2679312     0.161266  26.46  0.001182362    2.285    0.562
        78  -9.2095    192.9606     45.4287   7.1885497773e+01   3.1512259013e+01     0.326398    0.2598919  -9.76  0.001001532    1.679    0.405
        79  -8.0950    160.3369     34.1103   7.4103061010e+01   4.1052116291e+01     0.185976    0.1748768 -57.96 0.0008775687    1.139    0.122
        80  -9.8235    136.9527     32.7433   7.8172315669e+01   4.6810944793e+01    0.3713906    0.1968135 -33.97  0.001145004    2.023    0.506
        81  -8.5173    192.3654     31.5377   6.8406252029e+01   3.3503373552e+01    0.2130657    0.1932657 -29.20 0.0005704647    1.301    0.232
        82 -10.1569    150.6831     29.5011   7.4484645893e+01   4.3946039089e+01    0.4273368    0.2512439  65.65  0.002070739    1.604    0.376
        83  -7.3938    197.0770     27.8718   6.6854323467e+01   3.2807250908e+01    0.1617008    0.1406607  63.06 -0.0006383859    1.181    0.153
        84  -7.4819    185.2789     28.0569   6.8496113565e+01   3.5668855928e+01    0.1736204    0.1572612 -58.18 0.0003540187    1.160    0.138
        85  -7.9790    162.4688     27.6299   7.1874617111e+01   4.1311264045e+01    0.2308294    0.1963309  83.42 0.0005567272    1.139    0.122
        86 -10.8959    139.4876     24.5015   7.5070405437e+01   4.7170532768e+01    0.5069938     0.345249 -73.96   0.00252407    2.043    0.511
        87  -8.1369    175.3685     24.4703   6.8974580866e+01   3.8521166769e+01    0.2275909    0.1647052 -24.74 0.0006100006    1.634    0.388
        88  -8.7328    154.5034     24.3658   7.2278541289e+01   4.3613609779e+01    0.2754115    0.1511098  58.17 0.0008693286    1.579    0.367
        89  -7.7994    197.9463     23.5721   6.5679952107e+01   3.3113315186e+01    0.2034651     0.114222  65.90 0.0005250138    1.579    0.367
        90  -9.2913    180.8282     21.1203   6.7302149707e+01   3.7564998863e+01     0.221301    0.1983152  52.33 0.0003634066    1.202    0.168
        91  -9.7072    183.9766     17.4855   6.5932282382e+01   3.7198566146e+01     0.214385     0.197617 -81.11 0.0004679753    1.108    0.098
        92  -8.7558    163.6782     19.1322   6.9271066737e+01   4.1962459352e+01    0.3174079    0.1969683 -61.54  0.001440562    1.949    0.487
        93 -10.4678      9.6473    204.1310   1.4729842066e+02   3.0938887401e+01    0.5894508    0.3520413  71.50  0.003826095    1.389    0.280
        94  -7.6825    174.2825     19.4308   6.7773788642e+01   3.9349532662e+01    0.1715203    0.1166044  78.90 0.0003122909    1.382    0.276
        95  -9.7168      7.7241    197.1396   1.4714576419e+02   3.2603065771e+01    0.2879359    0.2086632 -65.03  0.002018031    1.476    0.322
        96  -7.8972    191.5244     15.9190   6.4578404914e+01   3.5537572593e+01    0.1852136    0.1248582 -38.95  0.001021782    1.588    0.370
        97 -11.2881     50.0975    171.9370   1.3582899049e+02   3.3734410562e+01     1.358647    0.7477177 -37.71  0.005937526    3.091    0.676
        98 -10.6559     36.8048    183.3898   1.4010550131e+02   3.2656626542e+01    0.4372369    0.3887062 -80.97  0.002192141    1.221    0.181
        99  -7.1803    207.2240    174.3907   1.0057131634e+02   4.5743022924e+00    0.1922361    0.1368072  53.61 0.0004970026    1.548    0.354
       100  -8.5404    183.7445    161.6467   1.0267524962e+02   1.1971240118e+01    0.3315898     0.252993   6.88  0.001517792    1.753    0.430
       101 -10.1325    178.7641    150.6154   1.0128726548e+02   1.5359937806e+01    0.8330383    0.5614052 -64.06  0.003452026    1.849    0.459
       102  -8.1314    206.4492    143.1307   9.3841543480e+01   1.0821036289e+01     0.299295    0.2005563 -52.11  0.001353484    1.560    0.359
       103 -10.6316     40.7123    179.0968   1.3879176228e+02   3.3191317148e+01    0.6188617    0.2802747 -52.16  0.002891442    2.433    0.589
       104  -7.5830     22.5256    232.4807   1.4700002863e+02   2.3796027963e+01    0.1138819   0.08221024  78.66 1.186613e-06    1.019    0.019
       105 -12.1896    244.1145     95.1257   7.6335582184e+01   1.1566145209e+01     1.040872    0.6221837 -66.09  0.002589101    2.079    0.519
       106  -8.3047    168.4614    208.7448   1.1523596019e+02   5.6229594411e+00    0.2566068    0.2295566  43.37 0.0003123904    1.025    0.024
       107  -8.3863    208.7682    137.3874   9.2065673822e+01   1.1448247210e+01    0.2122049    0.1405748  38.01 0.0009436549    1.674    0.403
       108  -8.2853    225.4641    130.4984   8.7393190068e+01   9.1639043205e+00    0.2507356    0.1924666 -75.16 0.0006814019    1.639    0.390
       109  -9.6880    233.5653    128.8629   8.5619604002e+01   7.7616892612e+00    0.5282111    0.2935756  73.52  0.001896007    3.452    0.710
       110 -13.3950    229.7981     58.0048   6.9838248043e+01   2.0825609160e+01     1.208606     0.675449 -69.06  0.002858064    2.154    0.536
