#   1 NUMBER                 Running object number                                     
#   2 MAG_AUTO               Kron-like elliptical aperture magnitude                    [mag]
#   3 X_IMAGE                Object position along x                                    [pixel]
#   4 Y_IMAGE                Object position along y                                    [pixel]
#   5 X_WORLD                Barycenter position along world x axis                     [deg]
#   6 Y_WORLD                Barycenter position along world y axis                     [deg]
#   7 A_WORLD                Profile RMS along major axis (world units)                 [deg]
#   8 B_WORLD                Profile RMS along minor axis (world units)                 [deg]
#   9 THETA_WORLD            Position angle (CCW/world-x)                               [deg]
#  10 FWHM_WORLD             FWHM assuming a gaussian core                              [deg]
#  11 ELONGATION             A_IMAGE/B_IMAGE                                           
#  12 ELLIPTICITY            1 - B_IMAGE/A_IMAGE                                       
         1 -12.6733    203.1337     32.8170   4.8451512047e+01   3.0317100522e+01     1.773836      1.17018  27.61  0.008086619    2.188    0.543
         2 -10.8719    211.1647     24.5070   4.5233822402e+01   2.9341185331e+01    0.4804673    0.3959029  44.40  0.001171237    1.405    0.289
         3 -12.1775    217.5538     17.0433   4.2611125153e+01   2.8646026069e+01    0.8898351    0.8071382  67.33  0.003666143    1.190    0.160
         4  -9.9783     17.1325     11.8543   9.3262192315e+01   7.1474503982e+01    0.2401841    0.1228821 -12.79  0.001162777    2.328    0.570
         5  -9.5979     21.6514      3.3155   8.6588563158e+01   7.2332224793e+01    0.2534923    0.1123584 -31.82  0.001385753    1.892    0.472
         6  -8.9610     32.8837      3.0908   8.0698143844e+01   7.1082482670e+01    0.1695732     0.142029 -16.25 0.0005580889    1.262    0.207
         7  -9.0482     16.6853      1.7385   8.8460994544e+01   7.3049711380e+01    0.1511991   0.08443213  36.18 0.0005902418    2.335    0.572
         8 -11.5477    129.0598    231.8015   1.0841553558e+02   9.5378678896e+00    0.5015448    0.2505187  52.21   0.00256093    1.819    0.450
         9 -11.4187     64.9630    240.1831   1.2106650502e+02   1.7479761178e+01    0.6240229    0.4576036  31.35  0.003456713    1.781    0.439
        10 -11.8149    116.4717    244.6129   1.1221164301e+02   9.3941983362e+00    0.7081878    0.2992728  35.87  0.003409456    2.330    0.571
        11 -10.2293    107.0513    246.9279   1.1415370004e+02   1.0434282716e+01    0.4883712    0.1909943  36.13  0.002280348    2.563    0.610
        12 -11.9080     95.4311    248.6191   1.1638741138e+02   1.1852834767e+01     1.056641    0.4688766  38.55  0.005619423    2.031    0.508
        13  -9.6391     52.0943    250.5429   1.2397586471e+02   1.7310498366e+01    0.2852989   0.08919197  38.53  0.001219033    2.896    0.655
        14 -12.0620     46.7906    219.8255   1.2281015247e+02   2.3533369913e+01    0.9261568    0.7675735  -4.75  0.006143712    2.336    0.572
        15 -13.7522     48.1553    198.9351   1.2088180863e+02   2.7563832227e+01     3.998687     1.349755  62.67   0.01482363    4.051    0.753
        16 -10.3132     96.5835    225.1592   1.1389582656e+02   1.5768428288e+01    0.4766074    0.3568698  59.03  0.002497062    1.088    0.081
        17 -10.8570     84.4052    223.8643   1.1609810209e+02   1.7793328544e+01    0.6583983    0.1985099  45.87  0.002848292    2.625    0.619
        18  -9.3602     89.9937    229.9434   1.1563273991e+02   1.5867323759e+01    0.2253989    0.1582484 -76.27 0.0003751322    1.515    0.340
        19  -8.0968     76.2840    233.5812   1.1850681726e+02   1.7145466303e+01    0.1488127   0.09913421  39.19 0.0002812662    1.521    0.343
        20 -12.2286     40.3534    208.6367   1.2318141408e+02   2.6496974082e+01    0.9303784    0.6942129 -21.48  0.005443775    2.928    0.659
        21  -9.2614     53.6561    230.9116   1.2237894903e+02   2.0597851434e+01    0.2969778    0.1149092 -72.08  0.001548635    2.576    0.612
        22  -8.7593    168.2025    226.0303   1.0012451280e+02   3.9934984669e+00    0.1945613    0.1462649  82.86  0.001088649    2.064    0.516
        23 -13.1726      9.0070    207.1521   1.2885115739e+02   3.0064818076e+01     1.045332    0.9131221  43.31  0.004076734    1.551    0.355
        24 -10.4533    163.4021    223.4485   1.0067154127e+02   5.2110322723e+00    0.3924394    0.1943567  28.32  0.001745227    2.435    0.589
        25  -8.6838     91.5389    233.4263   1.1568141196e+02   1.5017611123e+01    0.1985991    0.1417794  59.50 0.0006060702    1.125    0.111
        26  -8.1120    184.6805    216.3586   9.5465646370e+01   2.6785152982e+00    0.1242428   0.09925538  71.13 0.0006751225    1.762    0.433
        27  -8.3741    163.0037    214.1522   9.9354311059e+01   6.7946727641e+00    0.2245721    0.1398787  60.96  0.001102773    2.041    0.510
        28  -8.3853    194.3240    192.0860   8.9370949140e+01   4.8402235805e+00    0.2179418    0.1669727 -10.93  0.001196828    1.451    0.311
        29  -9.8717     58.7401    188.2898   1.1769303451e+02   2.8510706487e+01    0.4840695    0.2536907  61.92   0.00248476    1.864    0.464
        30  -9.0933     73.6515    188.2659   1.1449421985e+02   2.6515096290e+01    0.3411265     0.191913  75.54  0.001447694    2.037    0.509
        31 -14.6136      5.5679    175.9566   1.2770541872e+02   3.6793293193e+01      15.5137    0.9097036 -76.87   0.03074961   14.681    0.932
        32 -10.1688     65.9453    180.5868   1.1528811798e+02   2.9252539944e+01    0.3858728    0.2618679 -39.48  0.002041586    2.209    0.547
        33 -10.2156     70.8112    175.0753   1.1353091551e+02   2.9819602416e+01    0.3245276    0.2479641 -41.28 0.0009246656    1.755    0.430
        34  -8.3197    193.9539    167.1190   8.4529993273e+01   9.2321213575e+00    0.2104947    0.2010544  78.92  0.001212043    1.247    0.198
        35 -11.5500     68.4380    144.3191   1.0976677819e+02   3.7304528673e+01     0.767397    0.5037221  78.46  0.002882239    1.732    0.423
        36 -11.7145     67.4411    161.3950   1.1252694517e+02   3.3410334860e+01    0.4618236    0.2963889 -46.77 0.0009959305    1.860    0.462
        37 -11.3358     73.9948    154.8960   1.0999405831e+02   3.4021421430e+01     1.130197     0.528518  70.07    0.0037264    4.198    0.762
        38 -10.1401     80.0090    165.1543   1.1004829300e+02   3.0762852775e+01    0.3242518    0.2747544 -81.49 0.0004145969    1.082    0.076
        39 -11.0378     86.0705    158.6671   1.0760070525e+02   3.1350209703e+01    0.7778639    0.4608377 -38.98  0.002438004    2.375    0.579
        40 -10.8693     23.1530    154.9673   1.2227022116e+02   3.9910900713e+01    0.5641022    0.1886965 -63.58  0.002576127    2.421    0.587
        41  -9.0284     32.7934    155.0431   1.2002583982e+02   3.8969257452e+01    0.2837641    0.1247427 -72.89  0.001380709    1.910    0.476
        42  -9.3793     28.0797    156.0250   1.2123025091e+02   3.9206530072e+01    0.1949351    0.1520725 -89.43 0.0007170712    1.013    0.013
        43  -9.3687    100.8740    142.5521   1.0103677520e+02   3.2719834289e+01    0.6749923    0.4197872 -18.73  0.002382248    3.723    0.731
        44 -10.5437     88.3030    142.4476   1.0428126936e+02   3.4822826320e+01    0.3382241      0.29104  11.47 0.0008545417    1.502    0.334
        45 -10.7950     57.6068    129.7440   1.1029200569e+02   4.2216636737e+01    0.6513575    0.3382842 -86.95  0.002645729    2.673    0.626
        46  -8.9040    110.5000    131.9044   9.6331380434e+01   3.3505592787e+01    0.3384082    0.2480698  12.69  0.001175043    1.977    0.494
        47  -9.7954     31.8858    129.9930   1.1730728941e+02   4.4939505648e+01    0.4361622    0.1380611 -75.88  0.001568925    3.371    0.703
        48  -9.1339     98.0132    128.1294   9.8863052266e+01   3.6628947817e+01    0.2936739     0.229904 -30.68 0.0009149404    1.539    0.350
        49  -8.3699    105.8345    131.2625   9.7428982846e+01   3.4508210173e+01    0.3306737    0.2074147  50.26  0.001487429    1.669    0.401
        50  -8.0260    107.3610    120.0439   9.4495519857e+01   3.6866326015e+01    0.2039044    0.1799476 -55.17 0.0008177264    1.085    0.079
        51 -10.1322     22.5417    117.5479   1.1821291963e+02   4.8703909154e+01    0.3562482    0.1626604 -48.82  0.001735444    2.185    0.542
        52  -7.9547    134.5157    112.5102   8.5373351917e+01   3.3125737327e+01     0.155481    0.1519612 -63.54 -5.293821e-05    1.009    0.009
        53  -7.8675    205.5363    110.4944   6.9047808455e+01   1.7210289748e+01    0.1525079    0.1438748 -15.28  9.27709e-05    1.050    0.047
        54  -7.9704    168.0050    113.0328   7.7428826395e+01   2.5457053882e+01    0.2886672     0.160827 -59.69  0.001014942    2.550    0.608
        55  -8.6709    134.3868    102.7651   8.2794867764e+01   3.5286090019e+01    0.2212593    0.1472265 -35.56  0.000594236    1.572    0.364
        56  -8.7443    248.5319     95.0415   5.8202092307e+01   1.0373387639e+01    0.2130413    0.0970614 -51.14 0.0008097052    2.583    0.613
        57 -14.4773      8.1919    242.2468   1.3060845930e+02   2.3616231898e+01     2.070117      1.56761  65.79  0.003129032    1.219    0.180
        58  -9.9989     13.3866     59.6379   1.1103846878e+02   6.2595481237e+01    0.2420375    0.1906281  70.28  0.001017273    1.701    0.412
        59 -11.9751    194.0536     39.2731   5.1511141236e+01   3.1774429677e+01    0.9960607    0.7077401  67.95  0.003279244    1.374    0.272
        60 -12.4502    109.4405    229.5817   1.1190846607e+02   1.3015592424e+01     1.612188    0.2407819  42.87  0.005049271    4.740    0.789
        61 -12.3521     75.5927    248.2533   1.1983294152e+02   1.4674726259e+01     1.809259    0.4831057  36.83  0.007199192    3.971    0.748
        62 -10.3736    134.9967    239.7180   1.0824326715e+02   7.2950694166e+00    0.2340192    0.1540329  31.28  0.001381729    1.557    0.358
        63  -8.6937     33.2414     29.9817   9.3155190293e+01   6.6889784263e+01    0.1672732   0.08681577 -44.60 0.0008934754    1.643    0.391
        64  -8.8789     32.5958     20.1941   8.9296560191e+01   6.8614671016e+01      0.17936   0.08940058 -32.84 0.0009539938    1.720    0.418
        65  -7.7988     91.5032    240.4872   1.1635253437e+02   1.3786635160e+01    0.1176836   0.09159429  58.98 -3.771319e-05    1.024    0.024
        66  -9.4232    143.5143     48.5542   6.3651790623e+01   4.3382648101e+01    0.2825282    0.2475309 -80.21 0.0005539248    1.302    0.232
        67  -7.9766     48.5486    237.4990   1.2373157575e+02   2.0024597662e+01    0.1692108   0.09166124 -78.87 0.0007504704    1.790    0.441
        68 -10.7928     48.8372    232.3751   1.2333519097e+02   2.0921038619e+01    0.5476301    0.2064019  83.12  0.002257818    4.074    0.755
