#   1 NUMBER                 Running object number                                     
#   2 MAG_AUTO               Kron-like elliptical aperture magnitude                    [mag]
#   3 X_IMAGE                Object position along x                                    [pixel]
#   4 Y_IMAGE                Object position along y                                    [pixel]
#   5 X_WORLD                Barycenter position along world x axis                     [deg]
#   6 Y_WORLD                Barycenter position along world y axis                     [deg]
#   7 A_WORLD                Profile RMS along major axis (world units)                 [deg]
#   8 B_WORLD                Profile RMS along minor axis (world units)                 [deg]
#   9 THETA_WORLD            Position angle (CCW/world-x)                               [deg]
#  10 FWHM_WORLD             FWHM assuming a gaussian core                              [deg]
#  11 ELONGATION             A_IMAGE/B_IMAGE                                           
#  12 ELLIPTICITY            1 - B_IMAGE/A_IMAGE                                       
         1 -12.5226    195.7515     39.8806   4.7268378536e+01   3.1268990961e+01     1.080882    0.9227818 -31.90  0.003805339    1.126    0.112
         2 -12.7317    204.5377     30.6452   4.3639501546e+01   3.0301084054e+01     1.010046    0.7904194 -10.90  0.001448276    1.437    0.304
         3 -11.1281     32.5158     15.4933   8.4537271827e+01   7.2515720557e+01    0.4761827    0.1362669 -43.17  0.001740683    3.161    0.684
         4 -11.7685    228.3931      4.7817   3.4829923148e+01   2.7589035918e+01    0.8321596    0.5648119  87.60  0.004496882    1.512    0.339
         5  -9.8575     43.8062      3.6106   7.0108964352e+01   7.2726534614e+01    0.1972222    0.1603021  13.59 0.0009322333    1.160    0.138
         6  -9.8494     92.4654    217.1439   1.0715543938e+02   1.9109629957e+01    0.3072352    0.2181151  86.23  0.001962233    1.715    0.417
         7  -9.0999    101.9499    249.9889   1.0814509109e+02   1.2716194647e+01    0.1695687    0.1350459  62.87 0.0008386471    1.353    0.261
         8 -16.8859     50.6163    201.6745   1.1492814466e+02   2.7082946888e+01     20.27246     7.602366  86.80   0.02170206    4.160    0.760
         9  -8.8179    113.1912    206.3837   1.0161691022e+02   1.8154736533e+01    0.1830236   0.09215011  43.06 0.0009413719    1.664    0.399
        10 -10.2365    103.3093    171.0158   9.9294339033e+01   2.6328159780e+01    0.4375861    0.2509806  53.75  0.002098893    1.817    0.450
        11 -10.1192    109.3758    201.7172   1.0189296022e+02   1.9519816400e+01    0.2733917    0.2138638  -2.93 0.0009336079    1.698    0.411
        12  -9.8299    195.0241    198.7918   8.4122061913e+01   7.2266669854e+00    0.4024731    0.2839171 -69.80  0.001941408    3.842    0.740
        13 -16.1340      3.4401    248.8179   1.2620902493e+02   2.3308127619e+01      2.50543      1.35992  21.83   0.01537914    2.206    0.547
        14  -9.4641     72.2146    186.7038   1.0870921105e+02   2.7487277617e+01    0.2656523    0.1852069  64.36 0.0007589959    1.373    0.271
        15 -12.0920     73.1186    155.3077   1.0487276805e+02   3.4166594872e+01     0.588388    0.4697515 -38.01 0.0009526343    1.563    0.360
        16 -13.2745     68.6751    144.1443   1.0458336813e+02   3.7366043645e+01     2.084371     1.067464  78.73  0.003058414    3.093    0.677
        17 -10.6298     91.2356    153.4162   9.9751116134e+01   3.1962057527e+01    0.5986637    0.4097278 -25.80  0.002052453    2.209    0.547
        18  -9.3585    134.4661    147.4973   8.7697794839e+01   2.5913905122e+01     0.469907    0.1459893 -50.88  0.001551795    3.557    0.719
        19  -8.0851    175.3910    149.2076   7.8926890550e+01   1.8060573433e+01    0.1854771     0.127569 -49.57 0.0008958597    1.691    0.409
        20 -11.1477     84.4475    160.6661   1.0259335235e+02   3.1363717097e+01    0.7357346    0.3995098  58.06    0.0033314    2.056    0.514
        21  -9.8754    104.1808    139.3988   9.3895403592e+01   3.3012172824e+01    0.4695002    0.2852157 -31.81  0.001981016    2.377    0.579
        22 -10.5344     91.9027    138.8066   9.7169273819e+01   3.5178138588e+01    0.2662571    0.2558489 -18.19 0.0003737526    1.187    0.158
        23 -15.6395      1.5486    237.9155   1.2633135173e+02   2.5248894374e+01     2.863865    0.2899311 -77.48  0.006001031    7.810    0.872
        24  -8.9019    150.8599    179.5632   8.9708879587e+01   1.7059150592e+01     0.377022    0.2593804 -79.66  0.001787613    2.758    0.637
        25  -9.1244    105.7677    130.7493   9.1786418764e+01   3.4690106083e+01    0.3351611     0.262832 -69.27  0.001371782    1.372    0.271
        26  -9.7276    113.0762    129.5356   8.9535747824e+01   3.3649765084e+01    0.3719726    0.2795327  -2.72  0.001184695    1.907    0.476
        27  -8.9249     99.4849    180.7683   1.0154721842e+02   2.4924705061e+01    0.2338302    0.1611615  37.85 0.0004629623    1.282    0.220
        28  -9.4316    118.7521    124.4370   8.6907828463e+01   3.3721097465e+01    0.3793064     0.144107  38.52  0.001314344    2.664    0.625
        29  -9.4196    100.2569    125.6035   9.2290804708e+01   3.6837620383e+01    0.2900296    0.2453974   2.70 0.0006308674    1.461    0.316
        30  -9.4581    134.6543    120.0062   8.1751592032e+01   3.1553443859e+01    0.3448625     0.140002 -46.16  0.001239737    2.504    0.601
        31  -8.7045    108.7931    118.9726   8.8433858518e+01   3.6819934571e+01    0.2464453     0.212025  43.58 0.0004292669    1.145    0.127
        32  -8.3355    144.4682    180.5327   9.1244744834e+01   1.7932157419e+01    0.1317847    0.1152745  26.54 0.0001388331    1.024    0.023
        33 -10.5923     54.5246    110.2185   1.0368938001e+02   4.7551742600e+01    0.3301075    0.2372805  73.86   0.00148552    1.495    0.331
        34  -8.3129    205.1819    110.1342   6.4566033995e+01   1.8807982442e+01     0.212946    0.1797182  -0.40 0.0007962573    1.192    0.161
        35 -10.7470    117.1350    107.8633   8.3446087576e+01   3.7705216106e+01    0.6344724    0.4356492 -22.02  0.002711742    2.037    0.509
        36  -9.0200    156.3290    218.9431   9.4382216784e+01   1.0002502283e+01     0.163009    0.1417145  14.63  0.001173104    1.124    0.111
        37  -7.7324     60.6221     97.3028   9.9056833413e+01   5.0008248947e+01    0.1544862    0.1039646  66.48 0.0007026469    1.769    0.435
        38  -8.5116    189.1927    177.6354   8.1628884984e+01   1.1124585861e+01    0.2244764   0.09551767 -41.38   0.00101094    2.549    0.608
        39  -8.4030     61.5042     68.5380   9.1376102449e+01   5.6956581843e+01     0.249802    0.1265345  46.13 0.0006372409    2.221    0.550
        40 -10.6691     72.5907    173.6776   1.0724063732e+02   3.0167030441e+01    0.4094259    0.2727974 -38.82  0.002147776    2.080    0.519
        41 -12.2544    184.6315     48.8268   5.1394626094e+01   3.2781120979e+01    0.8958378    0.7395707  18.30  0.002853619    1.450    0.310
        42  -9.8423    119.4421    246.1109   1.0451404220e+02   1.1087998744e+01    0.1871934    0.1336591 -29.21  0.001288496    1.990    0.497
        43 -10.1394     95.6053    242.0196   1.0870425031e+02   1.4674328717e+01    0.2534625    0.2032563 -79.39  0.001181122    1.577    0.366
        44 -10.4370     76.8245    168.9352   1.0562348887e+02   3.0623511977e+01    0.3316735    0.2623324 -32.20  0.001038784    1.682    0.406
        45  -9.3505    168.9984    215.8334   9.1532646897e+01   8.6463717430e+00    0.2033647     0.116828  15.00  0.001086226    2.017    0.504
        46  -9.6890    149.2787     53.2032   5.8930239082e+01   4.0996897985e+01    0.4274125    0.2842022 -72.65  0.001639644    2.054    0.513
        47  -8.1905    169.0263    235.7757   9.4148576852e+01   6.0024350240e+00    0.1504211    0.1159003  22.88 0.0003929998    1.025    0.025
        48  -9.6784    160.9995    224.4917   9.4210142690e+01   8.5720115680e+00    0.1718919    0.1538333  -3.40  0.001290145    1.236    0.191
