#   1 NUMBER                 Running object number                                     
#   2 MAG_AUTO               Kron-like elliptical aperture magnitude                    [mag]
#   3 X_IMAGE                Object position along x                                    [pixel]
#   4 Y_IMAGE                Object position along y                                    [pixel]
#   5 X_WORLD                Barycenter position along world x axis                     [deg]
#   6 Y_WORLD                Barycenter position along world y axis                     [deg]
#   7 A_WORLD                Profile RMS along major axis (world units)                 [deg]
#   8 B_WORLD                Profile RMS along minor axis (world units)                 [deg]
#   9 THETA_WORLD            Position angle (CCW/world-x)                               [deg]
#  10 FWHM_WORLD             FWHM assuming a gaussian core                              [deg]
#  11 ELONGATION             A_IMAGE/B_IMAGE                                           
#  12 ELLIPTICITY            1 - B_IMAGE/A_IMAGE                                       
         1 -14.7311    154.7564     48.6328   8.5903011919e+01   4.0237570675e+01     1.328413     1.192324 -33.52  0.003515504    1.142    0.124
         2 -14.7771    164.8381     17.9874   7.3556622277e+01   4.1419026474e+01      1.18412    0.9908245 -75.85  0.003813227    1.190    0.159
         3 -13.1412    189.5531     14.2525   6.9404334427e+01   3.5055675629e+01    0.4545757     0.323621 -37.34  0.001241467    1.348    0.258
         4 -13.8880     11.7988    205.1352   1.5222153711e+02   3.2092922050e+01    0.5411736    0.3511849 -64.28  0.003808542    1.999    0.500
         5 -20.5212     88.6263    184.0559   1.3376308893e+02   2.7171395490e+01     12.88741     7.051162 -68.00   0.06821255    2.138    0.532
         6 -11.8535     14.2305    241.7537   1.5273079158e+02   2.5689553905e+01    0.1987572   0.09049804  72.43  0.001221889    1.899    0.473
         7 -11.9589    238.7446    184.7973   1.0370029502e+02   2.7183039707e+00    0.2021679    0.1263005 -16.89  0.001188955    1.526    0.345
         8 -12.4820    185.6262    237.8025   1.2064770213e+02   4.6286127133e+00    0.2203053    0.1561115 -42.61   0.00106015    2.046    0.511
         9 -10.7003    154.4778    236.2559   1.2604357401e+02   9.2040333265e+00    0.2134326    0.1376869  21.78  0.001056886    1.494    0.331
        10 -13.4168    230.1780    168.4686   1.0214812864e+02   5.8761412237e+00    0.4603302    0.2632273 -23.64   0.00228011    1.725    0.420
        11 -11.4240    236.8273    158.1761   9.9134524378e+01   6.0182857313e+00    0.1744837     0.120974  11.01 0.0003782346    1.324    0.245
        12 -12.7312    198.8648    246.2080   1.1943866281e+02   1.9619562409e+00    0.2819967    0.1600264  43.83  0.001854643    1.786    0.440
        13 -11.6351     23.0007    156.1515   1.4756500509e+02   4.0863110461e+01    0.2340447    0.1900334  21.80 0.0008877944    1.492    0.330
        14 -13.1955    173.7480    148.7201   1.0870221327e+02   1.8749207271e+01    0.4165961    0.3879553  56.97   0.00146128    1.236    0.191
        15 -10.4857     28.0021    232.4821   1.4994338062e+02   2.5844486371e+01     0.137728    0.0952448  58.43 4.702971e-05    1.081    0.075
        16 -12.9698    173.9546    139.9092   1.0683651231e+02   2.0162008207e+01    0.4269224    0.2866868 -48.29  0.001530805    1.761    0.432
        17 -11.8811     12.3905    134.9685   1.4920332346e+02   4.6461387447e+01    0.4021662    0.2412422 -16.28  0.002081764    2.858    0.650
        18 -11.4691     19.5950    134.6112   1.4711656066e+02   4.5977399372e+01    0.3449054    0.2006663  -0.24  0.001698338    2.785    0.641
        19 -11.6168      3.4759    132.5244   1.5160950008e+02   4.7637001288e+01    0.2174885    0.1470651 -78.48 0.0006638924    1.363    0.266
        20 -13.6807    160.3198    128.5595   1.0730168461e+02   2.4940378097e+01    0.5294954    0.4930848   0.14  0.002059507    1.107    0.097
        21 -11.7908    141.8708    121.2526   1.0995468041e+02   3.0224363636e+01    0.4702335    0.2413225  61.59  0.001515772    2.945    0.660
        22 -12.2538    196.2101    230.5386   1.1787479956e+02   3.9358117238e+00      0.17976    0.1433598  -6.19 0.0008061772    1.367    0.269
        23 -12.5867     39.2092    115.8091   1.3929269137e+02   4.8608706929e+01     0.390305    0.2737816 -12.89  0.001509638    2.143    0.533
        24 -12.3092    208.0918    225.4349   1.1514699956e+02   2.8135893970e+00    0.3080644     0.179527 -26.84  0.001354739    1.997    0.499
        25 -10.1417      6.5780    228.4865   1.5381579045e+02   2.8512714105e+01    0.1009427   0.06957863  56.03 8.449968e-05    1.043    0.041
        26 -10.9830    205.4781    110.1761   9.4006246334e+01   1.8299526267e+01    0.3008348     0.189853  40.25 0.0009603639    1.575    0.365
        27 -11.2293     32.1640    222.6015   1.4877195387e+02   2.7066278697e+01    0.1594897    0.1420815  76.58  0.000606134    1.364    0.267
        28 -11.3615     38.7706    102.1198   1.3760755417e+02   5.1990343500e+01    0.2508335    0.1912361  19.62 0.0008328758    1.529    0.346
        29 -11.2250     26.2016    221.2171   1.4988396904e+02   2.7902183742e+01    0.1455975    0.1165639  81.35 0.0005357437    1.327    0.247
        30 -10.6032    217.8916    218.2405   1.1246944865e+02   2.1907280656e+00    0.1636617    0.1371163  -9.15 0.0005367295    1.382    0.277
        31 -11.0450     24.8237    214.6552   1.4991289032e+02   2.9174335746e+01    0.1423634    0.1087157  57.02 0.0003112245    1.099    0.090
        32 -11.7822    141.0029     82.5282   9.9944610032e+01   3.7971584695e+01    0.4698591    0.2634484 -28.56  0.001319714    2.169    0.539
        33 -10.6694    108.4507     82.9833   1.0912275320e+02   4.5385469306e+01    0.2264393    0.2005325  49.21 0.0001002365    1.103    0.093
        34 -11.9416     60.5517     82.9864   1.2584829548e+02   5.4046405733e+01      0.26534    0.2096064  36.07  0.000496109    1.319    0.242
        35 -14.6236    144.9934     63.2463   9.2918776806e+01   4.0462021636e+01     1.293545     1.211738 -52.46  0.001190789    1.096    0.088
        36 -13.7481    187.5092    246.0960   1.2134015137e+02   3.4913818346e+00     0.521107    0.3629167  46.65  0.002747502    1.659    0.397
        37 -13.4186    158.4976     39.5253   8.2066385254e+01   4.0532005771e+01    0.5434511    0.4923156 -46.77 0.0008142076    1.117    0.104
        38 -10.5258     20.8394    210.3108   1.5055548053e+02   3.0328436307e+01    0.1174133    0.1009245  74.94 0.0003352209    1.294    0.227
        39 -11.4725     13.5087     59.7942   1.4148069406e+02   6.4427643736e+01    0.2193078    0.1858369  66.26 0.0004613877    1.244    0.196
        40 -12.1677      2.3486     26.7748   1.4144976364e+02   7.2748022164e+01    0.2960234    0.1913651 -30.73 0.0007346023    1.547    0.354
        41 -10.8257    161.7650    245.0271   1.2570760380e+02   7.1298869702e+00    0.2562277    0.1561346 -21.85  0.001633078    2.473    0.596
