#   1 NUMBER                 Running object number                                     
#   2 MAG_AUTO               Kron-like elliptical aperture magnitude                    [mag]
#   3 X_IMAGE                Object position along x                                    [pixel]
#   4 Y_IMAGE                Object position along y                                    [pixel]
#   5 X_WORLD                Barycenter position along world x axis                     [deg]
#   6 Y_WORLD                Barycenter position along world y axis                     [deg]
#   7 A_WORLD                Profile RMS along major axis (world units)                 [deg]
#   8 B_WORLD                Profile RMS along minor axis (world units)                 [deg]
#   9 THETA_WORLD            Position angle (CCW/world-x)                               [deg]
#  10 FWHM_WORLD             FWHM assuming a gaussian core                              [deg]
#  11 ELONGATION             A_IMAGE/B_IMAGE                                           
#  12 ELLIPTICITY            1 - B_IMAGE/A_IMAGE                                       
         1 -15.0170     46.1683    202.9134   1.3774186951e+02   2.6902043511e+01     9.396848     2.461145  53.81    0.0294292    5.038    0.802
         2 -15.2280     10.6179    153.9964   1.4047066286e+02   4.1962672948e+01     4.860174     1.452869 -77.48   0.01813538    3.390    0.705
         3 -13.1022    195.5057     32.4887   6.5368330534e+01   3.2716008894e+01     1.183779     0.981176  67.85  0.006311059    1.162    0.139
         4 -13.9283    209.0899     16.1409   6.0010782531e+01   3.1486810509e+01     1.434812     1.104749  33.86  0.008564682    1.909    0.476
         5 -11.0853      2.1009      5.0534   1.0949020732e+02   7.1990160621e+01    0.6632918    0.1126732 -42.12  0.002682076    4.807    0.792
         6 -11.8449      2.6608     15.4168   1.1352035472e+02   7.0553750350e+01    0.5725559    0.2103271 -49.03  0.003004713    2.891    0.654
         7 -11.7111      4.1803    226.6354   1.4774217558e+02   2.6411577231e+01    0.4454831    0.3208328 -82.64  0.003243705    1.236    0.191
         8 -10.2428    190.4150    250.1811   1.1416507823e+02  -5.8576093767e+00    0.2534838   0.08402161  37.25 0.0003855286    2.670    0.625
         9 -11.5241    139.3073    249.0770   1.2410600479e+02   2.8781247145e+00    0.3504613    0.2840867  87.28  0.002129563    1.448    0.309
        10 -12.9739    107.4505    245.6998   1.3001013788e+02   8.7881304488e+00     1.028421    0.3994039  54.06  0.004199302    2.672    0.626
        11 -11.9152     92.6663    249.4218   1.3331518526e+02   1.0412319721e+01    0.4103357    0.3526433  76.34 0.0005262832    1.112    0.101
        12 -11.7008     89.0372    244.5260   1.3349120770e+02   1.1922721257e+01    0.3904349    0.2421379  76.74  0.001339708    1.732    0.423
        13 -12.5278     30.6097    248.7265   1.4460648281e+02   1.9088519714e+01     1.365451    0.4114074  36.08  0.006016859    3.605    0.723
        14 -11.3284     41.0106    247.9593   1.4274075526e+02   1.7966697678e+01    0.4874062    0.2661673  56.04  0.002674135    1.483    0.326
        15 -11.6091     37.8249    243.4688   1.4296766196e+02   1.9253879619e+01     0.480754    0.3043504 -87.20  0.002469716    1.361    0.265
        16 -12.2645     17.9493    241.6595   1.4630742053e+02   2.1935996031e+01    0.5676862    0.3473685  66.80  0.003807302    1.264    0.209
        17 -12.6690     12.3456    239.8441   1.4714658727e+02   2.2904484161e+01      1.18046    0.5494256  66.04  0.006878462    1.800    0.444
        18 -10.9633      3.6481    249.9757   1.4914764906e+02   2.1839530118e+01     0.568635     0.143454  38.99  0.002746514    3.443    0.710
        19 -11.3791      2.7109    246.0069   1.4908880279e+02   2.2698211680e+01    0.6497076    0.2106305 -82.53  0.003196681    2.706    0.630
        20  -9.9763     16.7970    249.6685   1.4699505873e+02   2.0493148643e+01    0.1984037    0.1694935 -64.68  0.001522447    1.684    0.406
        21 -11.6420    152.5869    228.4002   1.1837700681e+02   4.3753749279e+00     0.657156    0.2271169  33.65  0.002176699    3.565    0.719
        22 -11.0110     19.8602    228.9209   1.4512200016e+02   2.4312391544e+01    0.2614285    0.1508651  41.04 0.0009858692    1.798    0.444
        23  -9.2328     29.4932    241.0177   1.4426326126e+02   2.0748642178e+01    0.1632413   0.09359792 -83.76 0.0004202662    1.501    0.334
        24  -9.6113     25.2832    226.3920   1.4395303458e+02   2.4237930067e+01    0.1619296   0.08721057  52.44 0.0009482657    1.617    0.382
        25 -11.2260     22.0421    236.3076   1.4524578408e+02   2.2555757590e+01    0.2860802    0.2139375  78.24  0.002051149    1.041    0.040
        26 -10.5514     23.2745    213.3613   1.4331971820e+02   2.7243104921e+01    0.3571141    0.1700391  26.12  0.001464339    3.168    0.684
        27 -10.6086    228.1069    204.6612   9.8865608155e+01  -4.7062967912e+00    0.3119913     0.224194 -53.20 0.0006016301    1.756    0.431
        28  -9.7761    192.0634    193.1020   1.0374922866e+02   3.8655707054e+00    0.4367057    0.2287227 -66.49  0.001248328    5.408    0.815
        29 -12.7147     35.5345    226.0724   1.4201866484e+02   2.3113902899e+01    0.3337273    0.2976546  73.75 0.0007987504    1.286    0.222
        30 -11.5964     62.1912    193.3571   1.3315092584e+02   2.7010168613e+01    0.3804329    0.2709521 -43.87  0.001634243    1.808    0.447
        31  -8.5600    181.5205    192.4346   1.0583982884e+02   6.0289384675e+00    0.1442399     0.137792  24.77 0.0001128383    1.008    0.008
        32 -11.7141     67.9273    186.0890   1.3088389623e+02   2.7924416310e+01    0.3030186    0.2415802 -53.88 0.0005070612    1.370    0.270
        33 -10.9946     77.7165    174.2375   1.2679879436e+02   2.9338150925e+01    0.2627315    0.2249668 -66.91 0.0003608853    1.123    0.110
        34 -13.1841     64.7896    171.6550   1.2957417325e+02   3.1837603533e+01    0.5398923    0.2827028 -45.50  0.001536488    2.273    0.560
        35 -12.0117     85.2661    165.5607   1.2347949399e+02   3.0279974428e+01    0.9230592    0.5891176  59.61  0.004294286    1.735    0.424
        36 -12.7542     67.3605    144.0616   1.2434729284e+02   3.8229470822e+01    0.9628905    0.6201133  89.37  0.002413076    1.999    0.500
        37 -11.9516     57.3598    131.5871   1.2480252648e+02   4.2584046691e+01     2.010488    0.6556895 -70.67  0.004549647    7.754    0.871
        38 -10.6304     32.9628    156.4867   1.3531446423e+02   3.9342057344e+01    0.2164421    0.1496826 -71.62 0.0009254836    1.200    0.166
        39  -9.9342     98.2622    149.9592   1.1717194110e+02   3.1929020372e+01    0.3111786    0.2735634 -43.59 0.0007600131    1.196    0.164
        40  -9.1768    101.0356    145.9915   1.1561696192e+02   3.2405638512e+01    0.2347781    0.1800996 -24.18 0.0005309554    1.692    0.409
        41 -12.0819     86.6909    148.9276   1.2004644546e+02   3.4126396635e+01    0.3045658    0.2564457 -42.59 0.0005598493    1.261    0.207
        42  -9.4782    109.8301    135.6324   1.1098787475e+02   3.3284453868e+01     0.334384    0.2333428 -23.75  0.001427789    1.987    0.497
        43 -10.5060     96.9954    132.6723   1.1382547252e+02   3.6332328293e+01    0.2891262    0.2365502 -22.91 0.0005797815    1.458    0.314
        44  -8.9862    106.8399    122.8821   1.0879943018e+02   3.6849629307e+01    0.2099933    0.1950981 -23.77 0.0003246336    1.143    0.125
        45 -13.8489     42.6458    217.2521   1.3987363177e+02   2.4143760307e+01    0.9974905     0.684304  68.14  0.004070224    1.242    0.195
        46 -10.5138    167.9888    112.9934   9.0892063578e+01   2.5835672197e+01    0.3727337    0.2855843 -80.52 0.0007816674    1.613    0.380
        47 -10.1068     51.8658    233.7819   1.3958894237e+02   1.9438273210e+01    0.1964607    0.1601209 -61.28 0.0006923355    1.524    0.344
        48  -9.3192    204.6756    110.9295   8.2993838659e+01   1.7749653139e+01     0.388826    0.1859678  37.73    0.0013506    3.064    0.674
        49 -10.3839     53.0218    228.3596   1.3887133465e+02   2.0422641111e+01    0.2424887    0.1632164  88.90 0.0002160746    1.311    0.237
        50 -11.2057    242.0277     94.3251   7.3209163524e+01   1.2612161568e+01    0.2479299    0.2003052 -18.38  0.001355393    1.612    0.380
        51 -11.2900      2.1231     81.4599   1.3231758574e+02   5.8807634639e+01    0.4903148    0.0836445 -56.86  0.001956203    3.117    0.679
        52  -8.9261    158.4817     77.5152   8.3526564879e+01   3.4934221247e+01    0.1490222    0.1425643  76.53 0.0001277585    1.002    0.002
        53 -11.0342     54.6256    238.2759   1.3946812274e+02   1.8145126636e+01    0.3614846    0.2075965  45.99  0.001159498    1.571    0.364
        54 -13.4467     98.9158    236.4326   1.3061158390e+02   1.1984175114e+01     1.659079     1.170072 -63.46  0.003152245    1.527    0.345
        55 -14.0452      9.7792    206.6627   1.4538638778e+02   3.0084515728e+01     1.964764     0.852124 -85.45  0.003170175    2.001    0.500
        56 -10.4874    248.9205    248.8828   1.0304296289e+02  -1.4426214073e+01     0.223721    0.1567377  41.95  0.001417507    1.739    0.425
        57 -10.3967    189.8053     15.1690   6.1927405656e+01   3.6088198174e+01    0.2037286    0.1546635 -78.96 0.0008835525    1.221    0.181
