#   1 NUMBER                 Running object number                                     
#   2 MAG_AUTO               Kron-like elliptical aperture magnitude                    [mag]
#   3 X_IMAGE                Object position along x                                    [pixel]
#   4 Y_IMAGE                Object position along y                                    [pixel]
#   5 X_WORLD                Barycenter position along world x axis                     [deg]
#   6 Y_WORLD                Barycenter position along world y axis                     [deg]
#   7 A_WORLD                Profile RMS along major axis (world units)                 [deg]
#   8 B_WORLD                Profile RMS along minor axis (world units)                 [deg]
#   9 THETA_WORLD            Position angle (CCW/world-x)                               [deg]
#  10 FWHM_WORLD             FWHM assuming a gaussian core                              [deg]
#  11 ELONGATION             A_IMAGE/B_IMAGE                                           
#  12 ELLIPTICITY            1 - B_IMAGE/A_IMAGE                                       
         1 -14.5033    147.8007     59.9310   9.1182109751e+01   4.0293744703e+01     1.467011       1.1683 -16.49  0.003906906    1.418    0.295
         2 -14.7847    158.5962     44.8466   8.3872929122e+01   3.9757921028e+01     1.501243     1.109007 -39.15  0.004962941    1.362    0.266
         3 -14.6947    170.3827     12.8740   7.1083215336e+01   4.0411814585e+01     1.251061      1.13815  -1.44  0.003967156    1.233    0.189
         4 -13.4761    187.0999     12.0795   6.8976089646e+01   3.5928467842e+01      1.27365     0.530579 -63.37  0.004369657    3.185    0.686
         5 -12.3917    161.3043    238.9456   1.2510460679e+02   7.9090399911e+00    0.3113001    0.1615575  39.09  0.001334258    1.411    0.291
         6 -19.9192     91.0473    228.6758   1.3748000509e+02   1.9110917168e+01     7.862092     5.306847  46.31   0.05196436    1.081    0.075
         7 -10.8938     28.3901    238.1898   1.5006811439e+02   2.4888383240e+01    0.1259536   0.08687292  67.30 0.0003900629    1.234    0.190
         8 -10.9310     27.4388    172.9364   1.4742785101e+02   3.6888139561e+01    0.1840798    0.1499505  41.99 0.0004283949    1.243    0.196
         9 -12.1421     21.7164    236.4759   1.5123810466e+02   2.5816844839e+01    0.1752914    0.1206957  68.23  0.001412219    1.234    0.189
        10  -9.4092     13.2842    236.2598   1.5276792082e+02   2.6645969196e+01   0.07893824   0.07069008  41.88 0.0004013767    1.482    0.325
        11 -12.9655    154.1393    152.7250   1.1371074854e+02   2.1866315978e+01     0.415989    0.2961365  68.41  0.002032161    1.946    0.486
        12 -14.1870    163.8219    157.3109   1.1247340694e+02   1.9235553504e+01    0.5969881    0.5008902 -45.86  0.001207939    1.394    0.283
        13 -19.1303     76.3977     96.9507   1.2335554038e+02   4.8277594321e+01     18.00624    0.9022332 -57.52   0.02463354   18.674    0.946
        14 -14.6385    134.6092    147.3931   1.1721624007e+02   2.6588416745e+01     1.558697    0.6008557 -58.06  0.005131528    4.129    0.758
        15 -13.8524    151.4095    144.4531   1.1270257748e+02   2.3877471180e+01    0.4824833    0.4544856  89.83  0.002482296    1.237    0.192
        16 -14.7935    143.4133    143.6503   1.1439389680e+02   2.5599337595e+01     1.085359    0.6425905 -58.92  0.004829402    2.227    0.551
        17  -9.7024      4.5057    157.4355   1.5232131575e+02   4.2103094875e+01    0.1114009   0.09182069  72.11 0.0001176783    1.103    0.094
        18 -10.5615    218.1992    220.1351   1.1269645016e+02   1.9536430807e+00    0.1355121    0.1163185  20.39 0.0004607502    1.357    0.263
        19 -11.2974     17.6681    154.1808   1.4883414122e+02   4.1759329151e+01    0.2118278    0.1769323 -65.17 0.0003088044    1.416    0.294
        20 -11.5304     18.7612    149.3905   1.4828012886e+02   4.2716695431e+01    0.3622028    0.2068013  48.60  0.002134283    1.469    0.319
        21 -11.0551    192.4138    153.2260   1.0588642801e+02   1.4478797167e+01    0.1733303    0.1261634 -43.44 0.0006397251    1.633    0.388
        22 -13.4252    174.1642    149.4143   1.0875575000e+02   1.8555074109e+01    0.5061523     0.389368 -52.51  0.002582834    1.625    0.385
        23 -10.5259     18.2866    220.4591   1.5139714197e+02   2.8795863366e+01   0.09745466   0.07353546  64.47 0.0007655728    1.143    0.125
        24 -10.6720     23.9403    216.9827   1.5017421603e+02   2.8853973770e+01      0.14276    0.1131261  57.97 0.0004105473    1.154    0.133
        25 -12.1771    174.6539    141.0832   1.0693917690e+02   1.9826706190e+01     0.238248    0.1839377  49.67 0.0004322765    1.304    0.233
        26 -12.6834    134.5691    109.0722   1.0886288879e+02   3.4223859348e+01     1.187344    0.1846537 -45.79  0.002598978    6.934    0.856
        27 -12.1490    210.1604    243.8492   1.1727516954e+02   7.0323788300e-01    0.1591814    0.1161512  30.58 0.0008729423    1.249    0.199
        28 -10.6454      2.6808    135.3797   1.5195481163e+02   4.7046136837e+01    0.1763253    0.1486859   3.65  0.001026553    1.580    0.367
        29 -12.0595    148.0744    133.8577   1.1127393437e+02   2.6508416727e+01    0.2201638    0.1908478  66.29 0.0004274668    1.271    0.213
        30 -13.3344    160.4646    128.0233   1.0714859745e+02   2.5006458505e+01    0.4496561    0.4087067 -48.93  0.001629192    1.222    0.182
        31 -13.2542     38.7864    123.8917   1.4038034059e+02   4.6713248108e+01    0.3397479    0.3132423  -9.38  0.001241684    1.388    0.279
        32 -14.3255    135.6925    128.8853   1.1319528189e+02   3.0002078972e+01     2.002656    0.3895562 -49.77   0.00476128    6.644    0.849
        33 -13.0028     11.9248    205.9228   1.5221904512e+02   3.1938997815e+01    0.4948971    0.2287052  24.62  0.002867299    2.397    0.583
        34 -11.2361     31.1468    205.5517   1.4824256957e+02   3.0172825605e+01    0.1708087    0.1633312 -78.38 0.0009342059    1.471    0.320
        35 -11.9595     12.7364    241.6965   1.5299469696e+02   2.5836338678e+01    0.1610644    0.1193074  62.15  0.001216352    1.177    0.150
        36 -11.3478    151.0374    239.7563   1.2706505670e+02   9.2568625118e+00    0.2272606    0.1722606  23.88 0.0004735395    1.209    0.173
        37 -10.8190    205.3342    110.2413   9.4046748066e+01   1.8320385910e+01    0.2927416    0.1856915  43.30 0.0009323345    1.552    0.356
        38 -11.9078     27.0649    105.9392   1.4220895045e+02   5.2153840148e+01    0.3300956    0.2526286  -6.61  0.001094176    1.744    0.427
        39 -12.2649     41.1325     94.1930   1.3551511265e+02   5.3695606231e+01    0.4504011     0.383027 -42.40   0.00256348    1.311    0.237
        40 -13.2756    139.3379    200.6512   1.2462804186e+02   1.6455926600e+01    0.6186864    0.2731332  42.61 0.0008577551    1.812    0.448
        41 -11.1620    135.4186    196.1663   1.2484687881e+02   1.7792168005e+01    0.2395274    0.1999011  63.71  0.001493072    1.349    0.259
        42 -12.1879     50.6791     91.6182   1.3147439343e+02   5.3240380968e+01    0.3597127    0.2695582  19.29 0.0009097413    1.563    0.360
        43 -11.5284      6.0213     89.1457   1.4814715071e+02   5.7684157144e+01    0.5249815     0.222437 -13.29  0.002132775    4.131    0.758
        44 -10.4413    104.8826     82.1480   1.0998519464e+02   4.6326489217e+01    0.2202359    0.2009636  78.75 0.0002779199    1.143    0.125
        45 -11.0596    142.6923     80.7385   9.8991105964e+01   3.7897418197e+01    0.2675308    0.2400223  11.77 0.0007012344    1.233    0.189
        46 -12.3899    167.8002    239.7672   1.2403122989e+02   6.8988193452e+00    0.1929086    0.1553479  20.12 0.0006724083    1.188    0.158
        47 -12.8691    146.1666    189.7056   1.2167117963e+02   1.7068304817e+01     0.387942    0.2497809  17.95  0.001591841    1.890    0.471
        48 -13.1464    162.4525     35.9592   8.0148970307e+01   3.9929324925e+01    0.4577507     0.433821 -70.87 0.0008361849    1.045    0.043
        49 -10.9521     13.3944     59.8793   1.4154987057e+02   6.4413474880e+01    0.1894594    0.1652765  52.39 0.0004369517    1.257    0.204
        50 -10.8472     15.5755    246.8101   1.5261489530e+02   2.4782332708e+01    0.1473927   0.06699225  73.01  0.001006102    1.936    0.483
