#   1 NUMBER                 Running object number                                     
#   2 MAG_AUTO               Kron-like elliptical aperture magnitude                    [mag]
#   3 X_IMAGE                Object position along x                                    [pixel]
#   4 Y_IMAGE                Object position along y                                    [pixel]
#   5 X_WORLD                Barycenter position along world x axis                     [deg]
#   6 Y_WORLD                Barycenter position along world y axis                     [deg]
#   7 A_WORLD                Profile RMS along major axis (world units)                 [deg]
#   8 B_WORLD                Profile RMS along minor axis (world units)                 [deg]
#   9 THETA_WORLD            Position angle (CCW/world-x)                               [deg]
#  10 FWHM_WORLD             FWHM assuming a gaussian core                              [deg]
#  11 ELONGATION             A_IMAGE/B_IMAGE                                           
#  12 ELLIPTICITY            1 - B_IMAGE/A_IMAGE                                       
         1 -12.1079    178.5851     42.9688   5.6065772207e+01   3.5108180415e+01     1.306785    0.9983347   4.66  0.006053517    1.667    0.400
         2 -10.0490    196.6653     10.2712   4.3955522900e+01   3.4357938249e+01    0.4875883    0.3907144  37.88  0.002430391    1.461    0.315
         3 -10.4159    198.0023     15.8270   4.5355964795e+01   3.3423491229e+01    0.5039074    0.3746508  72.27   0.00272738    1.254    0.203
         4 -10.2397    202.6915     12.0526   4.3795443218e+01   3.2633576440e+01    0.5340527    0.3359657 -40.19  0.002725537    1.550    0.355
         5  -9.7518     20.0255     12.2704   9.2198227752e+01   7.1164004037e+01    0.1619019     0.124879 -14.89 0.0006570801    1.080    0.074
         6  -9.5944      2.3986     10.2722   1.0074359181e+02   7.2870729145e+01    0.2178308    0.0736529 -47.20  0.001136077    2.128    0.530
         7  -8.1133    168.9636     10.1772   4.7322588111e+01   4.1540284117e+01    0.2077166    0.1735061 -74.01 0.0005171898    1.224    0.183
         8  -7.9972    136.0991      8.6897   5.1992679027e+01   5.0103384710e+01    0.1839468    0.1590069  48.64 0.0003795265    1.050    0.048
         9 -10.5395      7.4410      3.8780   9.4912174896e+01   7.3543898619e+01    0.3112698     0.254899 -58.78  0.002273035    1.889    0.471
        10  -9.4232     23.4002      3.9934   8.6272609915e+01   7.2050232280e+01    0.2631836    0.1441722  48.06  0.001303247    3.802    0.737
        11  -8.7778      1.8832      2.9987   9.7688716601e+01   7.4084210449e+01    0.2553823   0.08116631 -43.11  0.001321794    2.250    0.555
        12  -8.8705      4.4131    228.6422   1.3125880591e+02   2.6967830042e+01    0.1387081    0.1041783  84.88 0.0006166259    1.241    0.194
        13  -9.1361    124.8283    249.3106   1.1218275532e+02   7.8366497831e+00    0.2987953    0.1753948 -54.21  0.001650109    2.153    0.536
        14 -10.6096    123.0881    241.7922   1.1168447912e+02   9.2808881958e+00    0.3139021     0.233598  66.43  0.002094823    1.285    0.222
        15  -9.6490    101.2437    250.4230   1.1643296194e+02   1.1219798698e+01    0.2744555    0.1394189  45.30  0.001616205    1.533    0.348
        16  -9.6063    102.3389    245.9651   1.1582535219e+02   1.1776083189e+01    0.2241673    0.2024502 -86.80 0.0008237288    1.325    0.245
        17 -17.8677     39.1388    239.3504   1.2616399053e+02   2.1352722418e+01     2.977523     2.424124  68.83   0.01015162    1.248    0.199
        18  -9.9588     96.2188    196.4463   1.1156339068e+02   2.1790479798e+01    0.4412709    0.2157519  58.47  0.001256743    2.140    0.533
        19 -10.1562    123.9391    205.9713   1.0710630857e+02   1.5361185865e+01    0.2010389    0.1632921  57.79            0    1.069    0.064
        20  -9.4402    232.1757    198.0516   8.4719528235e+01  -2.6557321400e+00    0.3051206    0.2531753 -61.02   0.00181727    1.941    0.485
        21  -9.6803      2.5140    198.5859   1.3016762944e+02   3.2839920396e+01    0.1818233    0.1339948  73.10 0.0006465167    1.101    0.092
        22  -8.2039    128.5786    195.7941   1.0467907107e+02   1.6500770406e+01    0.1763148    0.1263674 -75.31 0.0009038852    1.638    0.389
        23  -8.2615    192.7894    194.1002   9.1302631215e+01   4.9452542105e+00    0.2565845    0.1615346 -62.25  0.001148541    2.709    0.631
        24  -9.7898    147.3237    223.2992   1.0487187024e+02   8.3103654042e+00    0.3872247    0.1826852 -63.66  0.001658349    3.473    0.712
        25  -9.1537    220.3594    193.0838   8.5906469738e+01   8.9680109655e-02    0.2771415    0.1733785  44.53  0.001462752    1.588    0.370
        26  -8.2860     24.3331    191.2542   1.2565852196e+02   3.2246286520e+01    0.1770457    0.1588084 -63.36 0.0007979288    1.529    0.346
        27  -7.9415      3.4354    192.0756   1.2965471558e+02   3.4061774526e+01    0.1500734   0.08142733 -85.18 0.0003362845    1.432    0.302
        28  -9.6026    250.6370    190.6223   8.0121002470e+01  -4.7068351337e+00    0.2078494    0.1085776 -30.39  0.000248624    1.842    0.457
        29  -8.7328    107.3767    189.1827   1.0821763766e+02   2.1472429060e+01     0.331173    0.2047819 -89.81  0.001400291    2.125    0.530
        30  -8.7166    221.1642    188.3876   8.4859463832e+01   6.4030114362e-01    0.2237107    0.1941992 -40.49 0.0002546103    1.383    0.277
        31  -9.1282    130.0005    186.5523   1.0293751980e+02   1.8068806130e+01    0.3728569    0.2464611 -86.80  0.001277713    2.134    0.531
        32  -8.8801    152.9532    222.4585   1.0367386992e+02   7.4851607076e+00    0.1997836    0.1064425  42.38 0.0005995789    1.565    0.361
        33  -8.5347    102.9790    183.1169   1.0830282961e+02   2.3470883566e+01    0.3675042    0.1815225 -67.41  0.001620224    2.284    0.562
        34  -8.4061    221.8267    183.6298   8.3808445286e+01   1.2351186902e+00    0.2061931    0.1657971  -6.75 0.0004382094    1.200    0.167
        35  -9.8482     25.7170    182.5200   1.2473008465e+02   3.3939721419e+01    0.4970139    0.2239762  25.78  0.002446548    3.289    0.696
        36  -9.0290    141.9830    181.2625   9.9460341157e+01   1.6908667104e+01    0.2388356    0.2058559 -55.01 0.0002101543    1.254    0.202
        37  -8.1460    247.9988    178.7039   7.8216224751e+01  -2.6499269843e+00    0.1778928    0.1494948  16.36 0.0003200411    1.102    0.093
        38  -8.7849     19.3515    177.3875   1.2562467685e+02   3.5663606841e+01    0.4482581    0.2147096  40.71  0.002589062    2.065    0.516
        39  -9.8386     23.4632    173.2389   1.2444943603e+02   3.6160844105e+01    0.3553724    0.2727306  69.88  0.001780407    1.141    0.124
        40  -9.1365     18.4958    173.4822   1.2550152223e+02   3.6584515524e+01    0.3027414    0.2143665  10.72  0.001794648    2.407    0.585
        41  -8.7987      3.0255    177.1948   1.2886985582e+02   3.7162235377e+01    0.1671147    0.1177767 -89.69 0.0003067371    1.085    0.079
        42 -10.5818    152.7808    217.3253   1.0297275953e+02   8.3582535253e+00    0.5293872    0.2901871  27.83  0.002463059    2.286    0.563
        43  -9.3510     35.2967    173.6812   1.2198484614e+02   3.4846730894e+01      0.52105    0.1744476  33.75  0.002329944    3.204    0.688
        44  -8.5994    104.9879    172.3138   1.0621494171e+02   2.5458793424e+01     0.261612    0.1839827  84.88  0.001324366    1.616    0.381
        45 -10.1541    189.5751    179.7351   8.9220519004e+01   7.9596570756e+00     0.271631    0.2591491 -16.97 0.0004415376    1.116    0.104
        46  -8.4698     36.4555    170.4581   1.2142929672e+02   3.5432106614e+01    0.1863136    0.1174725  71.80 0.0007433573    1.430    0.301
        47  -8.8879     32.4162    168.5774   1.2212846666e+02   3.6278668639e+01    0.2157698    0.1705616  86.26 0.0007157928    1.023    0.023
        48 -10.9198     75.1570    162.7165   1.1169991851e+02   3.2308536956e+01    0.7996682    0.3087381  52.53 0.0003039871    2.853    0.650
        49 -10.5530     79.4840    160.5423   1.1035614598e+02   3.2172209587e+01    0.5071156    0.3390305  68.18  0.002640391    1.555    0.357
        50  -9.7024     26.0079    164.8854   1.2318484590e+02   3.7746739428e+01    0.3989503    0.1974992  85.15   0.00122098    1.953    0.488
        51  -8.7589    209.9866    163.4860   8.1893226047e+01   6.7142724845e+00    0.2367941    0.1954733 -28.15 2.631805e-05    1.206    0.171
        52  -7.2705    195.6321    161.3033   8.4234114142e+01   9.9935182462e+00    0.1435649    0.1169656  85.44 0.0007034381    1.744    0.427
        53  -8.5728    234.0148    216.0605   8.7654489286e+01  -5.3205410554e+00    0.1803173    0.1469291  19.05  0.000348009    1.067    0.063
        54  -8.3548    107.6288    159.6139   1.0347865547e+02   2.7817457212e+01    0.4512461    0.2128772  64.33   0.00145391    3.880    0.742
        55 -13.8433     33.4270    222.0256   1.2606565826e+02   2.5167377187e+01    0.5325031    0.4106327  22.35  0.003717026    2.134    0.531
        56  -7.6211    137.8346    157.8585   9.6035656255e+01   2.2545141043e+01    0.1962274    0.1658671  84.87 0.0002650846    1.297    0.229
        57  -7.8607    111.6484    157.6572   1.0216910611e+02   2.7544029500e+01    0.2971552    0.1536311  59.93  0.001159393    2.450    0.592
        58 -10.3442     46.4927    155.6538   1.1754994166e+02   3.7656139339e+01    0.6005861    0.2340205  51.82   0.00261109    2.704    0.630
        59  -9.2680     39.3672    154.8568   1.1913623272e+02   3.8635523949e+01    0.2737845    0.1419229  53.54   0.00024127    1.931    0.482
        60  -9.7771     31.9974    157.2314   1.2110361680e+02   3.8866918865e+01    0.3233118    0.2501929   1.44   0.00199695    2.109    0.526
        61  -9.1376     28.3303    157.3059   1.2194861016e+02   3.9216641470e+01    0.2922597    0.1515646 -67.96  0.001039128    1.622    0.383
        62  -9.7193     22.6987    156.9670   1.2319086451e+02   3.9831914850e+01    0.2812256    0.1835091 -74.61 0.0006163261    1.264    0.209
        63  -8.6534     98.1355    156.1931   1.0516585807e+02   3.0219992891e+01    0.2255595    0.2095385  87.25 0.0003848535    1.053    0.050
        64  -8.1859    143.0442    208.6320   1.0362513377e+02   1.1559429845e+01    0.2199937    0.1856183  -1.43  0.001135011    1.580    0.367
        65  -7.9418    142.7845    153.6159   9.4029433667e+01   2.2459143936e+01    0.2037044    0.1353956  53.46 0.0002787993    1.521    0.343
        66  -9.4219    134.4545    208.0794   1.0527264227e+02   1.3161504429e+01    0.3099948    0.1951215 -66.58  0.001618398    1.957    0.489
        67  -7.7642    237.2007    152.3551   7.4526214022e+01   3.2137606948e+00     0.182143    0.1301431  54.76 0.0005455441    1.692    0.409
        68  -9.4330    102.6106    151.4603   1.0323404396e+02   3.0541998877e+01    0.3754635    0.3005371  35.58  0.001490242    1.379    0.275
        69  -8.9818    104.5815    147.8561   1.0207756582e+02   3.1026417206e+01      0.35361    0.2389502  47.32  0.001733019    1.469    0.319
        70 -10.3377     87.5447    150.1780   1.0673625476e+02   3.3331966576e+01    0.3350402    0.2786266 -56.29 0.0008880707    1.237    0.191
        71 -10.1741     25.6458    150.9496   1.2192867421e+02   4.0917064436e+01    0.4652623    0.1616711  31.57  0.002132575    3.193    0.687
        72  -8.8880    246.1832    228.1408   8.7651097362e+01  -8.6153106023e+00    0.1470809    0.1280719  23.49 0.0006296035    1.339    0.253
        73 -10.4749     38.7406    148.1051   1.1849888610e+02   4.0259223148e+01    0.4904028    0.2290948  35.15  0.002076311    2.336    0.572
        74 -10.8384     47.3632    146.2442   1.1615298267e+02   3.9739253978e+01    0.6125537    0.1835418  36.40  0.002458486    3.319    0.699
        75  -9.7680     25.3344    143.2286   1.2119073959e+02   4.2714056454e+01    0.3435601    0.1868177  51.37 0.0009555744    1.885    0.469
        76  -9.4716     10.6213    143.4641   1.2471994539e+02   4.3911404958e+01    0.2163346    0.1702324 -60.24 0.0006220105    1.369    0.269
        77  -9.7072     36.7708    142.4316   1.1829235754e+02   4.1784113142e+01    0.2554291      0.18722  86.02 0.0007268467    1.209    0.173
        78  -8.5796    167.0646    227.1538   1.0166161352e+02   4.3337899146e+00    0.1948665    0.1861151 -30.08 0.0008018417    1.261    0.207
        79  -8.0787     96.5515    140.9443   1.0278847577e+02   3.4015031119e+01    0.2583345    0.1780015  67.01  0.001032861    1.651    0.394
        80  -9.1320     17.3119    141.0893   1.2290398506e+02   4.3908852810e+01    0.1976214    0.1531604  60.98 0.0003556691    1.310    0.237
        81 -10.0816      3.5201    135.7457   1.2570771545e+02   4.6177338260e+01    0.4444666    0.2040265  78.78  0.002268144    2.232    0.552
        82  -8.9477      3.5489    130.3436   1.2520958792e+02   4.7395079920e+01    0.1844957    0.1747877 -36.84 0.0009134209    1.436    0.304
        83 -10.1189    107.2608    204.0025   1.1024595642e+02   1.8516387864e+01    0.6194933     0.405741   7.75  0.002497996    4.073    0.754
        84  -7.5314    166.8922    136.7749   8.4790089043e+01   2.0861545742e+01    0.2020318    0.1786789 -81.34 0.0005534126    1.291    0.225
        85  -8.8294    112.3067    136.5310   9.7861573050e+01   3.2236898110e+01    0.3222798    0.2499433  89.14  0.001583792    1.485    0.327
        86  -9.1848    101.0148    136.1407   1.0068826651e+02   3.4370062349e+01    0.2381969    0.2200491  63.88 0.0003559529    1.089    0.082
        87  -7.8600     25.1691    137.3609   1.2057671892e+02   4.4084165952e+01    0.1623462   0.09936275  48.55 0.0009416678    1.720    0.419
        88  -9.2279     30.7925    142.2739   1.1975094279e+02   4.2419070019e+01    0.2697891    0.1578269  78.98  0.001283676    1.735    0.424
        89  -9.8830     50.1629    131.9751   1.1340372018e+02   4.2781405425e+01    0.3120716    0.2241288  50.49  0.001406461    1.477    0.323
        90  -9.4683     43.5027    130.9155   1.1501385918e+02   4.3780146033e+01     0.238748     0.197937  41.09   0.00150747    1.391    0.281
        91  -8.6577     79.8042    129.4109   1.0497934459e+02   3.9429912682e+01    0.2490433    0.1302082  43.09  0.000743266    1.998    0.500
        92  -8.0491    105.6612    124.1201   9.6882563808e+01   3.6342772421e+01    0.2128433    0.1798117 -53.32 0.0005738048    1.143    0.125
        93  -8.7447     63.0403    123.4420   1.0846119449e+02   4.3226156429e+01     0.187936    0.1354941  36.46 0.0005428782    1.563    0.360
        94  -8.7902     34.9709    119.1472   1.1558457685e+02   4.7439459900e+01    0.2902083    0.1897474 -34.92  0.001578823    1.975    0.494
        95 -10.4666     96.4416    189.2446   1.1057751157e+02   2.3241394135e+01    0.8677862    0.4796997  87.24  0.003314549    2.666    0.625
        96  -8.9125    154.9561    113.0152   8.1598711396e+01   2.8487536079e+01    0.2265236    0.2217347 -11.20            0    1.049    0.046
        97  -8.2329      3.7556    113.2131   1.2341056388e+02   5.1277530893e+01    0.1466395   0.09387068  -6.02 0.0005764206    2.424    0.587
        98  -9.8300    211.0853    109.2023   6.8945384711e+01   1.6034853924e+01     0.309208    0.2482153  45.26 0.0003500041    1.297    0.229
        99  -8.2002    117.7582    109.7280   9.0130780230e+01   3.7311227691e+01     0.211392    0.1784268 -83.05 0.0007203798    1.339    0.253
       100  -8.0819    215.9948    105.6467   6.7171404955e+01   1.5529039816e+01    0.2026474    0.1958326  41.33 0.0004617998    1.089    0.081
       101  -7.6702     47.7519     98.5508   1.0812571059e+02   5.0981033811e+01    0.1627694    0.1224551  50.29 0.0008113809    1.538    0.350
       102  -7.3395     34.4874     93.4167   1.1129564823e+02   5.3524386805e+01    0.1274557    0.1064945 -65.23 7.662145e-05    1.031    0.030
       103  -8.3947     99.8442     90.0649   8.9838498868e+01   4.5182252297e+01    0.2143542    0.2008029 -45.19 0.0003344955    1.007    0.007
       104  -7.4815    156.8462     86.8133   7.3827882465e+01   3.3328290775e+01    0.2060663    0.1807389 -72.99 0.0002246388    1.261    0.207
       105  -8.2144    132.1369     73.9805   7.5886536342e+01   4.1692888250e+01    0.3157989    0.2029123  23.10  0.001250385    2.200    0.545
       106 -10.0376    114.7170     69.1768   7.9022986750e+01   4.6504477233e+01    0.2490447    0.2433435  11.04 0.0002471593    1.041    0.039
       107  -7.8052    125.7645     67.0045   7.5276691145e+01   4.4465762347e+01    0.2072271    0.1957685 -23.97  0.001108957    1.037    0.036
       108  -9.8184    210.8682     61.2245   5.6248137209e+01   2.4124028662e+01     0.406402    0.2919649 -17.96  0.001211331    1.608    0.378
       109 -11.0677    164.4164     57.1716   6.3091197274e+01   3.6668861003e+01    0.5624623    0.4643272 -13.04  0.002586434    1.349    0.259
       110  -8.1326    143.5135     59.5181   6.8365922273e+01   4.1564368469e+01    0.1506458    0.1498441 -82.95 -1.585643e-05    1.036    0.035
       111  -8.8098    133.8466    248.0948   1.1044694384e+02   6.6147377161e+00    0.1789802    0.1323389  59.48 0.0005282916    1.231    0.188
       112  -8.8506    184.9537     52.2849   5.7811008484e+01   3.2099272034e+01    0.2094985    0.1896544  63.29 0.0002287858    1.094    0.086
       113 -10.6062      4.6597     40.7465   1.1024363742e+02   6.7113666063e+01    0.3414265    0.2148758 -73.48  0.002100541    1.776    0.437
       114  -7.2944    159.2613     40.6926   5.8785920634e+01   4.0462267372e+01    0.1480833    0.1117175 -63.15 0.0002356829    1.525    0.344
       115  -9.9612     12.1176     27.3891   1.0251267275e+02   6.9224518544e+01    0.2542358    0.1042465 -37.64   0.00132583    2.000    0.500
       116 -10.7843      2.9044     24.7119   1.0609070961e+02   7.0295500257e+01    0.4460963    0.1352887 -45.51  0.002224761    2.215    0.548
       117 -10.1088      5.5058     16.4946   1.0167033289e+02   7.1612653832e+01    0.1989806    0.1323294   1.07  0.001383819    1.588    0.370
       118  -7.0306    150.6648    246.2974   1.0722395514e+02   4.2061385693e+00    0.1194887   0.07870022  61.32 0.0003241266    1.650    0.394
       119  -8.8641    247.8749    245.6537   9.0216845316e+01  -1.0734418306e+01    0.2274673   0.07625768  33.35   0.00108859    2.518    0.603
       120  -9.4850    109.9332    243.0947   1.1419350712e+02   1.1103043242e+01    0.3428519    0.1002815  49.56   0.00144025    2.856    0.650
       121  -7.8559    154.8239    242.1876   1.0596191141e+02   4.1319042729e+00     0.163453    0.1248841  28.22   0.00082224    1.326    0.246
       122  -8.8674     96.3003    201.6707   1.1219798193e+02   2.0723988578e+01    0.2454397    0.1920824  83.97 0.0007946717    1.214    0.176
       123 -10.6263    183.5253     36.6557   5.3356260093e+01   3.4674076159e+01    0.6441519    0.3924216 -13.19  0.001750782    2.119    0.528
       124 -10.8331     99.4952    200.0006   1.1133235983e+02   2.0554778617e+01    0.6812022    0.3375134  69.25  0.002145464    2.997    0.666
       125  -9.9849    141.1693    228.6491   1.0675932150e+02   8.4729586241e+00    0.2604231      0.20981 -83.77  0.001224673    1.506    0.336
       126  -9.7300    133.7996    229.5252   1.0826450722e+02   9.5501854004e+00     0.201723    0.1750124 -69.51   0.00064619    1.357    0.263
       127  -8.8515    185.3690    225.6677   9.8018410521e+01   1.4381722793e+00    0.4625762     0.161966 -45.90  0.001946229    3.592    0.722
