#   1 NUMBER                 Running object number                                     
#   2 MAG_AUTO               Kron-like elliptical aperture magnitude                    [mag]
#   3 X_IMAGE                Object position along x                                    [pixel]
#   4 Y_IMAGE                Object position along y                                    [pixel]
#   5 X_WORLD                Barycenter position along world x axis                     [deg]
#   6 Y_WORLD                Barycenter position along world y axis                     [deg]
#   7 A_WORLD                Profile RMS along major axis (world units)                 [deg]
#   8 B_WORLD                Profile RMS along minor axis (world units)                 [deg]
#   9 THETA_WORLD            Position angle (CCW/world-x)                               [deg]
#  10 FWHM_WORLD             FWHM assuming a gaussian core                              [deg]
#  11 ELONGATION             A_IMAGE/B_IMAGE                                           
#  12 ELLIPTICITY            1 - B_IMAGE/A_IMAGE                                       
         1 -12.9178    156.5397     15.6360   4.4104013028e+01   4.3998510258e+01    0.7337319    0.4874786  -2.12  0.003789488    1.875    0.467
         2 -11.4177    163.0258      2.4783   3.9251639389e+01   4.3612357764e+01    0.3229605    0.2068565  55.08  0.001785626    1.438    0.304
         3 -11.3071     86.3072    248.8445   1.1363544415e+02   1.2154256965e+01     0.134509    0.1188639 -83.64 0.0007817152    1.234    0.190
         4 -16.5139    241.8589    224.0412   8.0521851468e+01  -6.7221241911e+00     4.321134     1.415395 -35.25   0.01909923    2.926    0.658
         5 -21.0826    109.3987    182.8384   1.0046991617e+02   2.2005323930e+01     9.877344     8.246969  36.56   0.05415495    1.211    0.174
         6 -11.2102    190.5799    229.9110   9.0966690265e+01  -1.0219435168e-01    0.1582104    0.1365562  -2.58 0.0003475696    1.108    0.097
         7 -10.2666    193.1500    227.0133   8.9994978766e+01  -5.4998210488e-02    0.1241944   0.08554891 -33.57            0    1.526    0.345
         8  -9.8653    178.9950    227.0732   9.2758889501e+01   2.1262702093e+00    0.1590942    0.1327376   2.37 0.0002905275    1.140    0.123
         9  -9.9567    182.5402    224.7069   9.1677034253e+01   1.9485424858e+00    0.1479509    0.1119558  14.58 0.0002293847    1.239    0.193
        10 -11.7812    204.6857    215.9293   8.5870433581e+01  -1.3587204420e-01    0.1966832    0.1686022  20.73 0.0003282308    1.151    0.131
        11 -10.9602    214.6296    211.0923   8.3109319564e+01  -9.3291794243e-01    0.1970252    0.1547969  17.43 0.0003652706    1.129    0.114
        12  99.0000    209.6275    209.2459   8.3716722090e+01   1.3004611743e-01    0.3043881    0.2442309 -82.19  0.001573594    2.623    0.619
        13 -10.9901    201.7041    206.0791   8.4658751971e+01   1.8956376293e+00    0.2226717     0.169288  33.65 0.0003053279    1.297    0.229
        14 -10.5455    198.5837    204.2107   8.4922812611e+01   2.7081641576e+00    0.1777323    0.1511874   9.66  0.000365308    1.031    0.030
        15  -9.9236    205.3188    204.7579   8.3711758977e+01   1.5270249127e+00    0.3016538    0.2089561  53.92  0.001556918    2.077    0.519
        16 -10.5656    208.0221    202.0338   8.2678107181e+01   1.5312865303e+00    0.3401767    0.2037567 -41.02 0.0003727136    1.761    0.432
        17 -10.9542    206.1113    198.8680   8.2444603816e+01   2.3578435838e+00    0.1985724    0.1566493  -3.90 0.0002723397    1.169    0.145
        18  -8.2739    201.4379    197.8033   8.3152734704e+01   3.3047597584e+00    0.1706477    0.1172636 -19.87 0.0004478615    1.463    0.317
        19 -10.8450    219.0553    194.9977   7.9226314971e+01   8.8635807510e-01    0.3559293    0.2603236  55.53  0.001888108    2.074    0.518
        20 -10.2104    212.1208    196.6151   8.0853676358e+01   1.7458444530e+00     0.235141    0.2134925  13.87  0.001416331    1.190    0.160
        21 -10.5621    212.9276    188.3215   7.9065196245e+01   2.9793014010e+00    0.3167405     0.172862 -37.33 0.0008929447    1.760    0.432
        22  -9.4152      2.6574    158.5031   1.2276631042e+02   4.0283000917e+01    0.3287053    0.1978895 -59.05  0.001992329    1.548    0.354
        23  -8.9017    129.1427    249.2833   1.0561272318e+02   6.1017601016e+00    0.1754851    0.1610598 -64.97  0.001265256    1.290    0.225
        24  -8.1805      6.4367    151.9440   1.2131089992e+02   4.1547222161e+01    0.2076482    0.1467268  63.75  0.001094929    1.424    0.298
        25  -9.4200      2.1076    150.8387   1.2224451704e+02   4.2104609910e+01      0.32542     0.143114  78.46  0.001497128    2.568    0.611
        26 -11.3909    124.8291    245.3951   1.0597437611e+02   7.3713045645e+00    0.2754884    0.1570836 -44.20   0.00152531    2.154    0.536
        27 -16.7884     11.1404    229.4555   1.2576853430e+02   2.4376669664e+01     3.458633     1.290608 -80.94   0.01866028    2.376    0.579
        28  -8.9321      3.4788    145.4910   1.2143001865e+02   4.3269506829e+01    0.1240849     0.092692 -67.82 0.0002415457    1.157    0.136
        29 -11.0786     14.2025    141.4754   1.1832521859e+02   4.3471409052e+01    0.2616242    0.1941146  26.16  0.001252022    1.682    0.405
        30 -10.5409     18.8346    134.0137   1.1622170295e+02   4.4921559190e+01    0.1830153    0.1547307 -72.32 0.0002907707    1.066    0.062
        31  -9.0178     13.0118    133.9468   1.1777739143e+02   4.5369698844e+01    0.1362076    0.1129116 -76.11            0    1.054    0.051
        32 -12.1883    112.3803    250.1179   1.0888702705e+02   8.3646622183e+00    0.2202074    0.1420628  45.81  0.001026712    1.303    0.233
        33  -9.2641     11.3288    129.6290   1.1771812929e+02   4.6527910432e+01    0.1851456   0.08519473 -63.75 0.0007939123    1.653    0.395
        34 -10.0247     15.0280    128.3176   1.1654223001e+02   4.6585211780e+01    0.1993917    0.1421586 -71.53 0.0005358717    1.109    0.098
        35 -10.1002      6.8997    125.4516   1.1843203509e+02   4.7823363444e+01    0.1741346    0.1288871 -71.66 0.0002981446    1.045    0.043
        36  -8.9612     23.3620    117.3911   1.1261309178e+02   4.8615131465e+01    0.1978411    0.1212716 -44.36  0.001067037    1.581    0.367
        37 -12.3033     77.0338    250.0993   1.1545169842e+02   1.3141748799e+01    0.1977068    0.1249104  59.52  0.001255903    1.404    0.288
        38  -9.5170     38.2399    106.0020   1.0598331250e+02   5.0093421264e+01    0.1930152    0.1826645 -44.59 0.0003241743    1.146    0.127
        39 -11.5491     79.6280    246.4222   1.1464899439e+02   1.3459030145e+01    0.1903483    0.1303368  75.89  0.001221797    1.486    0.327
        40 -11.5327     56.1830    250.4729   1.1921982423e+02   1.5649113889e+01    0.1429071   0.09986958  47.95 0.0004124323    1.229    0.186
        41  -9.5911     15.3412    100.0287   1.1228275420e+02   5.3382429711e+01    0.1831128    0.1326112 -63.70 0.0004076526    1.092    0.084
        42 -11.3237     42.1964     97.8390   1.0295796743e+02   5.1662664926e+01    0.4583555    0.2485767 -35.62  0.001079753    1.951    0.487
        43 -10.2323    164.4277     97.4480   6.7458086665e+01   2.9982617240e+01    0.2735091    0.2575826 -29.43 0.0006098113    1.012    0.012
        44 -11.1613     74.5670     95.1083   9.1511013168e+01   4.8258598924e+01    0.4944609    0.1882937 -50.02  0.001428973    2.317    0.568
        45 -11.4563    156.9309    248.3413   1.0019014063e+02   2.1650438393e+00    0.2950193    0.1051448  33.69  0.001267799    2.571    0.611
        46 -10.7290    152.7955    246.4455   1.0072590982e+02   3.0711816156e+00    0.1379495    0.1098665  62.96 0.0006741787    1.555    0.357
        47 -10.5150     47.5245     89.5045   9.9158497759e+01   5.3056897626e+01    0.2302932    0.2002813 -68.83   0.00054334    1.245    0.197
        48 -11.0802     44.3540     86.6594   9.9552127110e+01   5.4057122669e+01    0.2499762    0.2433488 -17.02 0.0008092432    1.190    0.159
        49 -10.2180     38.0632     90.0674   1.0259399834e+02   5.3904122912e+01    0.2016249    0.1671142 -50.53 0.0003075882    1.025    0.024
        50 -11.3486     64.9003    247.1112   1.1740426185e+02   1.5198801021e+01    0.2407153    0.1329912  61.63  0.001432133    1.680    0.405
        51 -10.4454     47.9447    247.0227   1.2042225354e+02   1.7230332567e+01    0.1365153    0.1090704  80.68  0.000332981    1.126    0.112
        52 -10.4565     17.7634     87.9745   1.0924158133e+02   5.6064067656e+01    0.1874064    0.1768813 -52.28 0.0002522869    1.194    0.163
        53 -10.5015     43.4218    245.7730   1.2112967649e+02   1.7971112502e+01    0.1267987    0.1024006 -89.23 0.0003300646    1.215    0.177
        54 -10.3209    181.4542    245.0342   9.5062087593e+01  -9.7285573810e-01    0.1382668    0.1161727 -27.14 0.0003950252    1.327    0.246
        55  -9.9032    156.0005     81.7327   6.4766712274e+01   3.4864348060e+01     0.251992    0.2107786 -34.61 0.0003360284    1.153    0.133
        56  -9.5723    157.1427    242.2034   9.9307538942e+01   3.0848887127e+00    0.2440069   0.07778772 -43.15 0.0009842305    3.692    0.729
        57  -9.9466     65.4029     82.1603   9.0917666021e+01   5.2488447999e+01    0.2226689    0.1824764  -0.77 0.0005202157    1.305    0.234
        58 -10.3895    137.9209    240.6221   1.0283604767e+02   6.2336153789e+00    0.1036166    0.0639717 -44.77  0.000207377    1.887    0.470
        59 -10.5157     49.9918     81.5444   9.6187777218e+01   5.4593848453e+01    0.2099906    0.1599239 -46.65 0.0001476847    1.117    0.105
        60 -10.3142    210.0295    236.1609   8.8325239704e+01  -3.8921540863e+00    0.1429092    0.1172406  10.67            0    1.058    0.055
        61 -10.9963    168.0010    235.6487   9.6247213375e+01   2.4678688778e+00    0.1065662   0.09649669 -14.98 0.0003410727    1.186    0.157
        62  -9.1989    157.0486    234.5150   9.8230554632e+01   4.3330223165e+00    0.2754313    0.1068444  39.41  0.001214784    2.238    0.553
        63 -10.8262    118.0559     77.0388   7.2724819553e+01   4.4207917714e+01    0.2315707    0.2175468 -20.52 0.0004116128    1.036    0.034
        64 -10.5877     93.9053     76.3237   7.9623861166e+01   4.9112831037e+01    0.2693832    0.1958829 -37.79 0.0004214785    1.276    0.217
        65 -10.4741     90.9460     73.4727   7.9625015949e+01   5.0220033641e+01    0.2632101    0.2038562 -53.57 0.0008878967    1.459    0.315
        66 -10.3453    181.8957    232.8614   9.3116013596e+01   7.7407715934e-01    0.1309556   0.07369412 -38.69 0.0002598836    1.943    0.485
        67 -11.1512     49.5079     75.4139   9.4624176556e+01   5.6007940978e+01    0.3000741    0.2300202 -41.63  0.001718223    1.094    0.086
        68 -10.6687     82.9075     72.9822   8.2080426460e+01   5.1723883118e+01    0.2631589    0.2123768 -34.22 0.0003599916    1.125    0.111
        69 -10.5264    113.9767     72.1361   7.2259781288e+01   4.5987472337e+01    0.2599099    0.2095948 -34.05 0.0004752176    1.189    0.159
        70 -11.8839    163.5543    233.3522   9.6775788792e+01   3.5185217369e+00    0.1466237     0.129304  20.50  0.000471043    1.035    0.033
        71 -10.1724    124.6406    250.7299   1.0663789469e+02   6.5165098220e+00    0.2472586   0.08180851  43.36  0.001078783    2.535    0.606
        72 -10.5352     66.9271     70.3266   8.6709379637e+01   5.4791605193e+01    0.1954511    0.1733375   0.33  0.000915072    1.134    0.118
        73 -10.3225     47.0604     68.9598   9.3608474609e+01   5.7682907971e+01    0.2081708    0.1735108 -32.95   0.00049742    1.012    0.012
        74 -12.2556    175.0724    231.4811   9.4227421951e+01   2.0371840561e+00    0.2775626    0.1389445  33.93  0.001379059    1.772    0.436
        75 -11.0426    170.8252    231.9682   9.5135451954e+01   2.6164829476e+00    0.1323634    0.1179376 -16.64 0.0003347257    1.188    0.158
        76 -10.7140    195.6686    231.4424   9.0243254575e+01  -1.1022815819e+00    0.1192231    0.1030875   7.14 0.0001836785    1.082    0.076
        77 -11.9887    199.6749    228.5788   8.9008077280e+01  -1.2819141689e+00    0.2832949     0.229579  54.88  0.001724647    1.763    0.433
        78 -11.3806    145.3018    249.2916   1.0253271014e+02   3.7356857970e+00    0.1228607   0.09555122 -10.39 0.0007677019    1.609    0.378
