#   1 NUMBER                 Running object number                                     
#   2 MAG_AUTO               Kron-like elliptical aperture magnitude                    [mag]
#   3 X_IMAGE                Object position along x                                    [pixel]
#   4 Y_IMAGE                Object position along y                                    [pixel]
#   5 X_WORLD                Barycenter position along world x axis                     [deg]
#   6 Y_WORLD                Barycenter position along world y axis                     [deg]
#   7 A_WORLD                Profile RMS along major axis (world units)                 [deg]
#   8 B_WORLD                Profile RMS along minor axis (world units)                 [deg]
#   9 THETA_WORLD            Position angle (CCW/world-x)                               [deg]
#  10 FWHM_WORLD             FWHM assuming a gaussian core                              [deg]
#  11 ELONGATION             A_IMAGE/B_IMAGE                                           
#  12 ELLIPTICITY            1 - B_IMAGE/A_IMAGE                                       
         1 -13.0508    198.9433     33.6399   6.2305803286e+01   3.2048692792e+01     1.076882    0.7973272  61.50  0.006418493    1.344    0.256
         2 -13.8385    213.0710     17.5234   5.7246126127e+01   3.0816168619e+01     1.329246     1.036717  34.65  0.008227865    2.002    0.500
         3 -10.7022      1.9454      3.9511   1.0610720585e+02   7.2329447614e+01    0.3510451    0.1060844 -39.95  0.001839971    2.932    0.659
         4 -10.0339     40.2385    229.1381   1.3885084156e+02   2.1324997052e+01    0.2603432     0.151191  63.49 0.0007443096    1.538    0.350
         5 -11.4594    139.7096    249.0632   1.2057126417e+02   2.2104492880e+00    0.3303758    0.2604586  57.75  0.001952372    1.267    0.211
         6 -11.9319    127.1478    248.9188   1.2316019546e+02   4.3083559852e+00    0.4275656    0.3467036 -44.43  0.002393031    1.472    0.321
         7 -12.6248    105.0583    243.0473   1.2701115481e+02   9.0491576589e+00    0.7171789    0.4692236  84.22  0.003686778    1.886    0.470
         8  -9.8302     63.5883    250.4796   1.3617553150e+02   1.3749560348e+01    0.2847004    0.1135158  36.06 0.0008164755    2.521    0.603
         9 -14.7167     17.1643    243.7954   1.4430575641e+02   2.0897695150e+01     9.270557     2.427898  28.98   0.02875573    7.863    0.873
        10 -15.0618      7.4849    146.8575   1.3802860510e+02   4.3902816763e+01     5.776079     1.320491 -75.68   0.01726271    5.032    0.801
        11 -11.1648     47.2251    235.3799   1.3801361545e+02   1.9094000786e+01    0.5154206    0.2280256  71.13  0.002216808    2.779    0.640
        12 -14.1936      9.2611    209.9903   1.4346477491e+02   2.8980723333e+01     3.179475     0.959088 -78.78  0.006029637    2.968    0.663
        13  -9.7049    192.2543    193.2523   9.9833477974e+01   3.8424241409e+00    0.4820449    0.2505216 -67.94  0.001197267    7.131    0.860
        14 -11.5149     59.0766    192.0909   1.3081214842e+02   2.7481931902e+01    0.4132594    0.2544775 -47.43  0.001059956    1.896    0.473
        15  -8.4196    181.5200    192.4688   1.0196725834e+02   6.0062427289e+00    0.1451892    0.1394981   1.65  3.37007e-05    1.005    0.005
        16 -11.6424     65.2011    184.8568   1.2836587034e+02   2.8412824348e+01    0.3208353    0.2660533 -55.45 0.0004135188    1.273    0.214
        17 -10.8232     75.4966    173.1535   1.2401359143e+02   2.9833134780e+01    0.2720134    0.2374838 -60.97 0.0004338267    1.135    0.119
        18 -13.1382     62.2793    170.3475   1.2697902193e+02   3.2418214465e+01    0.5705215    0.2889488 -45.65  0.001877672    2.256    0.557
        19 -11.7917     83.4272    164.6460   1.2049751603e+02   3.0747650701e+01    0.6705828    0.5943829  64.39  0.003686477    1.133    0.118
        20 -14.5862     42.4272    200.4338   1.3561956558e+02   2.7601216383e+01     6.033495     2.105483  63.61   0.01675991    6.220    0.839
        21  -9.6409     96.6230    149.3943   1.1399820515e+02   3.2379364851e+01    0.2789885    0.2662277 -25.79 0.0007665413    1.148    0.129
        22 -12.2942     67.5551    143.9188   1.2105669217e+02   3.8315155873e+01    0.7641966    0.5511087  75.56  0.003044609    1.691    0.409
        23 -11.8883     57.7001    132.7260   1.2177419596e+02   4.2402566062e+01     1.142235    0.4520062 -73.28  0.003266694    4.802    0.792
        24 -11.8724     85.0383    148.1788   1.1695758448e+02   3.4618296488e+01    0.3195979    0.2580417 -44.85 0.0005448031    1.254    0.203
        25  -8.9924     99.9063    145.1281   1.1219717155e+02   3.2859373293e+01    0.2453887    0.1849657 -21.01  0.001112894    1.749    0.428
        26  -9.3070    108.8187    135.3089   1.0754467814e+02   3.3622066746e+01    0.3387705    0.2179473 -21.94  0.001229556    2.446    0.591
        27  -9.6563     68.5025    134.9394   1.1902802849e+02   4.0406273188e+01    0.2080564     0.198213  40.13 0.0004601577    1.147    0.128
        28 -10.4025     95.7841    132.3185   1.1052862042e+02   3.6719160577e+01    0.2696931    0.2336099 -29.02 0.0006646133    1.246    0.197
        29 -11.1075    150.8889    228.6775   1.1515184936e+02   4.2145725358e+00    0.3470822    0.2391272  52.52  0.001774239    1.481    0.325
        30  -9.1633    106.1391    122.6308   1.0527634597e+02   3.7137209466e+01    0.1999063    0.1881423  28.74 0.0003485646    1.110    0.099
        31 -13.8565     38.1006    215.7677   1.3808292938e+02   2.4564752584e+01    0.9913273    0.7538496  78.46  0.002877285    1.085    0.078
        32  -8.7138    203.4517    111.4894   7.9742566175e+01   1.8303736897e+01    0.1468122    0.1379713 -55.71 0.0001049425    1.063    0.060
        33 -10.0571    167.8525    112.8655   8.7154215926e+01   2.6071633111e+01    0.3751273    0.2853946 -81.59  0.001241034    1.619    0.382
        34 -11.1998    243.8989     94.1827   6.9645913094e+01   1.2954293167e+01    0.2524673     0.197283 -38.63  0.001459736    1.321    0.243
        35  -9.0146     95.4737    219.4713   1.2604634647e+02   1.5619721014e+01    0.1386164    0.1238598  69.06  0.000143729    1.023    0.022
        36 -13.8429     94.5165    230.1281   1.2764099925e+02   1.3429346587e+01     1.645168    0.8254748  49.69  0.004823034    1.824    0.452
        37 -12.5743     31.1230    224.1356   1.4023766740e+02   2.3512435903e+01    0.3360358    0.3000673 -82.99 0.0007680018    1.284    0.221
        38 -11.1838    177.7111    248.9778   1.1273026518e+02  -4.0126110101e+00    0.5208305    0.1993016  26.96  0.001785257    3.828    0.739
        39 -11.1335     90.1327    246.1350   1.3045590878e+02   1.0759155161e+01    0.2882511    0.1769243 -88.09  0.001483219    1.923    0.480
        40 -10.3696    225.9111    200.8149   9.4594186113e+01  -3.4503198392e+00    0.4751323    0.2757995 -60.71  0.001536331    3.039    0.671
        41 -10.5354     16.7058     25.4701   1.0775631591e+02   6.8202008249e+01    0.2017178    0.1693086  15.63 0.0006882009    1.422    0.297
