#   1 NUMBER                 Running object number                                     
#   2 MAG_AUTO               Kron-like elliptical aperture magnitude                    [mag]
#   3 X_IMAGE                Object position along x                                    [pixel]
#   4 Y_IMAGE                Object position along y                                    [pixel]
#   5 X_WORLD                Barycenter position along world x axis                     [deg]
#   6 Y_WORLD                Barycenter position along world y axis                     [deg]
#   7 A_WORLD                Profile RMS along major axis (world units)                 [deg]
#   8 B_WORLD                Profile RMS along minor axis (world units)                 [deg]
#   9 THETA_WORLD            Position angle (CCW/world-x)                               [deg]
#  10 FWHM_WORLD             FWHM assuming a gaussian core                              [deg]
#  11 ELONGATION             A_IMAGE/B_IMAGE                                           
#  12 ELLIPTICITY            1 - B_IMAGE/A_IMAGE                                       
         1 -12.9105    231.0738     55.2222   7.4328412565e+01   2.0477099023e+01     2.165703    0.6259955 -21.06  0.006571944    3.653    0.726
         2 -13.7633    230.4738     80.0785   8.1258940962e+01   1.7519819421e+01     3.048764     1.643889   0.17    0.0118624    2.539    0.606
         3 -12.8648    248.2935     62.0211   7.3959024794e+01   1.5719089274e+01     2.698447    0.8241538 -23.61  0.009312784    2.955    0.662
         4 -11.7923    247.8143     43.0650   6.8913530519e+01   1.7955910002e+01     1.154018    0.6447222  -9.20   0.00518589    1.884    0.469
         5 -11.1973    246.3924     22.5796   6.3475854444e+01   2.0406580734e+01    0.7240908    0.4760989  17.24  0.003568456    1.796    0.443
         6 -11.3417    224.0797     20.7729   6.5210541124e+01   2.6004118423e+01     1.350218    0.3800254 -15.63  0.003881563    4.305    0.768
         7  -9.6357     29.6718     13.0868   1.1169738414e+02   6.9773818192e+01    0.2025992    0.1659656 -22.83 0.0002361516    1.135    0.119
         8  -8.7011     80.2711     12.6483   9.0258573374e+01   6.2442269163e+01    0.2642269    0.1459468 -39.01  0.001243786    1.812    0.448
         9  -8.5644     69.9585     12.3666   9.3790394994e+01   6.4350370166e+01    0.1798547    0.1536404   2.49 0.0004438438    1.099    0.090
        10  -9.1039     15.8507     11.0382   1.1786467348e+02   7.1388560485e+01    0.1794741    0.1428917 -30.63 0.0003029482    1.145    0.127
        11 -10.1209     96.1302      9.4480   8.3686844750e+01   5.9668540321e+01     0.275166    0.1896179 -29.53  0.001049143    1.392    0.282
        12 -10.3316    117.6504      9.0895   7.7895031592e+01   5.4827297593e+01    0.2733977    0.1957714  40.96 0.0005985571    1.333    0.250
        13 -10.9982    104.5900      5.9366   7.9656394542e+01   5.8217806709e+01    0.7084059    0.4188492 -38.52  0.003303309    1.834    0.455
        14 -10.9963    110.6372      4.2758   7.7343330872e+01   5.7004125372e+01    0.4540079    0.3154846 -24.47            0    1.392    0.282
        15  -8.2992     21.5193      8.9922   1.1396888438e+02   7.1309069812e+01    0.1807534   0.09442645 -49.35 0.0004874304    1.526    0.345
        16  -8.9881    133.2009      7.9720   7.4024350465e+01   5.1117407905e+01    0.2160298    0.1942492 -42.13 0.0004464849    1.243    0.195
        17 -10.4570    127.2298      4.2022   7.3605286974e+01   5.2992701006e+01    0.4484362    0.3163967 -31.00  0.001661366    1.451    0.311
        18 -10.1899     17.0878      5.3635   1.1465280377e+02   7.2364406295e+01    0.3060148    0.1951244   7.57  0.001924514    1.888    0.470
        19  -9.9467     12.0308      5.6171   1.1757994647e+02   7.2712265074e+01    0.2074879    0.1336357 -46.30 0.0003385256    1.156    0.135
        20  -8.4714      4.1623      6.2600   1.2229875295e+02   7.3104384930e+01    0.2020894   0.06941891 -36.59 0.0009398252    2.727    0.633
        21  -9.0785     55.4364      3.1528   9.4633234860e+01   6.8102231057e+01    0.3792602    0.1089157 -33.67  0.001420404    3.013    0.668
        22  -9.7406     50.9319      3.6637   9.6852735526e+01   6.8715141449e+01    0.2243462    0.1545806 -27.48 0.0002624567    1.202    0.168
        23  -8.2799    153.5678      3.2665   6.8456038334e+01   4.6273524839e+01    0.1940328    0.1372267   4.11 0.0003047639    1.467    0.318
        24  -7.9945      5.1566      1.3653   1.1962521169e+02   7.3986353643e+01     0.117692    0.1031313  27.23 0.0008939207    1.561    0.359
        25 -10.4527    242.6427    200.9132   1.0540678270e+02   1.0957096796e+00    0.3365576    0.2337845 -11.29   0.00108477    1.454    0.312
        26  -9.9886    226.2364    249.8005   1.1494462121e+02  -7.3492398522e-01    0.3104014    0.1352577  38.20  0.001392097    1.591    0.371
        27  -9.4644    218.3834    247.8150   1.1585172730e+02   5.0757024023e-01    0.2542321     0.178294 -33.14  0.002032699    2.013    0.503
        28 -10.7087    209.2576    248.0904   1.1724183803e+02   1.7539772393e+00    0.5045019     0.295761  40.50  0.003626692    1.275    0.216
        29  -9.1567    168.0444    249.9941   1.2368603323e+02   7.3395992396e+00       0.1526    0.1068301  39.16 0.0003249768    1.024    0.024
        30  -7.9523     48.3374    250.2858   1.4170614890e+02   2.2200433415e+01   0.07366772   0.06420969  40.92 0.0003861163    1.630    0.387
        31 -10.0804    246.5373    225.6249   1.0865895104e+02  -1.6270732163e+00    0.2598415    0.2499114   7.95  0.001604091    1.751    0.429
        32 -11.2640    239.3792    218.9857   1.0874678823e+02  -3.8003150908e-02    0.6003318    0.5679342  61.80  0.004245841    1.881    0.468
        33 -10.7518    248.5667    213.0130   1.0644362789e+02  -8.7154866218e-01    0.5766057    0.2921538 -10.36  0.003008824    2.244    0.554
        34  -9.8049    246.7595    206.8698   1.0574337538e+02  -6.9861959446e-02       0.3165    0.1795269 -33.05  0.001466298    2.257    0.557
        35  -8.6713    206.0859    225.9189   1.1489186258e+02   4.2644418248e+00    0.1533014    0.1412751 -51.03  0.001156204    1.704    0.413
        36  -9.0509     16.5619    223.2557   1.4524563055e+02   2.9130113713e+01    0.1649787   0.06964248 -89.69  0.001154614    2.161    0.537
        37  -7.7585    130.4687    223.5240   1.2692595715e+02   1.5740253467e+01    0.1071753   0.08160348  48.21 6.330998e-05    1.001    0.001
        38 -10.8533    207.4836    211.3158   1.1261052787e+02   5.5372766602e+00    0.7650477    0.4327781  40.30  0.004808004    1.390    0.280
        39 -10.2826    193.1959    216.6329   1.1569164421e+02   7.1881652177e+00    0.3868504    0.2703536  13.37  0.002654798    1.542    0.351
        40  -9.5361    186.0163    217.1445   1.1693707325e+02   8.2398606534e+00    0.2567268    0.1914833 -52.61  0.001808777    1.984    0.496
        41 -10.5779    176.8946    210.4616   1.1755359392e+02   1.0437384134e+01     0.269456    0.1884624 -48.79  0.001822486    1.935    0.483
        42 -10.2788    199.4649    215.4920   1.1451219835e+02   6.3418409824e+00     0.445045    0.1803629  47.36  0.002078291    2.231    0.552
        43  -7.9941    132.4125    213.2732   1.2550106946e+02   1.6847198200e+01    0.1079218   0.07602952  22.96 0.0003519873    1.781    0.439
        44  -9.2618    186.6665    210.4306   1.1590918795e+02   8.9044953462e+00    0.1666397    0.1061963 -34.42   0.00108104    1.956    0.489
        45 -10.3126      6.6940    197.1460   1.4580740119e+02   3.4106669548e+01    0.4030276    0.2062815 -66.27  0.002884442    2.183    0.542
        46 -10.4589      9.0107    208.4932   1.4586178547e+02   3.2073888169e+01    0.2797719    0.1212468  68.09  0.001160442    1.776    0.437
        47 -10.2015      7.0000    205.0294   1.4605275932e+02   3.2797025809e+01    0.2958675     0.132964 -82.67  0.002132226    1.951    0.487
        48  -7.7777    229.2959    208.2925   1.0866940740e+02   2.4535958315e+00     0.114796    0.0677084  19.62 0.0006876531    1.559    0.358
        49  -8.5463    224.9702    207.5589   1.0923819002e+02   3.1936907779e+00    0.1663237    0.1319113   5.70  0.001128231    1.214    0.176
        50 -10.8143    171.2469    214.3640   1.1902280918e+02   1.0845586030e+01    0.5692605    0.2309468 -41.12  0.003026116    3.173    0.685
        51  -8.8667    235.0782    203.3216   1.0697543117e+02   2.0365064826e+00    0.1637318    0.1570551   0.96 0.0008226188    1.562    0.360
        52  -9.4048    249.8862    201.3062   1.0436106126e+02  -4.5210767363e-02    0.2619356    0.1778733  -7.90  0.001822682    1.424    0.298
        53  -9.0221    227.6408    201.7828   1.0790246099e+02   3.3483510609e+00    0.2039469    0.1035455 -33.27  0.001175058    2.358    0.576
        54  -9.3368    224.7564    194.0964   1.0711098646e+02   4.5948388387e+00    0.1826547    0.1652338 -27.77  0.001082059    1.525    0.344
        55  -8.2385    223.5233    201.5107   1.0851737311e+02   4.0263584056e+00    0.1166796   0.08869214  25.56 0.0002030592    1.024    0.023
        56  -8.6824    230.8605    198.6073   1.0687535304e+02   3.1566030469e+00    0.2226935    0.1512994 -24.79 0.0009339885    1.666    0.400
        57  -8.7283    230.8264    193.5788   1.0604685147e+02   3.6686846274e+00     0.192695    0.1005642 -25.93  0.001101151    2.108    0.526
        58  -8.8586    227.5771    215.7684   1.1007856638e+02   2.0075583847e+00    0.2704543    0.1823564 -39.42   0.00183309    2.180    0.541
        59  -9.0508    176.3254    197.8295   1.1587102005e+02   1.2098506767e+01    0.2031686    0.1066266 -50.08  0.001090368    2.670    0.626
        60  -8.9949     75.2006    217.3962   1.3560214963e+02   2.3882737452e+01     0.149941   0.06813311  49.65  0.000948455    1.675    0.403
        61  -8.4849    219.5335    194.9902   1.0810884994e+02   5.3479827474e+00    0.1536096    0.1099289 -21.70 0.0006509811    1.553    0.356
        62  -7.8280    223.6696    184.3171   1.0562427509e+02   5.8229723415e+00    0.1053221    0.0951542  64.28  0.000704682    1.684    0.406
        63  -8.8940    183.5587    182.2633   1.1217886106e+02   1.2920428549e+01    0.2723455     0.120581 -35.06  0.001312571    2.708    0.631
        64  -8.3982    176.5071    181.5052   1.1332677204e+02   1.4235719579e+01      0.19469    0.1164046 -53.73  0.001029183    2.403    0.584
        65  -8.8632    191.0223    179.4987   1.1038593808e+02   1.1993241205e+01    0.2361828      0.15542 -55.93  0.001274011    2.428    0.588
        66  -8.0610    205.1775    176.7433   1.0742112310e+02   9.8733935538e+00    0.2383008   0.08412934 -40.91 0.0009887432    3.553    0.719
        67  -8.4211    197.5216    176.9633   1.0879929423e+02   1.1185973431e+01    0.1687936    0.1206607 -28.92  0.001025914    1.572    0.364
        68  -8.0127    210.5929    182.2136   1.0744738199e+02   8.2760145593e+00    0.1628444    0.1079066 -11.29 0.0009558257    1.698    0.411
        69  -9.7094    101.0076    176.0041   1.2693829224e+02   2.7246483099e+01    0.1651952    0.1399319  62.27  0.001167337    1.002    0.002
        70  -9.2230    232.9677    172.6503   1.0199527083e+02   5.5318541541e+00     0.474696    0.1305937 -25.20    0.0016761    4.708    0.788
        71  -8.8542    223.1550    172.7928   1.0364176067e+02   7.2084075579e+00    0.2577479     0.164613 -41.85  0.001444852    2.108    0.526
        72  -7.7922    151.2841    249.6594   1.2621419707e+02   9.6882493644e+00   0.09574395   0.06347077  60.42   0.00041408    1.634    0.388
        73  -7.7574    242.6254    248.3140   1.1237899307e+02  -2.8407196944e+00   0.08955679   0.06909747  47.11 0.0007031286    1.791    0.442
        74  -8.8658    218.6222    168.0958   1.0353043788e+02   8.5573756801e+00    0.3327171    0.1829385 -31.44  0.001777372    1.974    0.493
        75  -9.4453    191.9206    165.5356   1.0775657964e+02   1.3701490346e+01    0.3819902    0.1918967 -36.39  0.001888111    2.225    0.551
        76  -9.6067    199.1479    164.1001   1.0618239472e+02   1.2576794536e+01     0.376416    0.1860341 -32.50  0.001563527    2.236    0.553
        77  -9.4274    197.1072    156.7811   1.0515096494e+02   1.3947930997e+01    0.3889297    0.1950935 -31.43  0.001858442    2.188    0.543
        78  -8.2420    150.5651    166.4794   1.1576581475e+02   2.0966168646e+01    0.1251092    0.1107435  39.48 9.560595e-05    1.025    0.025
        79  -9.1196    233.8027    163.8658   1.0018718842e+02   6.3674026350e+00    0.3114345    0.1712199 -39.36  0.001601283    2.325    0.570
        80  -8.6182    231.3834    158.8044   9.9590557543e+01   7.3780849655e+00    0.2764106    0.1199428 -20.96  0.001223683    2.618    0.618
        81  -9.2212    233.1087    153.5022   9.8239162726e+01   7.6873312744e+00    0.3304868    0.2059463 -24.90  0.001399483    1.615    0.381
        82  -8.8009    212.7176    162.7774   1.0353348672e+02   1.0272276338e+01    0.2801275    0.1085625 -33.93  0.001221567    2.780    0.640
        83  -9.2360    204.7324    160.9876   1.0459271462e+02   1.1964328558e+01     0.349687     0.278828 -25.87  0.002163704    1.360    0.265
        84  -8.6312    221.4632    161.0158   1.0168907471e+02   8.9027916613e+00    0.1842821    0.1187627 -21.49  0.001029527    1.602    0.376
        85  -9.5165    227.3236    154.1732   9.9337000355e+01   8.6634876906e+00    0.9317392    0.2650008 -23.51  0.002832722    5.516    0.819
        86  -7.8319    176.3266    159.3412   1.0951875820e+02   1.7451826466e+01    0.1353188   0.09466729  13.10 0.0007051316    1.735    0.424
        87  -8.4684    216.1345    155.5385   1.0152001400e+02   1.0559207913e+01    0.2127698    0.1413845 -19.89  0.001179936    1.555    0.357
        88  -9.0989    211.5076    152.8310   1.0178357285e+02   1.1772537505e+01    0.4132344    0.1295631 -29.51  0.001508292    3.652    0.726
        89  -9.1153    218.4215    143.8249   9.8708391009e+01   1.1631400198e+01    0.3188159    0.2066616  -1.09  0.001396721    1.726    0.420
        90 -10.7683    217.6946    136.2222   9.7191770828e+01   1.2771421086e+01    0.6044223    0.3627615 -32.16  0.002694769    1.717    0.418
        91  -9.4593    215.0969    148.1961   1.0020438864e+02   1.1698505843e+01    0.3984326    0.2345441 -29.82  0.001699131    1.764    0.433
        92  -9.1610    214.2812    141.8985   9.9020618737e+01   1.2685085411e+01    0.3093715    0.2144915 -26.60 0.0009689471    1.473    0.321
        93  -9.5405    206.0443    154.0362   1.0299496941e+02   1.2641627691e+01    0.3080042    0.1834521 -28.26  0.001605354    1.784    0.439
        94  -8.8529    221.3077    151.5419   9.9819970628e+01   1.0100119397e+01    0.2442396    0.1576459 -18.44  0.001168308    1.582    0.368
        95  -8.6460    202.4922    151.4729   1.0311833511e+02   1.3660911297e+01    0.2606254    0.1279679 -32.11  0.001213951    2.176    0.540
        96  -9.5972    234.6348    146.2237   9.6481238264e+01   8.2692408461e+00     0.413579    0.2403544 -20.88  0.002168216    1.700    0.412
        97  -9.6848    223.2621    146.2845   9.8395854085e+01   1.0393347473e+01    0.3351546    0.2536526   7.93   0.00196322    1.225    0.184
        98  -9.3828    207.6653    145.0935   1.0087242023e+02   1.3538995926e+01    0.3790806    0.1942725 -15.50  0.001599489    2.658    0.624
        99  -9.0569    194.3845    142.7921   1.0282110208e+02   1.6455396479e+01    0.2359584    0.1668673 -18.79 0.0008662264    1.518    0.341
       100  -9.4480    229.9490    140.1723   9.5965762912e+01   9.8865357034e+00    0.4238236    0.1706208 -30.82  0.001821734    2.468    0.595
       101  -8.6517    138.4365    142.1099   1.1395919255e+02   2.7266840939e+01    0.2848962    0.1655669  31.33  0.001340217    1.984    0.496
       102  -9.0442    224.1464    139.6035   9.6819791117e+01   1.1071935099e+01    0.2629436    0.1800518 -12.18  0.001427756    1.451    0.311
       103  -9.0200    208.4793    137.4807   9.9097192532e+01   1.4424337649e+01    0.2699012    0.1304066 -30.00  0.001201306    2.139    0.532
       104  -8.2295    192.7562    136.9555   1.0188166882e+02   1.7637455869e+01    0.1782531    0.1144732 -30.21 0.0008916293    1.628    0.386
       105  -9.2200    234.2340    135.0571   9.4140276776e+01   9.6978871515e+00    0.2947679    0.2254762 -35.15  0.001694915    1.512    0.338
       106  -8.7835    225.6196    133.3632   9.5198768166e+01   1.1584913792e+01    0.2758133    0.1530989 -17.33  0.001300394    1.904    0.475
       107  -9.6739    220.9141    129.7048   9.5179244927e+01   1.2996233758e+01    0.4008135     0.200067 -41.06  0.001753529    2.377    0.579
       108  -9.7895    205.7196    129.8527   9.7900400588e+01   1.6049917666e+01    0.3426504     0.178857 -40.90  0.001526315    2.167    0.538
       109  -9.1888    233.5043    128.4790   9.2788287907e+01   1.0655585241e+01    0.2686407    0.1246026 -26.04  0.001054544    2.097    0.523
       110  -9.9496    211.7019    128.5939   9.6538231299e+01   1.5007861348e+01    0.3083336     0.239815  84.68  0.001536665    2.209    0.547
       111  -8.2794    192.4924    128.4712   1.0004981952e+02   1.8965202133e+01     0.142095    0.1251848  17.61 0.0002684584    1.029    0.028
       112 -10.3099    227.6958    124.1464   9.2756121685e+01   1.2362387302e+01    0.5096167    0.2306674 -27.12  0.002206298    2.160    0.537
       113 -10.1368    233.5212    122.4563   9.1403395974e+01   1.1409700629e+01     0.493645    0.4081789  89.45  0.002677338    2.015    0.504
       114  -8.8285    179.8077    122.8961   1.0124568745e+02   2.2469008641e+01    0.3568326     0.188573 -24.60   0.00148207    2.299    0.565
       115  -8.4005    187.7121    122.5530   9.9607006808e+01   2.0869285588e+01    0.2541096    0.1245332 -34.59  0.001074126    2.093    0.522
       116  -9.0985    212.5810    121.7414   9.4794824031e+01   1.5781041732e+01    0.2642966    0.1322371 -24.03  0.001130707    2.095    0.523
       117  -9.6989    203.1089    120.7084   9.6260049215e+01   1.7909884666e+01    0.2469829     0.187904 -36.13    0.0013108    1.407    0.289
       118  -9.9295    224.8807    116.5605   9.1442700762e+01   1.3932432851e+01    0.3971589     0.199799 -21.13  0.001726703    2.043    0.511
       119  -8.6642      1.9655    120.0000   1.4273470590e+02   4.8883629785e+01    0.1410888   0.05981635  25.03 0.0007995388    2.922    0.658
       120  -9.1634    209.4227    118.0042   9.4470126087e+01   1.6969457326e+01    0.2163473    0.1325999 -26.59  0.001029143    1.619    0.382
       121 -10.9225    248.2711    106.2950   8.5265666849e+01   1.0440952310e+01    0.9567166    0.4005138 -20.27  0.003903758    2.365    0.577
       122 -10.6675    230.8412    114.9453   9.0069144102e+01   1.2913487598e+01     0.308687    0.2375112  17.05  0.001268271    1.205    0.170
       123 -10.5319    238.5732    159.7916   9.8611604966e+01   5.9871622847e+00    0.6425183    0.2967778 -34.49  0.003132166    2.394    0.582
       124 -10.0626      2.8771    113.2408   1.4202145409e+02   5.0231752111e+01    0.2223398   0.09650186 -57.68  0.001265892    2.205    0.546
       125  -9.3113    212.8476    111.0930   9.2181913962e+01   1.7219774046e+01     0.256618    0.1527244 -34.41  0.001196726    1.694    0.410
       126 -11.1502    248.3063    121.4931   8.8846531164e+01   8.6210096973e+00     1.456951    0.2981363 -29.13  0.004612957    4.238    0.764
       127 -12.2633    241.4666    131.2580   9.2128942764e+01   8.7730436528e+00     1.738327    0.4249755 -35.69  0.005758177    4.225    0.763
       128  -8.7498    186.8551    247.5420   1.2055419534e+02   4.9496088670e+00    0.1528555    0.1358935 -81.46  0.001305929    1.838    0.456
       129  -8.7893    205.9322    104.7524   9.1823887894e+01   1.9634036896e+01    0.3448131    0.1989599 -28.01  0.001557107    1.700    0.412
       130 -10.3595      3.0003    105.5578   1.4137472436e+02   5.1845139392e+01    0.3606373    0.1328699  76.45  0.001615401    3.292    0.696
       131 -10.3000    229.6628    103.1331   8.7367708305e+01   1.4698238170e+01    0.3929868    0.1825058 -21.39  0.001609997    2.176    0.540
       132  -9.6064    222.2894    103.9121   8.8772724041e+01   1.6177578304e+01    0.3756362    0.1652978 -32.86  0.001530358    2.176    0.540
       133  -8.8701    157.5008    105.5115   1.0170930713e+02   3.0147944280e+01    0.1444122     0.139228  14.08 0.0002653369    1.014    0.014
       134  -8.9971     11.9700    104.6522   1.3898116871e+02   5.1459546217e+01    0.1782632   0.04368101  48.43 0.0007048383    4.410    0.773
       135  -9.4212    209.1778     99.7502   8.9959754487e+01   1.9638157239e+01    0.3275197    0.1954485 -21.25  0.001106526    1.689    0.408
       136  -9.5497    234.3966     96.2296   8.4877224669e+01   1.4579192467e+01    0.5042431    0.2758778  16.06  0.002036868    2.478    0.596
       137 -11.7425    248.3185     90.8533   8.1445647221e+01   1.2292554685e+01     1.891893    0.5216203 -21.40  0.005739769    4.079    0.755
       138  -9.4212    195.5158     96.3946   9.1561628005e+01   2.3214489924e+01    0.3058814     0.142198 -30.08  0.001008588    2.127    0.530
       139  -9.2824    225.0146     99.2044   8.7129188755e+01   1.6219909482e+01    0.2612555    0.1901605 -17.72 0.0009237845    1.288    0.224
       140  -9.3823    188.5957     92.9331   9.1945651027e+01   2.5331933580e+01    0.3288704    0.1411283 -31.38  0.001226417    2.303    0.566
       141  -8.2260    164.4054     93.1941   9.6955828209e+01   3.0804142106e+01    0.2102152    0.1367561 -45.03 0.0006679408    1.637    0.389
       142  -8.4586    192.4236     88.7482   9.0069375603e+01   2.5093791250e+01    0.2184955    0.1401811 -15.21 0.0009562381    1.703    0.413
       143 -10.6116     11.5685     93.1859   1.3788286032e+02   5.3972303434e+01    0.2921343   0.08057702 -70.90   0.00129926    2.639    0.621
       144  -8.5903    206.1736     84.6516   8.6446815328e+01   2.2493478900e+01    0.2916167    0.1019994 -30.98 0.0009981055    2.673    0.626
       145 -10.6779      8.9593     83.9915   1.3756419740e+02   5.6151318180e+01     0.240194    0.1514521  34.16  0.001104729    1.903    0.475
       146  -9.4618    200.8488     78.9492   8.5784846371e+01   2.4570082995e+01    0.7352455     0.217502 -28.73  0.002279283    3.285    0.696
       147 -12.0664    241.3708    114.3500   8.8247125228e+01   1.0848087678e+01     1.122904     0.592361 -19.81  0.005240324    1.822    0.451
       148  -9.3728    214.9748     79.7197   8.3597377392e+01   2.1129592662e+01     0.311359    0.1747193   4.48  0.001169121    2.587    0.613
       149 -11.1884      4.1113     75.7303   1.3802450239e+02   5.8244973977e+01    0.4086762    0.1994014  88.76   0.00224001    1.990    0.497
       150 -11.9559    245.2461    159.4863   9.7483817320e+01   4.8536105291e+00     1.819857    0.4323651 -35.09  0.006402152    4.646    0.785
       151  -9.7936     16.8346     75.8347   1.3404655839e+02   5.7450218051e+01    0.1793081      0.12906 -58.84 0.0005397486    1.210    0.174
       152  -8.3244    211.6028     75.2677   8.2908405499e+01   2.2533279740e+01    0.2165787    0.1365305 -12.48 0.0009520681    1.665    0.400
       153 -11.2851    250.0903    153.4193   9.5501239572e+01   4.6676688755e+00     2.084159     0.129336 -29.88  0.004831908    9.853    0.899
       154  -8.9696    218.0000     69.5126   8.0259547926e+01   2.1788347208e+01    0.5046001   0.07988317 -26.60  0.001158376    5.955    0.832
       155  -8.1988    211.0000     71.0204   8.1801331446e+01   2.3257620609e+01    0.2504974    0.0811663 -26.93 0.0008014331    2.935    0.659
       156  -9.3769    183.9724     77.9887   8.8626057902e+01   2.8748843228e+01    0.2371297    0.2221038 -10.77 0.0007009851    1.044    0.042
       157  -8.1907    163.2342     70.0482   9.0444689319e+01   3.4993107989e+01     0.208393    0.1256196 -29.95 0.0008792693    1.630    0.387
       158  -8.2838     22.7679     69.9717   1.3115781488e+02   5.8335279253e+01     0.158934    0.0796005 -66.93 0.0003183561    1.559    0.358
       159  -9.0613    237.2065    169.0696   1.0063369616e+02   5.1979354436e+00    0.2786611    0.1620698 -23.01  0.001575121    1.753    0.429
       160  -8.8258    195.0340     66.5187   8.3185305060e+01   2.7768020776e+01    0.3560047    0.2169585  16.10   0.00141521    2.184    0.542
       161  -8.4270    157.0476     65.4679   9.0339871758e+01   3.7226378807e+01    0.2281299    0.1920813 -27.32 0.0002502975    1.152    0.132
       162 -10.8064      7.3244     65.1343   1.3553411155e+02   6.0406422925e+01    0.3070686    0.1922863  77.14  0.001289459    1.737    0.424
       163  -8.8494     30.8477     61.8744   1.2679056796e+02   5.9497428896e+01    0.2026224    0.1635936  50.20 0.0003565779    1.492    0.330
       164  -9.1091     26.4347     60.1505   1.2798187393e+02   6.0239700268e+01    0.1854291    0.1706526  60.67 9.805511e-05    1.306    0.235
       165  -9.6775    206.7162     58.8765   7.8944820982e+01   2.5932639550e+01    0.3589555    0.1953281 -21.29  0.001166355    1.807    0.447
       166  -7.7139    165.4283     57.5247   8.5985282173e+01   3.6448560601e+01    0.1553471      0.14397   1.96 0.0001261257    1.026    0.025
       167  -8.3469    211.2836     54.6460   7.6977322251e+01   2.5351418066e+01     0.155108    0.1089882 -51.61 0.0004786085    1.663    0.399
       168  -8.4566     33.1051     58.1164   1.2513085515e+02   6.0133724854e+01    0.1589072     0.129481 -83.70  0.001035461    1.286    0.222
       169  -7.5466     95.2935     52.6845   1.0215259970e+02   5.2844194246e+01    0.1377192    0.1117141 -71.27 0.0003513408    1.600    0.375
       170  -8.1972     75.0300     50.9916   1.0813447082e+02   5.6603360395e+01    0.1583259    0.1445313 -31.40            0    1.052    0.049
       171  -8.1776     63.4363     46.5250   1.1067333288e+02   5.9204702610e+01    0.1351649    0.1135403 -38.81 5.990609e-05    1.022    0.021
       172  -8.1430     41.4791     44.9944   1.1843963901e+02   6.2179348327e+01    0.1789214   0.08040401 -39.25 0.0004001019    2.243    0.554
       173  -9.3577    175.8616    247.7648   1.2225539585e+02   6.4740650540e+00    0.1643634    0.1247668  73.89  0.001239812    2.068    0.517
       174 -11.7711    237.8575     33.8807   6.7480635300e+01   2.1273874997e+01    0.6759602    0.5618595  13.37  0.003763436    1.237    0.192
       175 -10.4068    236.7754     29.9679   6.6496365400e+01   2.1944770833e+01    0.4111048    0.2813239 -16.08  0.001990859    1.386    0.278
       176 -10.1375      5.2611     36.5651   1.3099625991e+02   6.6772705698e+01    0.2416666    0.1856048 -26.15 0.0001064733    1.479    0.324
       177  -9.5280      8.8745     32.1173   1.2833603369e+02   6.7532343051e+01    0.2562005    0.1281285 -64.51 0.0004225058    1.545    0.353
       178  -7.6086     92.3079     36.6876   9.7061168133e+01   5.6337519238e+01     0.136292    0.1112906 -65.20  0.000276309    1.623    0.384
       179  -8.4575    149.4842     34.9374   8.1408313013e+01   4.3744941662e+01    0.2366979    0.1454218 -26.80 0.0007468585    1.572    0.364
       180  -8.1399    128.0248     33.9990   8.5924197860e+01   4.9126463368e+01    0.1845167    0.1586049 -17.51            0    1.098    0.089
       181  -7.8669     63.2664     33.6508   1.0597009452e+02   6.1766906806e+01     0.127075    0.1000817 -64.54 0.0003587087    1.617    0.381
       182 -10.1963    247.1290     30.5536   6.5580401023e+01   1.9434998547e+01    0.4422788     0.263995   5.93  0.002005646    2.028    0.507
       183  -8.8730    250.5124     25.9862   6.4011061157e+01   1.9112593220e+01    0.3085657    0.1637777  -1.87  0.001181486    2.284    0.562
       184  -8.7088     17.9264    248.4703   1.4591945167e+02   2.5401942420e+01    0.1260396   0.06016475  45.12  0.001023801    1.570    0.363
       185  -9.7916     54.7221     30.2580   1.0794330383e+02   6.3603726255e+01    0.2818443    0.2510365 -87.85  0.001264031    1.571    0.364
       186  -7.8633     21.3226     30.6711   1.2237285528e+02   6.7012414107e+01     0.112662   0.08750147  88.32 0.0007049171    1.694    0.410
       187  -8.9943     83.6701     27.9345   9.6225091523e+01   5.9439584792e+01     0.202007    0.1599098 -27.17 0.0004465921    1.117    0.105
       188  -8.9769     42.3449     27.9498   1.1216092654e+02   6.5576687509e+01    0.1764286    0.1673015 -40.64 0.0003897179    1.226    0.184
       189  -8.6233      4.8620     27.6647   1.2897299353e+02   6.8693750722e+01    0.1477399    0.1242282 -55.01 0.0007350415    1.136    0.120
       190 -10.6962    248.7434    237.7242   1.1006603205e+02  -2.8794684394e+00    0.5512411     0.258756 -23.51  0.003647945    2.475    0.596
       191  -9.4368      9.0590     27.0592   1.2686366853e+02   6.8592507743e+01    0.1726037    0.1450994 -59.99            0    1.144    0.126
       192  -8.8262    136.8029     24.9789   8.0293356055e+01   4.8247085016e+01    0.2251757    0.1861258   9.92 0.0003043007    1.193    0.162
       193  -7.8823     68.3116     23.3322   9.9661134282e+01   6.2860196995e+01    0.1396666   0.09539087  -8.29 0.0007043748    1.676    0.403
       194 -10.0410     83.4265     20.8773   9.3137846755e+01   6.0623449680e+01    0.3952584    0.3035389  81.45  0.001497755    2.244    0.554
       195  -8.9789     97.0983     20.9634   8.8821242425e+01   5.7910931338e+01    0.2132279    0.1872525 -10.45 0.0003387989    1.022    0.022
       196  -8.8610     59.8086     20.8751   1.0184548041e+02   6.4602614179e+01    0.1697168    0.1410327 -43.71 0.0003426177    1.273    0.215
       197  -8.9637    167.5887     17.2228   7.1493058655e+01   4.1183145374e+01     0.293876    0.1341873 -26.04  0.001130596    2.082    0.520
       198  -8.5773     23.4683     15.9312   1.1601055552e+02   6.9816395019e+01     0.167649    0.1366773 -33.08 0.0003554802    1.099    0.090
       199  -8.1872      2.5143     15.9741   1.2669501213e+02   7.1247286732e+01    0.1672957   0.08551106 -60.38 -3.618735e-05    1.455    0.313
       200  -8.0237     46.2131     14.0299   1.0436088200e+02   6.7690829436e+01    0.1686826   0.08609182 -40.12 0.0003698397    1.620    0.383
       201  -8.0922    245.1401    231.1982   1.0967266384e+02  -1.8767996189e+00    0.1897059    0.1568987  54.91 0.0007785404    2.042    0.510
       202 -12.8152    220.3386     87.2721   8.4774601765e+01   1.8866732773e+01       2.3556     1.116747   1.94  0.006448859    5.254    0.810
       203  -8.7348    120.5573     13.5076   7.9181670890e+01   5.3628315203e+01    0.1464896    0.1339408   2.53 5.354096e-05    1.035    0.034
       204  -9.1328    243.3314    236.6624   1.1070703561e+02  -2.0545076254e+00    0.1927613    0.1623863  56.10  0.001248117    2.065    0.516
       205  -9.4387    240.5127    232.4993   1.1054067635e+02  -1.3314664902e+00    0.2094404     0.187353  53.12 0.0008259953    1.888    0.470
       206  -8.7829    237.2793    243.7732   1.1255515744e+02  -1.7737060756e+00    0.1847622    0.1121386 -28.00  0.001326774    2.128    0.530
       207  -9.6014    239.6184    239.9494   1.1170122753e+02  -1.7979338119e+00    0.2643768    0.2387111 -62.22   0.00213449    2.373    0.579
       208  -8.5103     34.4826     10.4734   1.0810086430e+02   6.9738209522e+01     0.125738   0.09733023 -30.56 6.376275e-05    1.009    0.008
       209  -9.6233    193.2134    249.0666   1.1976490819e+02   3.9119949958e+00    0.2742524     0.215679  50.79  0.002276211    1.452    0.311
       210  -8.7554    206.0564    236.8951   1.1633665249e+02   3.2164173876e+00    0.1966829    0.1436294  64.38  0.001347457    2.298    0.565
       211  -8.8905    189.1988    234.1203   1.1860767325e+02   5.9428013464e+00    0.1652832    0.1493077  78.83  0.001358983    1.672    0.402
       212  -9.5835    145.3532    228.0423   1.2494625721e+02   1.3036002023e+01    0.2523597    0.2271198 -86.66  0.002125528    1.415    0.293
       213  -8.7856    184.5708    228.2365   1.1861071981e+02   7.2417913949e+00     0.161406    0.1066776 -43.20  0.001136959    2.074    0.518
       214  -9.2447      2.0904    228.6251   1.4755249134e+02   2.9588207181e+01    0.1586948   0.09171205 -71.18  0.001348306    2.019    0.505
       215  -9.6740    237.1893    197.8398   1.0574898746e+02   2.2346337878e+00    0.4217165    0.1868231 -26.31  0.002300228    2.486    0.598
       216 -10.3019    249.0582    185.4762   1.0177440912e+02   1.5544783779e+00     1.100555    0.2288899 -35.54  0.003733608    6.336    0.842
       217 -10.6191    240.1510    208.0975   1.0695041438e+02   8.1478957373e-01    0.4144754    0.2598572 -39.31  0.002515323    2.409    0.585
       218 -10.7933    245.2314    191.2445   1.0337717623e+02   1.6055399657e+00    0.6708818    0.4338772 -31.78  0.004299111    1.902    0.474
       219 -10.3486    237.3905    187.6443   1.0398477719e+02   3.2124220251e+00    0.6984349    0.2869928 -37.61  0.003378325    3.190    0.687
       220 -10.8036    241.4714    181.1997   1.0219608482e+02   3.2025809677e+00    0.8957808    0.3360724 -25.91  0.004259517    2.839    0.648
