#   1 NUMBER                 Running object number                                     
#   2 MAG_AUTO               Kron-like elliptical aperture magnitude                    [mag]
#   3 X_IMAGE                Object position along x                                    [pixel]
#   4 Y_IMAGE                Object position along y                                    [pixel]
#   5 X_WORLD                Barycenter position along world x axis                     [deg]
#   6 Y_WORLD                Barycenter position along world y axis                     [deg]
#   7 A_WORLD                Profile RMS along major axis (world units)                 [deg]
#   8 B_WORLD                Profile RMS along minor axis (world units)                 [deg]
#   9 THETA_WORLD            Position angle (CCW/world-x)                               [deg]
#  10 FWHM_WORLD             FWHM assuming a gaussian core                              [deg]
#  11 ELONGATION             A_IMAGE/B_IMAGE                                           
#  12 ELLIPTICITY            1 - B_IMAGE/A_IMAGE                                       
         1 -15.3113      9.9958    153.2992   1.3185041433e+02   4.2041792524e+01     3.932106     1.257881 -87.67   0.01928779    2.994    0.666
         2 -14.1644    208.4625     16.7741   5.5605820834e+01   3.0434985410e+01     2.818733      1.44686  27.24   0.01064465    2.724    0.633
         3 -11.1972      2.0971     14.5326   1.1506272989e+02   7.1203542078e+01    0.4104893    0.1287708 -62.72  0.001959367    2.506    0.601
         4 -10.6890      1.8793      5.9136   1.1220419938e+02   7.2871385040e+01    0.5505429   0.07424943 -56.50  0.002098675    3.864    0.741
         5 -11.6919    107.9366    245.1947   1.2145572558e+02   1.5854690902e+01    0.2707247    0.1555393  55.31  0.001277582    1.306    0.235
         6 -11.2933    186.8049    250.2963   1.0987384831e+02   4.1150736307e+00    0.5078479   0.06631613  43.64  0.001740082    5.337    0.813
         7 -11.5420    139.5109    248.5703   1.1690142414e+02   1.1113581775e+01    0.2516876    0.1884805 -79.75  0.002038317    1.826    0.452
         8 -12.7294    100.5546    247.4410   1.2275308710e+02   1.6532940485e+01    0.5763496    0.3328872  54.26  0.004380091    1.243    0.195
         9 -11.6546     92.7091    249.4241   1.2407754733e+02   1.7278772644e+01    0.3058784     0.148078  53.56 0.0005121745    1.485    0.326
        10 -11.0181     89.1165    244.8358   1.2430002875e+02   1.8333090480e+01     0.213607    0.1251674  70.08  0.001582704    1.607    0.378
        11 -10.2856     29.2652    240.9230   1.3294313232e+02   2.5635341282e+01    0.3613477   0.09115447  59.79   0.00198524    3.129    0.680
        12 -11.3701     22.0814    236.1960   1.3378912354e+02   2.7016779015e+01    0.2340119    0.1846515  69.15  0.002285997    1.302    0.232
        13 -12.5281     17.1378    230.2226   1.3428054744e+02   2.8361030729e+01     1.127071    0.7841642   5.30  0.006752966    5.379    0.814
        14 -12.4185     18.7369    242.1431   1.3448313707e+02   2.6485706024e+01    0.5425181      0.26164  58.78  0.003036649    1.363    0.266
        15 -11.8919     12.6184    239.9458   1.3526633366e+02   2.7369075318e+01    0.3397707    0.1761079  68.05  0.002216313    1.329    0.247
        16 -12.0390     39.5024    244.8765   1.3164294799e+02   2.4036148127e+01    0.6587606    0.2707142  69.50  0.003444856    2.142    0.533
        17 -12.7629     30.8307    248.8349   1.3303793541e+02   2.4373439265e+01     1.517949    0.3125502  36.86  0.006727199    5.608    0.822
        18 -10.8257      2.1655    249.8287   1.3698259754e+02   2.6928613685e+01    0.3733879    0.1270007  39.16  0.002628278    2.539    0.606
        19 -11.1580      2.8028    246.1606   1.3679993907e+02   2.7378088858e+01    0.2969254    0.1679399  89.68  0.001627054    1.558    0.358
        20 -10.5933     54.4096    238.3976   1.2913701302e+02   2.3342821312e+01    0.2381175    0.1374179  43.29 0.0008339448    1.536    0.349
        21 -11.2575     98.7830    236.3057   1.2217586547e+02   1.8239420670e+01    0.2567112    0.1470233  65.43 0.0007495066    1.617    0.382
        22  -9.6703    104.3279    237.2874   1.2138321206e+02   1.7372532681e+01   0.09013416   0.07110282  31.98 0.0002652272    1.613    0.380
        23 -14.4871      9.4241    206.8278   1.3455514123e+02   3.2677766165e+01      2.68468    0.8013256 -84.25   0.01536485    3.052    0.672
        24 -10.8366    246.0035    249.4664   1.0105590441e+02  -4.2780316261e+00    0.3366871   0.08971331  42.93  0.001705919    2.717    0.632
        25 -12.7604     36.2162    225.5424   1.3122744466e+02   2.7182799170e+01    0.2794143    0.2008961  54.59 0.0007465596    1.239    0.193
        26 -11.3670    151.0133    228.9867   1.1311301780e+02   1.1791324709e+01    0.2991107    0.1307804  44.14  0.001733726    1.704    0.413
        27  -9.7813    248.6738    228.6754   9.7809904048e+01  -3.0461798573e+00    0.1127571   0.06011566  21.29 0.0007049044    1.692    0.409
        28 -10.5451     53.0165    228.4325   1.2879414101e+02   2.4945820201e+01    0.2143326    0.1225776  76.55 0.0001227304    1.525    0.344
        29  -9.2736     66.2479    225.2165   1.2651933750e+02   2.3902836069e+01    0.1417695   0.08286952  64.78 0.0004321636    1.355    0.262
        30 -10.8603     24.2834    213.0337   1.3248417735e+02   3.0311458534e+01    0.2059695     0.111363  45.58  0.001346244    1.566    0.361
        31 -10.3837     51.9413    233.7116   1.2925399645e+02   2.4290206794e+01    0.1616793    0.1385098 -86.61 0.0008017027    1.495    0.331
        32 -11.0040    227.4992    203.5838   9.7252835666e+01   2.4915238676e+00    0.2773902    0.2199168 -53.93  0.001022826    2.143    0.533
        33  -9.8830    192.5284    194.0673   1.0152909924e+02   9.4332526196e+00    0.3768156    0.1959443 -60.64  0.001381377    6.063    0.835
        34 -11.5980     62.6469    193.0277   1.2478150094e+02   2.9475897923e+01    0.2634594    0.2196461 -46.50  0.001304646    1.853    0.460
        35 -11.7311     68.3527    185.7390   1.2312432015e+02   3.0040519858e+01    0.2227994    0.2070203 -67.13 0.0008365095    1.466    0.318
        36  -8.9335     42.3199    232.2965   1.3063469656e+02   2.5539034958e+01   0.07507589   0.06955263  61.17 0.0003861292    1.615    0.381
        37  -8.5351    181.5230    192.4436   1.0318371901e+02   1.1536957051e+01    0.1215882   0.09810359  39.91 0.0001685144    1.018    0.017
        38 -11.0173     78.0849    173.9944   1.2012906729e+02   3.0890064358e+01    0.2074853    0.1785837  77.40 0.0003900614    1.107    0.097
        39 -13.2568     65.1646    171.3381   1.2238924731e+02   3.3021876691e+01    0.3846434    0.2404879 -48.78  0.001647105    2.222    0.550
        40 -10.4422    105.8214    173.5383   1.1462765783e+02   2.7038885744e+01    0.4106126   0.07200946  46.48  0.001315849    4.834    0.793
        41 -12.1752     86.0151    165.5492   1.1759913208e+02   3.1367142158e+01    0.9468645    0.4297641  54.82  0.004801352    2.129    0.530
        42  -9.7220    231.0203    168.1991   9.0574287870e+01   5.7409798763e+00    0.3015323    0.1523757 -51.87  0.001109723    5.098    0.804
        43 -12.8627     67.5145    144.2980   1.1891982325e+02   3.7939251785e+01    0.8738631    0.4843207  86.32   0.00269581    2.149    0.535
        44 -12.0650     58.3469    133.4748   1.1962884472e+02   4.1260218389e+01     1.758559    0.5680091 -79.07  0.004445788    8.947    0.888
        45  -9.8787     98.4002    149.6740   1.1289511070e+02   3.2571889156e+01    0.2513356    0.2337206 -47.88 0.0007844847    1.320    0.242
        46  -9.2249    101.3872    145.8148   1.1166522817e+02   3.2858139046e+01    0.1986823    0.1461397 -43.16 0.0007386626    1.669    0.401
        47 -12.0237     86.9451    148.7398   1.1524384161e+02   3.4443631715e+01    0.2317577    0.2100396 -64.76 0.0004362724    1.251    0.201
        48 -10.4803     38.7835    147.0328   1.2546120838e+02   4.0655699515e+01    0.1885246    0.1457642  52.98 0.0009810282    1.288    0.224
        49  -9.5349    109.8271    135.7517   1.0813716017e+02   3.3466413326e+01    0.2779029    0.1968423 -31.34  0.001044237    2.003    0.501
        50 -10.5480     97.1429    132.5521   1.1048596881e+02   3.6143421637e+01    0.2257507    0.2027885 -29.63 0.0005745711    1.423    0.297
        51  -9.2227    106.9540    122.7390   1.0642422267e+02   3.6541696255e+01    0.1748874     0.155788  63.94 0.0002769909    1.078    0.072
        52 -10.6458    168.0125    113.0098   9.0529023128e+01   2.6474067214e+01    0.3333297    0.2707289 -82.87 0.0008136404    1.623    0.384
        53  -9.5161    204.6924    110.9292   8.2869167535e+01   1.8706724966e+01    0.4011218    0.1527027  38.15  0.001355987    3.102    0.678
        54 -14.9591     51.8818    207.8413   1.2771865816e+02   2.8262794491e+01     6.798773          nan  48.21    0.0225086    6.746    0.852
        55 -13.9204     43.3813    216.5067   1.2963290732e+02   2.7817523179e+01    0.8374543    0.4727628  59.59  0.004533133    1.292    0.226
        56  -9.2830     33.2953    109.3280   1.2266631258e+02   4.8977713685e+01    0.1129688   0.07676788 -49.77  0.000271934    1.630    0.386
        57 -10.9370    243.2561     92.6343   7.1985834761e+01   1.2707203683e+01    0.2730406    0.1582226 -35.30  0.001287567    1.696    0.410
        58 -11.3890      1.7625     88.7286   1.2870200675e+02   5.5711576564e+01    0.4111759    0.1101829 -71.95  0.001918999    2.626    0.619
        59 -10.5161    162.5408    248.0977   1.1332627286e+02   7.8718699197e+00    0.2363911    0.1587759  -1.84  0.001513122    2.958    0.662
        60 -10.8343    189.8142     15.3214   5.7513942489e+01   3.5541353203e+01    0.2600444    0.1959588 -36.14 0.0008524262    1.335    0.251
        61 -10.2313    198.4860    246.4800   1.0767342910e+02   2.7724906239e+00    0.1058839   0.07416546  37.54 2.347783e-05    1.009    0.008
