#   1 NUMBER                 Running object number                                     
#   2 MAG_AUTO               Kron-like elliptical aperture magnitude                    [mag]
#   3 X_IMAGE                Object position along x                                    [pixel]
#   4 Y_IMAGE                Object position along y                                    [pixel]
#   5 X_WORLD                Barycenter position along world x axis                     [deg]
#   6 Y_WORLD                Barycenter position along world y axis                     [deg]
#   7 A_WORLD                Profile RMS along major axis (world units)                 [deg]
#   8 B_WORLD                Profile RMS along minor axis (world units)                 [deg]
#   9 THETA_WORLD            Position angle (CCW/world-x)                               [deg]
#  10 FWHM_WORLD             FWHM assuming a gaussian core                              [deg]
#  11 ELONGATION             A_IMAGE/B_IMAGE                                           
#  12 ELLIPTICITY            1 - B_IMAGE/A_IMAGE                                       
         1 -12.0923    221.2309     16.2797   4.0676358103e+01   2.7916431825e+01    0.8444152      0.75134  68.38   0.00449944    1.211    0.174
         2 -11.5550    213.2647     25.1152   4.3712878347e+01   2.8796079317e+01    0.8668331      0.40626  54.58  0.001276686    2.203    0.546
         3 -12.1536    196.6362     39.1017   4.9533903446e+01   3.1136157776e+01     1.147074    0.8397537  -0.55  0.004623523    1.873    0.466
         4 -12.2012    206.7540     33.2918   4.6613006944e+01   2.9374129331e+01     1.097335      0.78482  83.76  0.005420555    1.399    0.285
         5  -8.1563     47.9655      2.4660   7.1940082060e+01   6.8915937702e+01    0.1675016    0.1051966  36.09 0.0004531788    1.523    0.344
         6  -9.8684     64.0869    238.5006   1.1997238634e+02   1.7575784961e+01    0.3189852    0.1664587  48.06  0.001399722    1.521    0.342
         7  -9.6774     63.7915    244.9552   1.2051512513e+02   1.6460816472e+01    0.3348101    0.2510084  -5.73  0.001902745    3.293    0.696
         8 -11.7540    112.3250    244.7187   1.1165465836e+02   9.6789586173e+00    0.7255327    0.3962637  28.97  0.003760768    2.242    0.554
         9 -11.7060     93.3608    249.3692   1.1559261020e+02   1.1681169149e+01     1.331878     0.356243  34.05  0.004261127    5.726    0.825
        10 -11.9613     77.2800    247.9599   1.1835760783e+02   1.4154074806e+01     1.276828    0.4704996  34.77  0.005876846    2.948    0.661
        11 -10.3088     13.3387    186.1657   1.2582332147e+02   3.3755097352e+01    0.3062374    0.2329829  74.53 0.0004452975    1.072    0.067
        12 -12.1323     28.3156    216.2624   1.2491413093e+02   2.6067369915e+01     1.519177    0.4852639  88.54  0.005750934    4.525    0.779
        13 -12.0170     24.4455    225.3117   1.2615689846e+02   2.4724269319e+01     0.838716    0.4887717  48.86   0.00309449    1.455    0.313
        14 -12.7761      3.5146    168.9976   1.2669652726e+02   3.8303789717e+01     3.103014    0.5432364 -79.04    0.0100295    5.248    0.809
        15 -14.2201      4.9055    138.1386   1.2399703950e+02   4.5149291507e+01     10.84752     1.640235 -77.50   0.02813308    7.336    0.864
        16 -10.9012     89.8053    229.7154   1.1438977047e+02   1.5651883824e+01    0.4678519    0.2511776 -80.98  0.001441998    2.303    0.566
        17 -10.7287     83.6171    224.5006   1.1507067655e+02   1.7518362471e+01      0.53465    0.3459961 -63.84  0.002703275    1.696    0.410
        18  -8.4672     35.2607    233.2562   1.2473338043e+02   2.2044381143e+01    0.1643119   0.09231554  64.71  0.001058673    1.402    0.287
        19 -12.9878      9.3310    207.4107   1.2786103099e+02   2.9730323057e+01     1.087795    0.8182269  84.63  0.003915791    1.114    0.102
        20 -10.1703    112.8988    228.8117   1.0979310673e+02   1.2337474372e+01    0.3128446    0.1348465  46.45  0.001495606    1.926    0.481
        21  -9.8890     99.4379    227.7493   1.1231500678e+02   1.4592173421e+01    0.2741866    0.2530795 -33.43  0.001895313    1.505    0.336
        22  -9.6064     95.3374    223.8943   1.1270627674e+02   1.5923196278e+01     0.352721    0.1890904 -78.30  0.001782501    2.336    0.572
        23  -9.3948     38.3502    224.2264   1.2360312532e+02   2.3401096953e+01    0.3448452    0.1767202  38.69  0.001600928    1.892    0.472
        24 -10.9453     47.7264    223.7513   1.2184764811e+02   2.2391174725e+01    0.4136506     0.238798 -73.33 0.0003593653    1.690    0.408
        25 -10.3958     45.2219    219.5687   1.2200441336e+02   2.3505547370e+01    0.4090513    0.2968092  -2.79  0.002162533    3.205    0.688
        26 -11.6054    127.3959    231.8103   1.0730751315e+02   9.5208868774e+00     0.637172    0.2691558  44.27  0.003026657    1.940    0.484
        27 -11.0693    121.6889    228.1293   1.0797917381e+02   1.1073029929e+01    0.5568111    0.4189644  -7.43   0.00298463    2.268    0.559
        28 -11.9164    138.7409    229.9984   1.0485200533e+02   7.9956014540e+00    0.9301041     0.323862  35.48   0.00368701    2.863    0.651
        29 -13.1221      5.8734    245.5037   1.3020733102e+02   2.2920525296e+01     1.264977     0.690592  56.41  0.003748019    1.330    0.248
        30  -9.4683    193.7341    196.1125   8.8437124364e+01   4.1734752235e+00    0.3352142    0.1641766 -55.25  0.001281155    3.484    0.713
        31 -13.0571     11.1391    232.6263   1.2880691789e+02   2.4713962151e+01     2.671749    0.5436839  57.86   0.01105258    4.115    0.757
        32  -9.8888     55.1784    185.7111   1.1699355992e+02   2.9365606525e+01    0.2610849    0.1571514  63.57  0.001428455    1.573    0.364
        33 -10.3209     63.9432    180.4866   1.1446701156e+02   2.9405975674e+01    0.3833363    0.2728991 -33.01  0.001963383    2.210    0.547
        34 -10.1728     68.7816    175.1489   1.1270895672e+02   2.9964561018e+01    0.2992489    0.2492625 -41.26 0.0007158105    1.543    0.352
        35  -8.1412     50.3851    181.2589   1.1758454641e+02   3.0940415031e+01    0.1708895    0.1033974 -86.49 0.0003633261    1.547    0.354
        36  -7.8212     99.4669    180.5465   1.0632952605e+02   2.4166473729e+01    0.1371848    0.1236671  71.34 0.0001472093    1.012    0.012
        37 -10.3481     74.6739    219.3836   1.1632311464e+02   1.9759478788e+01    0.7376347    0.1812048  48.64  0.002781587    3.464    0.711
        38  -8.1122    193.5991    166.2034   8.2568251396e+01   9.4392214254e+00    0.1958302    0.1344231 -27.54  0.000588566    1.546    0.353
        39  -9.9425     78.3441    165.1204   1.0906659837e+02   3.0928557664e+01    0.2790227    0.2281556 -69.41 0.0004543583    1.168    0.144
        40 -12.3206     67.9161    144.1191   1.0848914993e+02   3.7384364626e+01     1.787944     0.901162  82.11  0.006022889    3.986    0.749
        41 -11.2407     84.9868    159.2448   1.0652874862e+02   3.1312469217e+01    0.7107487    0.4568283 -44.27  0.001679037    1.815    0.449
        42 -11.7834     65.7790    161.1780   1.1158038744e+02   3.3604456599e+01    0.4879893    0.2910002 -47.22  0.001716455    1.946    0.486
        43  -9.1297     22.7207    156.8780   1.2145393112e+02   3.9413850245e+01    0.1986595    0.1243911 -63.11 0.0009966394    1.470    0.320
        44  -8.6155     33.0451    156.0210   1.1891857140e+02   3.8630066933e+01    0.2055222    0.1249921  70.76 0.0006928447    1.638    0.390
        45  -8.5863    134.0000    145.0509   9.1501233686e+01   2.5914864063e+01    0.3536429   0.08634976 -49.24 0.0009585214    4.129    0.758
        46  -8.3471     99.1609    143.8249   1.0016985334e+02   3.2676945169e+01    0.2297477    0.1959632  81.34 0.0009903837    1.207    0.171
        47  -8.1656    102.0671    140.1677   9.8680651895e+01   3.3045377625e+01    0.3743468    0.2174504 -26.29  0.001320054    3.319    0.699
        48 -10.6103     87.1206    142.4578   1.0309734964e+02   3.4974074577e+01    0.3526789     0.298281  15.48  0.001188417    1.471    0.320
        49  -9.1724    108.2502    131.3542   9.5170366899e+01   3.4028992505e+01     0.572311    0.2799516  48.09  0.002234747    2.177    0.541
        50  -9.1661     97.1309    128.2215   9.7530014686e+01   3.6744973505e+01     0.281801    0.2376406 -29.68 0.0007816385    1.355    0.262
        51 -11.5203     37.6598    208.8130   1.2264207478e+02   2.6533182081e+01    0.4302147    0.3828652  28.65  0.001347866    1.582    0.368
        52  -7.9964    106.8762    120.1793   9.2997979095e+01   3.6913824808e+01    0.1932981    0.1720136 -20.65 0.0002595377    1.262    0.208
        53  -8.1774     54.3353    119.3086   1.0803686051e+02   4.5128863131e+01     0.138689   0.09637284 -35.94 0.0007042465    1.676    0.403
        54  -8.0920    168.5267    113.5184   7.5603728329e+01   2.5242182250e+01    0.1568593    0.1526694 -65.96 0.0001204022    1.059    0.056
        55  -8.5833    134.9977    112.2095   8.3394252500e+01   3.3073170046e+01    0.2391834    0.1782892 -22.48  0.001057477    1.621    0.383
        56  -7.9083    205.6796    110.3124   6.7131982560e+01   1.7286943464e+01    0.1532425    0.1184006 -71.22  0.000334232    1.650    0.394
        57  -8.9978     33.1218    109.4102   1.1266777569e+02   4.9726519487e+01    0.2353688    0.1306347 -70.33  0.001101069    1.561    0.359
        58 -13.4469     45.8150    198.4482   1.2018860390e+02   2.7744796295e+01     2.633067     1.024373  62.75   0.01105166    2.948    0.661
        59  -7.9828    128.5100     95.5032   8.0528702231e+01   3.8109049236e+01    0.1553841    0.1514161 -23.03 0.0008105601    1.015    0.014
        60  -9.5444     13.5230     60.0273   1.0975156611e+02   6.2494359769e+01    0.1734278    0.1426958 -43.02 0.0005031802    1.086    0.079
        61  -7.8824    174.6409    249.3491   1.0058417025e+02  -7.3058837418e-01    0.1191041   0.08464123  61.06 0.0007028782    1.851    0.460
        62  -8.1206     52.7580    250.5785   1.2281567451e+02   1.6868194873e+01    0.1522004    0.0742013  51.28 0.0005421885    1.538    0.350
        63  -8.1164    238.3177    247.6821   8.8959248168e+01  -9.9795556425e+00   0.09760794   0.08582172  39.75 0.0003255592    1.657    0.396
        64  -8.5045     57.4249    242.2107   1.2143764047e+02   1.7758981488e+01    0.1479856    0.0883477  83.92 0.0003907671    1.597    0.374
        65  -9.0419    140.6222     46.2695   6.1848593154e+01   4.4328284448e+01    0.3060533    0.2308814 -72.50 0.0009240653    1.732    0.423
