#   1 NUMBER                 Running object number                                     
#   2 MAG_AUTO               Kron-like elliptical aperture magnitude                    [mag]
#   3 X_IMAGE                Object position along x                                    [pixel]
#   4 Y_IMAGE                Object position along y                                    [pixel]
#   5 X_WORLD                Barycenter position along world x axis                     [deg]
#   6 Y_WORLD                Barycenter position along world y axis                     [deg]
#   7 A_WORLD                Profile RMS along major axis (world units)                 [deg]
#   8 B_WORLD                Profile RMS along minor axis (world units)                 [deg]
#   9 THETA_WORLD            Position angle (CCW/world-x)                               [deg]
#  10 FWHM_WORLD             FWHM assuming a gaussian core                              [deg]
#  11 ELONGATION             A_IMAGE/B_IMAGE                                           
#  12 ELLIPTICITY            1 - B_IMAGE/A_IMAGE                                       
         1 -17.1762    240.0385     74.3007   5.6667908806e+01   1.5901907959e+01     3.399685     2.825797  -4.94   0.01031891    1.076    0.071
         2  -8.8931    209.6558     12.6843   4.2441360779e+01   2.9913901301e+01    0.3895658    0.2813994  75.24  0.001398661    1.472    0.321
         3  -8.1879    169.0634     11.6508   4.6722673462e+01   4.0964669601e+01    0.2339196    0.1915717 -34.36 0.0002938593    1.194    0.162
         4  -8.7244    136.0182      9.6939   5.1117906475e+01   5.0220988760e+01    0.2622702    0.2082922  -7.07  0.000281748    1.274    0.215
         5  -8.7717      6.2411      8.3892   1.0211088242e+02   7.4630233592e+01    0.1435181    0.1079014  36.34 0.0009546623    1.702    0.413
         6  -8.6538    245.8125    229.1463   8.5986459404e+01  -4.0264887484e-01    0.1450952   0.08285756  21.98 0.0007566822    1.330    0.248
         7  -8.3209    123.9094    228.1161   1.0464245989e+02   1.6559998207e+01    0.1539567    0.1033975  54.66 0.0003799058    1.260    0.207
         8  -8.3877    232.8231    217.4681   8.6230512447e+01   2.2410101204e+00    0.1562568    0.1174878  10.58 0.0002721365    1.195    0.163
         9  -9.2546    231.1415    199.6713   8.3878968932e+01   4.0041009059e+00    0.2266393    0.2157149 -58.69  0.001243779    1.867    0.464
        10  -9.1202    219.4368    194.4031   8.4851371200e+01   6.2553344086e+00    0.2274093    0.1566733  42.24 0.0009196931    1.365    0.267
        11 -10.3014    250.1638    192.1645   7.9917227193e+01   1.8744396300e+00    0.1740521    0.1278257  13.25  0.000436041    1.071    0.066
        12  -8.8956    220.1670    189.7439   8.4009412574e+01   6.6010135952e+00     0.184029    0.1415486  16.13 0.0002780635    1.101    0.092
        13  -8.9644    220.7429    184.9828   8.3155757571e+01   6.9872615332e+00    0.1900918     0.129856  33.30 0.0003867733    1.168    0.143
        14 -10.3272    188.4450    181.1985   8.7831218583e+01   1.2643976616e+01    0.2095118    0.1760095  32.83 0.0003173916    1.075    0.070
        15  -8.4374    140.9834    181.9711   9.6462802212e+01   2.0331956799e+01    0.1694301    0.1406244  47.52            0    1.030    0.029
        16  -7.4654      1.2623    182.6118   1.2353298335e+02   3.7559268657e+01    0.1083587   0.04600391  64.00 0.0006977005    1.694    0.410
        17  -8.5580    247.0008    180.0526   7.8369424378e+01   3.3893921882e+00     0.169548     0.125359  19.19 0.0003288307    1.014    0.014
        18  -9.0712     73.9526    179.0586   1.0919114009e+02   3.0601360133e+01    0.1621256    0.1287975  61.60            0    1.030    0.029
        19 -10.3571    100.9982    175.9978   1.0346113866e+02   2.7425024287e+01    0.1656042    0.1347301  57.21      0.00116    1.005    0.005
        20  -8.8478    208.9926    164.9658   8.1636074662e+01   1.1098253970e+01    0.1772922    0.1449757  24.72            0    1.017    0.016
        21  -7.8694    194.9262    163.7426   8.3798322879e+01   1.3693463346e+01     0.252259    0.1630902 -52.80   0.00105681    2.378    0.580
        22  -8.3250     74.0094    163.7467   1.0768372396e+02   3.3355971302e+01    0.1746748    0.1414959  80.05  0.000333065    1.117    0.105
        23  -7.0863    118.7167    162.2850   9.8093651427e+01   2.7053605856e+01    0.1202322   0.08500435  68.35 0.0001846247    1.522    0.343
        24  -7.1169    136.9921    159.2486   9.3908757193e+01   2.4529848521e+01    0.1498173    0.0938715  44.48 0.0002296041    1.382    0.276
        25  -7.6672    222.6240    157.2733   7.8010473590e+01   9.6206673399e+00    0.1082567   0.09632146  69.81 0.0006206442    1.691    0.409
        26  -7.3337    141.7530    154.6900   9.2208741352e+01   2.4454142593e+01    0.1153951   0.09603574   6.20 0.0001536063    1.508    0.337
        27  -9.0106      6.5545    152.8422   1.2142132044e+02   4.2609004455e+01    0.2112654   0.06781543  50.55  0.001151392    2.285    0.562
        28  -9.2626     31.6115    146.4399   1.1549135306e+02   4.1643074734e+01     0.272814   0.08059921 -70.02   0.00126658    2.946    0.661
        29  -9.1528    230.0534    144.2997   7.4320997648e+01   9.7638970672e+00    0.1782179    0.1408095  28.95  0.000634127    1.124    0.111
        30  -9.3041    246.2144    246.5945   8.8183819042e+01  -1.6567521239e+00     0.139705   0.05844383  32.74  0.000950137    1.626    0.385
        31  -8.7765     37.4928    140.9935   1.1368917960e+02   4.2156029398e+01    0.1729119   0.09745921 -79.96  0.001031869    1.587    0.370
        32  -7.1756    166.0020    137.9499   8.4295491952e+01   2.2681786072e+01    0.1534543    0.1355791  37.53 0.0009329024    1.022    0.022
        33  -8.6934    153.9893    114.2623   8.1696128551e+01   2.9019024309e+01    0.2201305    0.1975214 -21.60 0.0002403689    1.190    0.160
        34 -10.6167    193.9477    111.4066   7.3177231000e+01   2.1034715386e+01    0.5551503    0.3057581 -46.97  0.002441452    2.246    0.555
        35 -10.2269    190.0700    109.7516   7.3484070655e+01   2.2102969302e+01    0.4084232    0.2589265 -35.04 0.0007607669    1.607    0.378
        36  -8.4388    116.9756    110.3002   8.9291618680e+01   3.7112680522e+01    0.1948877     0.169984  52.52 0.0004192279    1.112    0.101
        37  -9.0123    127.5623    106.2579   8.5812928954e+01   3.5871989867e+01    0.3392947    0.1368786 -43.93  0.001280489    2.585    0.613
        38  -9.1477    122.1205    105.2159   8.6887661943e+01   3.7145410848e+01    0.3169314    0.2165286   7.26   0.00131708    2.784    0.641
        39  -9.2260    165.3957    100.8531   7.6064331686e+01   2.8880177472e+01     0.350766    0.2165941  49.30 0.0008194032    1.579    0.366
        40  -8.4564    169.8431     98.9239   7.4669596449e+01   2.8216504614e+01    0.2506132    0.1894296  36.65 0.0005002895    1.324    0.245
        41  -9.9534    137.6907    100.2124   8.1964736046e+01   3.4968670124e+01    0.3977614     0.277482 -70.76  0.001832544    1.941    0.485
        42 -10.0244    147.7010     98.2362   7.9184558059e+01   3.3204436950e+01    0.4999962    0.3099944  39.30   0.00168553    1.683    0.406
        43  -8.4759     98.9799     91.0399   8.9535100409e+01   4.4427491618e+01     0.203496    0.1871002 -85.53            0    1.043    0.041
        44 -10.9887    171.2427     73.8729   6.7470124262e+01   3.1961926232e+01    0.6502955    0.4139183 -34.03  0.002678677    1.535    0.349
        45 -10.0485    113.9649     70.1972   7.9621123213e+01   4.5837922174e+01    0.2428393    0.2269544 -45.64 0.0002458709    1.042    0.040
        46  -8.1430    131.6899     75.3502   7.6601227719e+01   4.0987942527e+01    0.3110441    0.2196661  11.66 0.0008796873    2.148    0.534
        47 -10.6517    183.5435     65.6117   6.2719974389e+01   3.0212515860e+01    0.4433767    0.2746375 -37.38  0.001972374    1.576    0.366
        48  -7.5543    106.0000     65.9957   8.0530147229e+01   4.8333250440e+01    0.2512024   0.08055238 -44.15 0.0008074102    2.977    0.664
        49  -9.7140    184.1137     53.1887   5.8780252190e+01   3.1841633482e+01    0.2662825    0.2160141 -24.92 0.0006710893    1.185    0.156
        50  -7.6606    140.8176     52.1356   6.6861565315e+01   4.2995357367e+01    0.2140305    0.1812334  12.77 0.0007196786    1.317    0.241
        51  -9.0981    187.8491     33.1427   5.1680567312e+01   3.3470208682e+01    0.2658735    0.2142129   1.70 0.0004372967    1.306    0.235
        52 -10.2984    181.6275     48.7174   5.7760731883e+01   3.3095683038e+01    0.3583421    0.2718652  42.55  0.001199183    1.354    0.262
        53 -11.5242    179.9225     42.2237   5.5907127850e+01   3.4413557478e+01     1.025316    0.5156118  31.67  0.003605215    2.771    0.639
        54 -11.0427    189.4920     42.6920   5.4569350628e+01   3.1854855587e+01    0.5847049    0.4046358   5.89  0.002626049    1.699    0.411
        55  -9.2646    190.1266     37.8675   5.2910108080e+01   3.2295191512e+01    0.2554835    0.2288763  63.39 0.0008438337    1.170    0.145
        56  -8.3948    158.6684     41.9706   5.9544885591e+01   4.0026735263e+01    0.2211072    0.1886131 -28.95 0.0003295674    1.137    0.121
        57  -8.4377    148.8589     33.4341   5.8312851278e+01   4.3815725352e+01    0.5781642    0.2280696 -11.65  0.001377146    5.738    0.826
        58  -9.3358     57.1371    136.8060   1.0857424441e+02   4.0812232790e+01    0.2476147    0.2300769  60.31  0.000711013    1.251    0.201
        59  -7.7535    176.8376     30.1258   5.2269840976e+01   3.6772288724e+01    0.2181063    0.1739552  14.29 0.0004761018    1.364    0.267
        60  -9.0443    236.6719     26.4481   4.3994672209e+01   2.1854061459e+01    0.2681591    0.2205123   6.59 0.0008714826    1.257    0.204
        61 -10.1682     71.6356    133.4220   1.0462626411e+02   3.9650141182e+01    0.4330232     0.365953  -9.11  0.002690598    1.843    0.457
        62 -10.2028     66.7061    131.3944   1.0556737626e+02   4.0731963100e+01    0.5416708    0.3543044 -42.57   0.00296778    2.141    0.533
        63  -9.4452    241.9505    133.5323   7.0309955473e+01   8.8224459560e+00    0.2641333    0.2078335  58.75  0.001622033    1.705    0.413
        64  -8.7526     17.2113     18.7980   9.9417915012e+01   7.1591214238e+01    0.2098162    0.1058906 -36.84  0.001061801    2.076    0.518
        65  -8.0871    168.0121    248.2535   9.9611997938e+01   8.3912045610e+00    0.1522462   0.09508331  71.38 0.0009002905    3.639    0.725
        66  -8.6155      3.4061    131.0061   1.2112147695e+02   4.7225569666e+01    0.1578847     0.122854  57.04 0.0005061585    1.229    0.186
        67  -7.2324     85.3020    248.3076   1.1235447268e+02   1.8911373880e+01   0.08142697   0.06485406  30.43 0.0007012506    1.601    0.375
        68 -10.0829    121.4549    242.6382   1.0629124056e+02   1.5129897178e+01    0.1781852    0.1393658  46.01  0.001557448    1.138    0.121
