#   1 NUMBER                 Running object number                                     
#   2 MAG_AUTO               Kron-like elliptical aperture magnitude                    [mag]
#   3 X_IMAGE                Object position along x                                    [pixel]
#   4 Y_IMAGE                Object position along y                                    [pixel]
#   5 X_WORLD                Barycenter position along world x axis                     [deg]
#   6 Y_WORLD                Barycenter position along world y axis                     [deg]
#   7 A_WORLD                Profile RMS along major axis (world units)                 [deg]
#   8 B_WORLD                Profile RMS along minor axis (world units)                 [deg]
#   9 THETA_WORLD            Position angle (CCW/world-x)                               [deg]
#  10 FWHM_WORLD             FWHM assuming a gaussian core                              [deg]
#  11 ELONGATION             A_IMAGE/B_IMAGE                                           
#  12 ELLIPTICITY            1 - B_IMAGE/A_IMAGE                                       
         1 -12.5586      5.4939     47.8761   7.0326008777e+01   6.5935972092e+01     1.087427    0.5245522 -53.48  0.006060457    1.723    0.420
         2 -12.4711     56.0795     37.8618   4.4411190763e+01   6.2203600149e+01     1.039528    0.5197544 -24.69    0.0048532    2.314    0.568
         3 -11.8622     99.3630     27.2082   2.6196594883e+01   5.5528596414e+01    0.6460418    0.3761629 -27.36 0.0004869669    1.893    0.472
         4 -12.0014     14.9283     18.4765   5.5172938339e+01   7.0235349089e+01    0.3572809    0.2360779   7.52  0.000357505    1.352    0.260
         5 -11.4810     10.5882     11.4456   5.4390791651e+01   7.1652758629e+01    0.3675949    0.3345965 -47.22   0.00202026    1.791    0.442
         6 -12.4596      3.0545     13.9606   5.9696065910e+01   7.1925328922e+01    0.6638072    0.2206293 -43.45  0.003414745    2.481    0.597
         7 -11.2063      8.0954     15.0493   5.7358678314e+01   7.1356908451e+01    0.2536058    0.1993784  35.01    0.0012706    1.831    0.454
         8 -11.5015      6.8402     26.1255   6.2507734191e+01   6.9728052287e+01    0.5618547     0.280062 -58.52  0.002206312    2.735    0.634
         9 -11.0318    193.4295     20.5767   7.9462597232e+00   3.4508623721e+01    0.2611531     0.230537 -15.08  0.001470544    1.512    0.339
        10 -10.5733     53.8861     14.2889   3.5499996737e+01   6.5648096747e+01    0.3029656    0.2655077  10.01  0.002148812    1.156    0.135
        11 -10.7178     69.0772     20.2386   3.2558645554e+01   6.2339584365e+01    0.4070837    0.2123041 -27.63  0.002126811    2.031    0.508
        12 -11.1291     64.2126     18.4961   3.3515143213e+01   6.3411272636e+01    0.3858287    0.2408787 -33.97 0.0009778721    1.786    0.440
        13 -11.1513     59.9393     12.2984   3.2386435851e+01   6.4837047660e+01    0.5186928    0.2259273 -22.53    0.0025183    2.562    0.610
        14 -12.4025     65.2576     11.8448   3.0341462500e+01   6.3937996375e+01    0.2391743    0.2027528  18.91 0.0004321294    1.061    0.058
        15 -11.9674     28.8321     19.7302   4.8746063076e+01   6.8557246866e+01    0.3496279    0.2017227  13.99 0.0003739673    1.717    0.418
        16 -11.0698    169.9393     18.5215   1.0250608731e+01   4.0185727754e+01    0.3326543    0.1759117 -38.32  0.001319192    1.972    0.493
        17 -11.0779    159.9382     14.8016   1.0604461702e+01   4.2926496718e+01    0.2941004    0.1906737  57.49 0.0003125431    1.404    0.288
        18 -11.1148    165.7715     12.5860   9.2445738070e+00   4.1776492187e+01    0.3916916    0.2331761 -83.79  0.002020542    1.831    0.454
        19 -11.6855    159.8387      9.0487   9.0738077804e+00   4.3511040942e+01    0.4770822    0.2619267  48.64  0.001303476    1.881    0.468
        20  -9.7858    154.2911      8.1063   9.5535908425e+00   4.4900023552e+01    0.2297004    0.1974544 -85.28 0.0005802824    1.115    0.103
        21 -11.3211    132.2833     17.0442   1.5594046872e+01   4.9207276963e+01    0.5152935    0.2733239 -61.08  0.002252979    2.845    0.648
        22 -10.4725    124.4520     14.0605   1.6094385877e+01   5.1309886612e+01    0.3576034    0.2155804  80.06  0.001031438    1.892    0.472
        23 -10.4605    100.5338     17.4979   2.2405639223e+01   5.6325474632e+01    0.3454847     0.275718 -43.16  0.002127576    1.502    0.334
        24 -11.3904    137.7049     15.4630   1.4170967430e+01   4.8096565967e+01    0.3811661    0.2435948 -89.63 0.0008622649    1.832    0.454
        25 -10.7150    139.6297     10.9345   1.2506683232e+01   4.8077160640e+01    0.2407733    0.1750762  65.66 0.0002544332    1.167    0.143
        26 -11.6335    240.4353     14.5495   2.4279805443e+00   2.5078824289e+01    0.2409634    0.1755345 -78.82 0.0004847115    1.107    0.096
        27 -12.2089    235.5853      9.8382   1.8778670143e+00   2.6588150446e+01    0.3841932    0.2095517  73.67  0.000935903    1.692    0.409
        28 -12.2851    240.0421      4.4596   5.4478498073e-01   2.6277691990e+01    0.4518543    0.2444082  61.51  0.001061065    2.044    0.511
        29 -11.0468    145.9333      8.0198   1.0701447936e+01   4.6867483178e+01    0.3796745     0.187412  62.33  0.001914387    1.667    0.400
        30 -11.5416    249.3449      9.2565   8.1681195394e-01   2.3920887110e+01    0.4320855    0.1722325 -42.10  0.002354563    2.110    0.526
        31 -10.3913    176.9684     11.9887   7.7323378461e+00   3.9222217452e+01    0.3734456    0.1659075  73.34  0.001135887    2.010    0.502
        32 -10.1096    119.9311     10.6011   1.5832212469e+01   5.2664191797e+01    0.2304151    0.1680729   8.65  0.001071789    1.698    0.411
        33  -9.8603     27.2932     10.6349   4.5353291526e+01   6.9940027279e+01    0.1973744    0.1343314 -15.85  0.001323804    1.286    0.222
        34 -10.3477    101.1923      9.4710   1.9358049942e+01   5.6940169348e+01    0.3916173    0.2915437  -6.01  0.001443682    1.548    0.354
        35 -10.6212     97.8174      3.4759   1.7947142935e+01   5.8173710979e+01    0.2452385    0.2135326  54.97  0.001095665    1.093    0.085
        36 -10.6519    145.6171     12.4154   1.2008449817e+01   4.6533829648e+01    0.2817812    0.1585274 -54.28  0.001413491    2.102    0.524
        37 -10.6625    113.1130      8.0048   1.6300234308e+01   5.4434429988e+01    0.4761494    0.2675195 -70.54  0.002061649    3.275    0.695
        38 -10.2062    111.7384      2.6068   1.4743160829e+01   5.5186946145e+01    0.2743285    0.1679515  42.70  0.001145381    1.499    0.333
        39 -10.0868     90.7918      7.5868   2.1149722983e+01   5.9323017868e+01    0.2376493    0.1549125  31.02   0.00059205    1.482    0.325
        40  -9.8326     20.0094      8.3075   4.7896458705e+01   7.1098033469e+01    0.1513807      0.11307   3.85 0.0003666891    1.057    0.054
        41  -9.8408     16.3728      7.0841   4.9213527858e+01   7.1655267694e+01    0.2380987   0.08908794 -31.68  0.001208638    2.522    0.604
        42 -11.1052     21.6692      2.9462   4.4411582324e+01   7.1551399380e+01     0.495248     0.267117  14.03  0.002941812    1.835    0.455
        43 -10.2892     27.2584      2.4110   4.1369292152e+01   7.0905745197e+01    0.2077643    0.1747488  32.07 0.0006041725    1.515    0.340
        44 -11.4151     82.2086      6.9157   2.3136902557e+01   6.1145897232e+01    0.2050081    0.1507612  42.76 0.0002735161    1.122    0.109
        45 -10.2448     36.4021      6.3155   3.9048263616e+01   6.9222475216e+01    0.2599872    0.1390249  15.97  0.001421479    2.020    0.505
        46 -10.1777    223.1398      5.5046   1.9489168016e+00   2.9628554576e+01    0.1874369    0.1415759 -50.88  0.000280885    1.288    0.224
        47 -10.5553     67.7254      5.0650   2.6634578173e+01   6.4127999359e+01    0.3728621    0.2017483  58.88  0.001474746    2.032    0.508
        48 -11.4907    179.4912      3.6677   5.4211549853e+00   3.9451244884e+01    0.3565604    0.1951006  60.71  0.000154042    1.658    0.397
        49  -9.7825    135.3282      4.6650   1.1315648315e+01   4.9633881341e+01    0.1974351    0.1334902 -73.17  0.001100341    1.743    0.426
        50 -12.0878     75.7188     10.3831   2.6395661153e+01   6.2115476877e+01    0.6066903    0.4218419  17.82  0.002218466    1.435    0.303
        51 -10.3516    126.3278      2.8532   1.2209215972e+01   5.1860584380e+01    0.2408775    0.1832694  70.98 0.0005508444    1.155    0.134
        52  -9.4015     91.0330      2.0753   1.8997056907e+01   5.9727477633e+01    0.1438364    0.1183596  42.84 0.0003661653    1.016    0.015
        53  -9.6889     33.7350      1.9416   3.8109078367e+01   7.0068646792e+01    0.1604548     0.124423  12.84  0.001159357    1.044    0.042
        54  -9.6029     14.1247      2.1077   4.7965040842e+01   7.2515495239e+01    0.1629913    0.1084486  -5.51            0    1.222    0.182
        55 -10.3506    230.1739      1.4071   6.3288059325e-01   2.8596922459e+01      0.18977   0.09205411  74.60 0.0006108655    1.829    0.453
        56 -11.0780    164.3950      4.7040   7.3627472189e+00   4.2848388156e+01    0.2465341    0.1840576 -82.71 0.0002852499    1.256    0.204
        57  -9.5175    120.8944      1.5515   1.2719917760e+01   5.3205002803e+01    0.1920275    0.1028317  63.83  0.001010555    1.542    0.351
        58 -10.5251     73.9277      1.4487   2.3233851117e+01   6.3248759478e+01     0.266911   0.09996879  55.01 0.0005464311    2.286    0.563
        59 -11.9332     15.7600    191.7126   8.9001146667e+01   3.1996328186e+01    0.4655972    0.3094005 -64.42   0.00245855    1.451    0.311
        60 -11.9674    248.3573    248.7938   4.7035247349e+01  -1.2241929746e+01    0.6467638    0.3685207  -6.09  0.003827605    1.794    0.443
        61 -11.9548    225.8252    246.2159   5.0611983553e+01  -9.1192295175e+00    0.6115034    0.2849912 -25.12  0.003050356    2.385    0.581
        62  -9.6090    110.1827    250.1763   7.4312513429e+01   7.2278776592e+00    0.1771673    0.1303395  56.56 0.0006410782    1.292    0.226
        63 -10.2688     91.5951    249.7751   7.8098692585e+01   1.0027107790e+01    0.2047778    0.1530476 -87.44  0.001254507    1.485    0.327
        64 -11.7580     22.2319    248.6806   9.1604654592e+01   1.9062040576e+01    0.4407641    0.1812939  48.36  0.002157351    1.899    0.473
        65 -10.1145      6.9723    249.4710   9.4399790725e+01   2.0495021366e+01    0.2072779    0.1320727  87.34  0.000621529    1.319    0.242
        66 -10.4999     11.4650    248.6077   9.3556473963e+01   2.0209508679e+01     0.377862    0.1221606  51.82  0.001696293    2.363    0.577
        67 -11.7781     15.8803    182.4732   8.8202003663e+01   3.4150231870e+01    0.4694028    0.2473361  80.83  0.001861913    1.902    0.474
        68  -9.1883      1.6604    193.6826   9.2249350301e+01   3.2786996654e+01    0.1151528   0.08072419 -51.61 0.0007048914    1.708    0.414
        69  -9.7826     60.5109    192.0083   7.8502913108e+01   2.6889082256e+01    0.2463634    0.1756972  29.73  0.001136691    1.551    0.355
        70 -10.5812    225.1278    188.9981   4.0594778017e+01  -8.1258145210e-02    0.4361583    0.2333604  -9.64  0.001589632    3.748    0.733
        71 -10.6020    187.3753    189.8124   4.8151585539e+01   6.0852751285e+00    0.2059275    0.1245535 -32.32 0.0006303747    1.734    0.423
        72 -10.2207    145.5513    189.9999   5.7463546684e+01   1.3583682230e+01    0.2628324    0.1998256  18.44 0.0003846069    1.473    0.321
        73 -10.9232    244.5353    188.1978   3.7027740515e+01  -2.8853345875e+00    0.2179516    0.1719902  25.14 0.0006969096    1.343    0.256
        74 -10.1484    212.0750    187.1675   4.2685133426e+01   2.3498124860e+00     0.206766    0.1672267  -5.19 0.0003863767    1.221    0.181
        75  -9.5129      2.3012    187.3317   9.1674126765e+01   3.4185845485e+01    0.1174495   0.07955316 -54.23 0.0004927465    1.651    0.394
        76  -9.8188     61.9023    184.6928   7.7234510888e+01   2.8463638910e+01    0.2342344    0.1758952 -60.75 0.0009224967    1.315    0.239
        77 -11.4619    249.6055    179.6834   3.4565061790e+01  -2.2389494210e+00    0.3597279    0.1320435 -44.31  0.001497891    2.629    0.620
        78  -9.8574      1.4859    180.4814   9.1363850532e+01   3.5836093464e+01    0.1220923    0.0972586 -89.05 0.0004047396    1.030    0.029
        79 -10.5722      4.5959    179.2288   9.0557688038e+01   3.5881397639e+01      0.18698    0.1286176 -49.08 0.0007277615    1.692    0.409
        80 -10.7190     22.8359    179.9565   8.6323280480e+01   3.4096947653e+01    0.3978995    0.1699274  61.40  0.001679699    2.746    0.636
        81  -9.6298     54.0491    174.9381   7.7951006451e+01   3.1864674781e+01    0.2082745    0.1561189 -40.01 0.0006354186    1.598    0.374
        82 -12.0029      8.1366    172.6133   8.9188912149e+01   3.7156080646e+01    0.3277771    0.2419612 -55.77  0.001069979    1.424    0.298
        83 -10.9176     17.5857    172.5278   8.6890134136e+01   3.6369091329e+01    0.3658116    0.1762209  80.24  0.001381506    2.355    0.575
        84 -10.9483      1.4477    165.7131   9.0222619635e+01   3.9311729941e+01    0.3781243    0.1040401 -77.56  0.001437936    3.141    0.682
        85 -10.3227      7.8234    163.5704   8.8468690912e+01   3.9342091339e+01    0.2488268    0.1670866 -23.87  0.001390003    2.163    0.538
        86  -9.7751    177.3037    168.0451   4.5927234969e+01   1.2292241266e+01    0.2468741    0.1100543 -28.15 0.0007040608    4.257    0.765
        87  -8.6062    117.3016    161.7037   5.9014270004e+01   2.5250062628e+01    0.1534148     0.118653  75.85 0.0002833217    1.577    0.366
        88  -9.5660     51.4890    160.5269   7.6641470950e+01   3.5762802268e+01    0.1389085    0.1251451 -76.50 -3.532357e-05    1.032    0.031
        89 -10.8754    247.3996    157.2563   3.0549120885e+01   1.8397298560e+00    0.2469354    0.1564448 -55.44  0.001261304    1.912    0.477
        90  -9.5785     67.7110    157.7835   7.1745322088e+01   3.4331791706e+01    0.1952236    0.1565683  70.16 0.0005574333    1.310    0.237
        91 -10.0186     67.4517    165.6876   7.3081830134e+01   3.2390088768e+01    0.2577813     0.135546 -68.97 0.0007064269    1.910    0.477
        92 -10.3119    216.3195    154.4726   3.5256169270e+01   7.6357210421e+00    0.2815148     0.203859 -37.23  0.001162871    1.257    0.205
        93 -10.0503    158.3979    153.7376   4.7120272862e+01   1.9076355571e+01    0.3113902    0.2093362  31.21  0.001222957    1.635    0.389
        94  -9.9473     40.7819    151.8658   7.8362944887e+01   3.9167182567e+01     0.203533    0.1665545 -56.26 0.0005198183    1.182    0.154
        95  -8.9149    145.3053    151.6324   4.9786498230e+01   2.2187625884e+01    0.1601822    0.1236958  89.44 0.0007035451    1.748    0.428
        96 -11.0069     25.8148    147.6245   8.1980257990e+01   4.1722511295e+01    0.3293062    0.2263148  89.58  0.001438591    1.425    0.298
        97 -12.0072     13.8734    147.8824   8.5305567977e+01   4.2674097318e+01    0.2729305    0.1969775 -82.00 0.0002835467    1.192    0.161
        98  -9.2172    143.7372    148.6292   4.9506629735e+01   2.3185751889e+01    0.1583481    0.1208355 -17.17  0.000698311    1.656    0.396
        99  -9.2879    233.7388    146.6482   3.0603135182e+01   5.9623246003e+00    0.1359294   0.09798103 -15.33 0.0004134807    1.612    0.380
       100 -10.9685      6.2399    145.3708   8.7105618155e+01   4.3854181681e+01     0.313447    0.2030569  22.27  0.001204366    1.874    0.466
       101 -10.7523    217.3668    145.0529   3.3071135879e+01   9.2039044015e+00    0.3552284    0.1885458  33.85  0.001278571    2.387    0.581
       102 -10.7203     38.0385    145.3277   7.8201077904e+01   4.1096011772e+01     0.178586    0.1741691  85.32 0.0006337301    1.129    0.114
       103 -10.4150     10.9683    152.4581   8.6578686149e+01   4.1784808233e+01    0.3514042    0.1812165  36.75  0.001830422    2.077    0.518
       104 -10.5004     10.0738    140.0624   8.5470110853e+01   4.4870129672e+01    0.2354041    0.1327133  55.52 0.0008549561    2.008    0.502
       105 -10.5934     17.5078    143.4907   8.3790497085e+01   4.3459836515e+01    0.3028675    0.1566329  66.42  0.001372351    2.438    0.590
       106 -10.6173     14.0073    140.0225   8.4358084296e+01   4.4586707851e+01    0.2718683     0.157822 -44.23  0.001422843    1.811    0.448
       107 -10.3009    239.9304    140.0713   2.8251467466e+01   6.0500166237e+00    0.2040825    0.1977041   5.34 0.0006534735    1.161    0.139
       108 -10.4205    235.7479    138.0253   2.8489021603e+01   7.1425551085e+00    0.2028834    0.2004202  29.08 0.0004390139    1.163    0.140
       109 -10.1285    189.0384    139.9114   3.7325854839e+01   1.5743912103e+01    0.2215009    0.2110569 -45.24 0.0004384224    1.032    0.031
       110  -9.6875     67.0150    138.5000   6.8533434230e+01   3.9270483232e+01     0.206365    0.1457728  30.46 0.0005476818    1.535    0.349
       111 -10.5253     44.0393    137.8054   7.5280411172e+01   4.2330061124e+01    0.2690142    0.1815005 -65.85  0.001391616    1.324    0.245
       112  -9.9579     32.7742    136.9622   7.8502181640e+01   4.3714655857e+01    0.2020459    0.1650152 -88.82 0.0004410507    1.197    0.165
       113 -13.1918     37.5256    135.1087   7.6798267192e+01   4.3700412549e+01     0.467806    0.3003152 -71.02  0.001919363    1.424    0.298
       114  -9.7491     20.5348    135.0253   8.1840579574e+01   4.5294030461e+01    0.2100051    0.1111779 -69.44  0.000779632    1.598    0.374
       115 -11.6375     17.0124    130.6935   8.2298695533e+01   4.6638650376e+01    0.4215375    0.3020925  19.52   0.00247553    1.676    0.403
       116 -11.3754      4.7885    130.3094   8.5848566383e+01   4.7595248034e+01    0.2955496    0.1728904 -71.93 0.0003036532    1.390    0.280
       117 -11.0719      4.9671    125.3454   8.5200494207e+01   4.8779674734e+01    0.3492168    0.1394778 -64.11  0.001642003    1.906    0.475
       118 -10.4043    241.3058    133.9848   2.6784517537e+01   6.8748902496e+00     0.192283    0.1584059 -38.63 0.0005840598    1.044    0.042
       119 -10.9777     57.0941    132.8512   7.0464930458e+01   4.2010279874e+01    0.4216465    0.2754921 -10.92 0.0009735573    2.313    0.568
       120 -10.8705     53.0569    132.9690   7.1720642285e+01   4.2485801725e+01    0.2983584    0.2298513 -44.34 0.0004181182    1.286    0.222
       121  -9.8978     64.3717    130.8455   6.7849246039e+01   4.1545653124e+01    0.2124767    0.1198141 -50.27 0.0007658598    1.650    0.394
       122 -11.6273     74.1067    128.9527   6.4477519288e+01   4.0615485718e+01    0.3870099    0.3480066 -16.29  0.001117788    1.222    0.181
       123 -12.3647     81.4580    124.4629   6.1247790647e+01   4.0573726779e+01    0.8175948    0.5599429 -51.98  0.002606108    1.381    0.276
       124 -10.0250    217.0451    129.2795   2.9713517794e+01   1.2206489375e+01    0.1869259    0.1830178 -53.51 0.0004299595    1.086    0.079
       125 -11.0259     24.6632    127.5444   7.9536479745e+01   4.6786120677e+01    0.3386714    0.2121113 -72.76  0.001789241    1.432    0.302
       126  -9.2907    144.1897    136.6203   4.6648038195e+01   2.5810904734e+01    0.2154286    0.1469962  30.96 0.0002112954    1.651    0.394
       127  -9.6330     55.3618    127.2974   6.9946111684e+01   4.3610310724e+01     0.147835    0.1027242 -28.66 0.0007033373    1.713    0.416
       128 -10.7458    229.4830    124.5144   2.6631924963e+01   1.0694208130e+01    0.2589734    0.1590739 -49.23   0.00104379    1.521    0.343
       129 -11.9920     47.0853    124.2878   7.1978462793e+01   4.5348260626e+01    0.2566131    0.2443429  25.80 0.0003037688    1.168    0.144
       130  -9.4687     14.5218    124.8856   8.2256781861e+01   4.8242314844e+01    0.1935911    0.1074662 -68.08 -9.791356e-05    1.490    0.329
       131 -11.7225      8.9105    120.3197   8.3355324524e+01   4.9735755230e+01    0.6580839    0.3152732  77.00   0.00269374    3.236    0.691
       132 -11.5930      1.8200    118.4496   8.5293716122e+01   5.0618897993e+01    0.2891981    0.2072822 -69.75 0.0007860059    1.128    0.114
       133 -10.9925     20.0250    108.9446   7.8044551093e+01   5.1672306774e+01    0.3279462    0.2298514 -18.08  0.001310045    1.673    0.402
       134 -11.4423     16.0453    115.3753   8.0391825312e+01   5.0430737083e+01    0.2677697    0.2436863  12.67 0.0006412776    1.300    0.231
       135 -12.5157     13.9236    110.0503   8.0251553406e+01   5.1856516499e+01    0.4462268    0.3649378 -72.58 0.0007338267    1.119    0.106
       136 -11.1778     68.2211    121.7716   6.4769859546e+01   4.3241027880e+01    0.4115182    0.2378706  26.39  0.001819141    1.962    0.490
       137 -10.3774     64.9052    119.8878   6.5413985329e+01   4.4168891299e+01    0.2770985    0.2121981  18.63 0.0004065474    1.480    0.324
       138 -10.7077     61.0427    121.4942   6.6986469816e+01   4.4303660619e+01    0.2722624    0.2088542 -30.68 0.0006007403    1.416    0.294
       139 -11.0661     57.0080    121.0334   6.8178840556e+01   4.4944860612e+01    0.2624352    0.2223894 -72.32 0.0003173735    1.180    0.152
       140  -9.9957     35.1734    121.4324   7.5251898106e+01   4.7319365067e+01    0.2272418     0.160312 -53.55 0.0006753004    1.246    0.197
       141 -10.9737     23.8844    118.5009   7.8369804486e+01   4.9061588777e+01    0.6256289    0.1776306 -54.49  0.002406643    2.661    0.624
       142 -11.5110    249.1340    117.5785   2.2274087520e+01   8.3163509933e+00    0.3174692    0.2241431 -23.98  0.001753741    1.597    0.374
       143 -10.5913     70.0454    115.4299   6.2775908710e+01   4.4511449333e+01    0.2814084    0.2501709 -35.04  0.001560264    1.106    0.096
       144 -10.5659    181.9428    114.7062   3.2870907583e+01   2.2298252291e+01    0.3090142    0.2541682  58.32  0.001077121    1.275    0.216
       145  -9.4930    107.0380    113.9937   5.1056166239e+01   3.8517013375e+01    0.1865153    0.1767622  36.13 0.0005398983    1.074    0.069
       146  -9.7126     86.0373    116.2674   5.7927483345e+01   4.1789152734e+01    0.2026004    0.1895073  31.09 0.0002831933    1.112    0.100
       147  -9.8058     75.1194    112.4753   6.0455680707e+01   4.4450869194e+01    0.2173275    0.1457856  32.75  0.001026503    1.574    0.365
       148 -11.9150     31.1346    108.0905   7.4145987354e+01   5.0935440729e+01    0.6402507    0.3634824 -77.48  0.003002019    2.026    0.507
       149  -9.2265    225.2718    110.6751   2.4295536850e+01   1.3968546661e+01    0.1393199   0.09835015 -64.56 0.0002201462    1.577    0.366
       150 -10.9426      3.4177    106.0938   8.3112570364e+01   5.3450893252e+01    0.3815555    0.2554922 -70.45  0.001711069    1.255    0.203
       151 -10.6433     62.7627    106.9594   6.3189545184e+01   4.7564928362e+01    0.2753243      0.17384 -45.92   0.00112362    1.470    0.320
       152 -10.0761     61.3588    102.6749   6.2635284099e+01   4.8760197660e+01    0.2810338    0.1781198  60.07 0.0009834325    2.327    0.570
       153 -10.8938     62.0220     98.5501   6.1388247115e+01   4.9619237124e+01     0.423513    0.2507679 -42.47  0.001193521    1.601    0.375
       154  -9.1911    101.4921    111.0557   5.1930845329e+01   4.0245197352e+01    0.2122847    0.1473321 -48.66 -5.528152e-05    1.410    0.291
       155 -10.1006     81.0742    104.5956   5.6585477988e+01   4.5336695349e+01    0.2795163    0.2050135 -68.32 0.0006768829    1.605    0.377
       156 -10.4978     74.9713    104.0542   5.8430383274e+01   4.6441905334e+01    0.2150297    0.2012569 -40.25  0.000318136    1.018    0.018
       157 -11.0498     75.7250     99.3150   5.6958488588e+01   4.7403510731e+01    0.4524971    0.2769622 -35.99  0.001670194    1.717    0.417
       158 -10.7912     50.7185    103.7471   6.6527386926e+01   4.9882151243e+01    0.2834789    0.2311839 -12.45 0.0007205848    1.340    0.254
       159 -11.3642     22.0253     99.9049   7.5731567498e+01   5.3651611766e+01    0.4339809    0.3060092 -72.15   0.00195968    1.384    0.277
       160 -11.7175     17.5443     95.8544   7.6550051934e+01   5.4934316036e+01    0.4389459    0.2586769 -21.22  0.001934618    2.005    0.501
       161  -9.0248    194.2649    102.6641   2.7628217351e+01   2.1897950836e+01    0.1486625     0.107732 -68.00 0.0006973434    1.587    0.370
       162  -9.4151    108.8517    100.6357   4.6994600605e+01   4.1132129960e+01    0.2058338    0.1403052  52.48 0.0001536703    1.596    0.373
       163 -11.2857     55.1507    109.7297   6.6371656570e+01   4.7916480943e+01    0.2822393    0.2288233 -47.00 0.0005863087    1.124    0.110
       164 -11.8205     57.3041     90.6443   6.1005967399e+01   5.2044192237e+01    0.4395378    0.2995721 -27.17 0.0006640301    1.576    0.365
       165 -10.1404     56.9994     96.0430   6.2500473152e+01   5.0870913552e+01    0.2100472    0.1902232 -38.74 0.0003473042    1.012    0.012
       166  -9.7824     52.2905     97.2907   6.4461234564e+01   5.1189127809e+01    0.2081843    0.1594332 -16.93 0.0001657407    1.430    0.301
       167 -11.1961     52.0872     93.6523   6.3636570006e+01   5.2043662205e+01    0.2683642    0.2064098 -52.03 0.0002796706    1.205    0.170
       168 -10.4405    101.2609     95.0254   4.7683828584e+01   4.3828445040e+01    0.2438635    0.2117294  38.14 0.0003845233    1.161    0.138
       169 -10.0214    226.3288     93.4692   2.0369707770e+01   1.6733045387e+01    0.2338236    0.1781051 -78.57 0.0005865824    1.445    0.308
       170 -10.5790     13.5845     91.1845   7.7091670621e+01   5.6284098847e+01    0.3026826    0.1873963 -30.98  0.001688023    1.634    0.388
       171  -9.5987     31.6773     92.8904   7.0833533409e+01   5.4443274272e+01    0.1829539    0.1498279 -58.61 0.0005166194    1.138    0.121
       172  -9.5348    105.2017     91.1943   4.5419216671e+01   4.3858053465e+01    0.1986853    0.1771379 -75.11  0.000545744    1.300    0.231
       173 -10.8789     36.1760     90.1786   6.8566458545e+01   5.4623422872e+01    0.3605602    0.2438278 -12.76  0.001221638    1.722    0.419
       174 -11.4149     22.7667     89.4514   7.3365325717e+01   5.6001248736e+01    0.3802149    0.2817606 -79.67  0.002203482    1.539    0.350
       175  -9.5035     87.3833     89.2301   5.0363716867e+01   4.7641342142e+01    0.1957663    0.1370968 -54.74 0.0003719173    1.534    0.348
       176  -9.4332     73.8564     89.1474   5.4824632439e+01   4.9945522479e+01    0.1887416    0.1555295 -19.95 0.0002764484    1.239    0.193
       177 -10.6429     97.2452     89.0768   4.7211065931e+01   4.5850555527e+01    0.3037692    0.2057438  44.15  0.000445249    1.505    0.335
       178 -10.5146    109.7494     86.0410   4.2596894287e+01   4.3982869929e+01    0.2465098    0.2126443  41.99  0.001296877    1.151    0.131
       179 -10.2109     29.9940     85.7055   6.9825220551e+01   5.6222543381e+01    0.2153056     0.175609  43.86 0.0005738732    1.490    0.329
       180 -10.3983     30.0960     81.7057   6.8832565538e+01   5.7098232562e+01     0.284714    0.1788562 -51.67 0.0005330163    1.363    0.266
       181 -10.0183      8.6190     85.2103   7.7782396197e+01   5.7950760972e+01    0.2411283    0.1812636 -88.26 0.0008679043    1.563    0.360
       182  -9.7722      7.8665     80.5761   7.7157629877e+01   5.9026085861e+01    0.2111469     0.132076 -50.16 0.0004499528    1.269    0.212
       183  -9.6146    184.8841     85.2616   2.5059025268e+01   2.7146488164e+01    0.1879307    0.1764765  78.02 0.0002821771    1.065    0.061
       184 -10.2889     65.0834     84.0788   5.6441351762e+01   5.2378480327e+01    0.3659169    0.2236273 -69.23  0.001548928    2.528    0.604
       185  -8.9474     34.3203     84.6658   6.7941911561e+01   5.6041907992e+01    0.1260352    0.1015808  74.20 0.0007049537    1.701    0.412
       186  -9.5464    116.8129     83.4074   3.9831069931e+01   4.3017921180e+01    0.2106131    0.1371428  35.22 0.0004883214    1.631    0.387
       187 -10.5724     76.7020     82.2753   5.1876423311e+01   5.0933621720e+01     0.391158    0.2302249  48.22  0.001757587    1.985    0.496
       188  -9.9305     41.9280     83.4796   6.4770984110e+01   5.5505729502e+01    0.1970985    0.1867938 -72.18  0.001247156    1.233    0.189
       189  -9.8523     40.9638     79.7017   6.4146160017e+01   5.6431989992e+01    0.1918378    0.1818475  57.44  0.001153694    1.306    0.234
       190 -10.2857     21.1712     81.8007   7.2293050290e+01   5.7840635459e+01    0.1773002    0.1567598 -50.34 0.0004965738    1.098    0.090
       191 -10.8467     48.5805     77.3907   6.0605854130e+01   5.6033167538e+01    0.4634178    0.4277093  62.27  0.002872762    1.377    0.274
       192 -10.7498     53.8913     75.5072   5.8056325695e+01   5.5745059714e+01    0.3602404    0.2144351   8.96 0.0008401141    2.192    0.544
       193 -12.7182     88.3855     77.2069   4.6465142064e+01   4.9906142512e+01    0.3699252    0.3141851  27.18 0.0004758952    1.163    0.140
       194  -9.7554    203.1829     78.0676   2.0278790321e+01   2.4239749356e+01    0.1913477     0.183342 -38.14 0.0003861363    1.180    0.152
       195  -9.6627    112.4574     78.0424   3.9446443140e+01   4.4966884810e+01    0.2901306    0.1751488  13.28 0.0009918731    3.235    0.691
       196 -10.9321      6.3996     68.1527   7.5091981603e+01   6.1794525151e+01    0.2328588    0.1878804 -64.78  0.000616888    1.266    0.210
       197 -14.1958     16.6567     67.4698   7.0675157208e+01   6.1262952876e+01    0.6898678    0.5658097 -82.86   0.00111099    1.577    0.366
       198 -11.7496      3.2287     62.6756   7.5160695872e+01   6.3115134483e+01    0.7503536    0.3381822 -37.16  0.003942603    1.907    0.476
       199 -10.0431     83.8701    248.2155   7.9520994225e+01   1.1425029244e+01    0.1964654    0.1393362  57.20 0.0005104505    1.236    0.191
       200 -11.5591     13.0920     53.1483   6.8357634137e+01   6.4411567825e+01    0.4445973    0.2013305 -38.51  0.002285134    1.854    0.461
       201 -13.4217     12.5400     47.9793   6.7083183536e+01   6.5443127647e+01    0.3804022     0.269385 -28.84 0.0006928583    1.158    0.137
       202 -11.7903     19.7954     46.1310   6.3147582907e+01   6.5207646833e+01    0.2824547    0.2403591 -32.40  0.000265424    1.151    0.131
       203 -10.7089    168.3140     74.2324   2.5279794246e+01   3.2896917188e+01    0.4772551    0.2070036 -47.30  0.001623438    2.406    0.584
       204  -9.7925    167.8919     69.4882   2.4097713199e+01   3.3785335857e+01    0.1995302    0.1743659  62.36 0.0004994948    1.115    0.103
       205  -9.9221     36.8437     76.6039   6.4912974441e+01   5.7537633721e+01    0.1711836    0.1537988   0.39 0.0007869175    1.155    0.134
       206 -10.3826     99.7103     76.0845   4.2572382733e+01   4.7952886974e+01    0.2459038    0.2102815  74.44 0.0008206713    1.459    0.314
       207  -9.7025     73.9915     75.3864   5.0732364905e+01   5.2777048294e+01    0.3284608     0.198123  -4.67 0.0009141437    2.864    0.651
       208  -9.8999     61.6676     72.9927   5.4408166054e+01   5.5170967484e+01    0.3111192    0.1191433 -47.61  0.001220867    2.481    0.597
       209 -11.0243     52.3900     62.9277   5.4766317996e+01   5.8445021064e+01    0.3669619    0.2245601   7.76   0.00177747    2.034    0.508
       210 -11.8605     50.4243     68.2037   5.7191706204e+01   5.7678868880e+01    0.3633346    0.2411839 -30.01 0.0004973876    1.454    0.312
       211  -9.8853     44.4724     74.4136   6.1338992328e+01   5.7151702611e+01    0.1902742    0.1219414  27.03  9.41507e-05    1.648    0.393
       212 -11.1851     45.0187     70.8008   6.0081753983e+01   5.7831187440e+01    0.3230401    0.2274742 -58.18 0.0003205309    1.558    0.358
       213 -10.2014      7.0198     73.3194   7.5981644847e+01   6.0657590409e+01     0.270788    0.1562093 -17.41 0.0009600126    1.898    0.473
       214  -9.4790    207.0009     73.3204   1.8594670672e+01   2.4167107786e+01    0.1835627    0.1633648 -83.65 0.0003262978    1.061    0.058
       215  -9.2068      1.4853     73.5242   7.8232332451e+01   6.0913558559e+01    0.1222015   0.09525531 -47.39 5.726048e-05    1.014    0.014
       216 -10.6931    107.2280     72.0339   3.9094698660e+01   4.7175067758e+01    0.2850035    0.2083475  55.21 0.0003900542    1.461    0.316
       217 -11.1664    102.9575     69.8989   3.9671278612e+01   4.8442564306e+01    0.4041962    0.2348959 -43.67  0.001823217    1.790    0.441
       218 -10.9347    110.6248     65.2633   3.6008254931e+01   4.7652031651e+01    0.3769497    0.3101665  80.98  0.001225633    1.548    0.354
       219  -9.7091    199.6906     68.9369   1.8636356344e+01   2.6498597431e+01    0.1944393    0.1594858 -52.94 0.0003867444    1.145    0.127
       220 -10.6958    147.1141     65.9736   2.7287811375e+01   3.9267863119e+01     0.350502    0.2083295 -47.01   0.00136394    1.777    0.437
       221  -9.4709    131.6744     68.7243   3.1610549140e+01   4.2394777301e+01    0.1465957    0.1115524  22.78  0.000131985    1.585    0.369
       222  -9.7761    123.0089     67.5015   3.3399175450e+01   4.4561190056e+01      0.23704    0.1853068 -36.41  0.001163822    1.332    0.249
       223 -10.9398     92.7045     67.5539   4.2045683640e+01   5.0906007649e+01    0.2957784    0.2427112  -6.45 0.0007525572    1.304    0.233
       224 -12.9732     30.3771     63.4404   6.3847893971e+01   6.0911591912e+01    0.4864978    0.3834572 -33.16  0.001070123    1.070    0.065
       225  -9.2292    138.2794     66.3396   2.9349946464e+01   4.1273131862e+01    0.2141286    0.1182003  33.84 0.0003959173    2.403    0.584
       226  -8.9200    135.2680     66.3340   3.0044756285e+01   4.1971220975e+01    0.1430892     0.113285  12.81 0.0003274147    1.588    0.370
       227 -11.2233     81.9901     64.5856   4.4553626341e+01   5.3444730639e+01    0.4158519    0.2524135  26.74   0.00160739    1.819    0.450
       228 -10.7406    159.6479     64.3847   2.4285968185e+01   3.6561233655e+01    0.3276787    0.2611908  -6.17 0.0003761484    1.658    0.397
       229  -9.9394    210.0078     63.0307   1.5790977620e+01   2.5110745225e+01    0.1993133    0.1778755 -70.33 0.0003716314    1.034    0.033
       230  -9.7111    123.0998     62.5850   3.1863853202e+01   4.5362808353e+01    0.2349719    0.1958783  -3.89  0.000822035    1.389    0.280
       231  -9.2777    193.5146     62.5097   1.8008330990e+01   2.8906113398e+01    0.1388572    0.1243568 -78.05 -6.395988e-05    1.009    0.009
       232 -11.7095     46.7388     59.8987   5.6026332264e+01   5.9761721837e+01    0.5818534    0.3343208 -15.11  0.001956096    2.299    0.565
       233 -11.8850     55.3891     49.1252   4.8885146599e+01   6.0506794390e+01    0.3603018    0.2429161  31.60 0.0003871518    1.458    0.314
       234  -9.9671    183.1184    246.6919   5.8856110331e+01  -3.2422772090e+00    0.2553571   0.09442004  40.65  0.001085993    2.532    0.605
       235 -10.1005     45.0418     38.6504   4.9213744508e+01   6.3682289058e+01    0.3092121    0.2157191 -40.51  0.001000701    1.496    0.332
       236 -11.9887     46.4943     49.3752   5.2557888524e+01   6.1704841149e+01     0.743003    0.2417146 -43.88  0.002511753    2.886    0.653
       237 -10.9837     44.1195     43.8031   5.1538322163e+01   6.2967034641e+01    0.2533423    0.2033746 -34.44 0.0003460586    1.248    0.199
       238 -10.5310    119.0969     61.0000   3.2391671730e+01   4.6515377949e+01    0.2092528    0.2019619  30.52 0.0003291684    1.024    0.024
       239 -11.0666     89.1745     53.7600   3.8564592237e+01   5.3945059711e+01    0.5242879    0.2937645 -33.29  0.002465363    1.864    0.463
       240 -10.3175     90.1066     60.9065   4.0688012674e+01   5.2577112293e+01    0.2762246    0.2089354  26.80 0.0009063387    1.321    0.243
       241  -9.8888     92.8151     58.0145   3.8871516892e+01   5.2537510797e+01    0.2464355    0.2197911 -67.70 0.0009344765    1.412    0.292
       242  -8.8566    202.6591     60.7081   1.6254159123e+01   2.7100474115e+01    0.1292443    0.1054315  32.18   0.00037889    1.651    0.394
       243  -8.9883    183.2897     60.3116   1.9044071617e+01   3.1611518989e+01    0.1319358    0.1094622  25.79  0.000230211    1.584    0.369
       244  -9.0185    186.6757     64.3105   1.9510951973e+01   3.0206834987e+01    0.1470368    0.1009714 -73.23 0.0004474614    1.655    0.396
       245 -10.3502    136.3087     58.8006   2.7560215687e+01   4.2942611271e+01    0.3949603    0.2508961  80.37   0.00168348    2.265    0.558
       246 -10.0308    193.4089     58.1294   1.6955647048e+01   2.9592858701e+01    0.2098401    0.1785316  61.47 0.0004196383    1.216    0.177
       247 -11.8101    115.7682     55.3621   3.1464167799e+01   4.8148000624e+01    0.3565777    0.2557966  67.54  0.001773703    1.620    0.383
       248 -10.0314     80.4473     56.1583   4.2235420435e+01   5.5192022290e+01    0.3923404    0.2365691   1.73  0.001605948    2.787    0.641
       249  -9.0641     38.6650     57.7450   5.8638395699e+01   6.1144552845e+01    0.1292527   0.08618018 -14.00 0.0003416439    1.568    0.362
       250  -9.6588    176.6040     56.1756   1.9063618620e+01   3.3803944690e+01    0.2248618    0.1485089  58.39 0.0005508306    1.455    0.313
       251 -10.8477    155.2888     63.1048   2.4787396276e+01   3.7798164354e+01     0.262171    0.2247355 -75.46  0.001433322    1.226    0.184
       252  -9.9719     98.1200     56.0418   3.6598962100e+01   5.1796685981e+01    0.2687609    0.1684819  22.75 0.0009813632    2.005    0.501
       253  -9.0951     68.5519     56.5534   4.6529356223e+01   5.7184126581e+01    0.1326387     0.121022  -0.04 0.0001400609    1.053    0.051
       254 -10.3826    145.3860     54.3043   2.4277311378e+01   4.1495970117e+01     0.290811    0.2138286  40.05 0.0006724868    1.442    0.306
       255 -11.2709    149.4280     51.4210   2.2630605678e+01   4.0960558522e+01    0.3398297    0.2889453 -70.94  0.001259756    1.251    0.200
       256 -11.6605    105.3990     52.4568   3.3304489211e+01   5.0844440688e+01    0.3939781     0.245946  47.22 0.0004421013    1.498    0.333
       257 -11.8986     39.5965     49.6213   5.5534469856e+01   6.2530170301e+01    0.4716473    0.2710897 -29.83  0.001150699    1.669    0.401
       258 -10.3675    127.0306     50.7956   2.7239101334e+01   4.6297141709e+01    0.2647974     0.246278 -48.65  0.001560983    1.159    0.137
       259 -10.5028     62.5253     50.9146   4.6779561167e+01   5.9118275251e+01    0.3113073    0.1230231 -41.21  0.001203504    2.504    0.601
       260 -10.8779    132.2280     49.6226   2.5690440616e+01   4.5267232208e+01    0.4276889    0.2849139  84.82 0.0008975334    2.093    0.522
       261 -11.0504     82.7207     48.8240   3.8916262608e+01   5.5958801186e+01    0.3998714    0.3533789 -13.01  0.001380596    1.114    0.102
       262  -9.9200     78.3952     47.7496   3.9971790660e+01   5.6927078205e+01     0.287275    0.1660952 -10.30  0.001214262    2.656    0.624
       263  -9.7080     72.9981     49.4132   4.2428738241e+01   5.7626710346e+01    0.3161453    0.1668912 -36.19  0.001382167    1.913    0.477
       264  -9.7788    180.5240     47.4042   1.6192393317e+01   3.4139479485e+01    0.3209943    0.1733143 -58.22  0.001132114    2.117    0.528
       265 -10.5464    101.5820     47.0936   3.2565746561e+01   5.2455096702e+01    0.3792356    0.2127503  41.31  0.001075811    1.686    0.407
       266  -9.7446    222.2629     45.9723   1.0491442661e+01   2.4908335855e+01    0.1730747    0.1439482 -63.73            0    1.059    0.056
       267 -11.2635    121.7929     43.4184   2.6128128940e+01   4.8536424375e+01    0.3690923    0.2652914 -40.65  0.000521019    1.516    0.340
       268 -10.0263    116.7431     39.4214   2.6027838164e+01   5.0212953264e+01    0.3817157    0.2057524  29.02  0.001576837    2.597    0.615
       269 -10.6403     72.1725     42.8069   4.0310171162e+01   5.8799112437e+01    0.3894024    0.2664895   6.04  0.001470455    1.686    0.407
       270 -11.9299    248.0546     36.2319   5.9979447009e+00   2.0915494853e+01    0.5948588    0.1992273 -36.54 0.0003161177    2.830    0.647
       271 -10.0350    236.9645     44.4467   8.6467253758e+00   2.2043738247e+01    0.2142718    0.1401678 -58.08 0.0007645109    1.307    0.235
       272  -9.8111    112.1653     45.2184   2.9083490080e+01   5.0443716171e+01     0.201645    0.1730388  26.02 0.0004803271    1.164    0.141
       273  -9.8553    163.3385     44.0775   1.8043820244e+01   3.8671020152e+01    0.1831515     0.166269 -64.42 0.0003590013    1.116    0.104
       274  -8.9671    154.6863     44.7172   1.9728294378e+01   4.0648270488e+01    0.1368387    0.1016421  35.31 0.0002547485    1.575    0.365
       275 -10.0812    131.1047     42.3648   2.3694817540e+01   4.6535989000e+01    0.2348046    0.1910437 -14.99  0.001311128    1.426    0.299
       276 -11.1523     96.7183     41.6116   3.2051056632e+01   5.4251711116e+01    0.3368949    0.2563243  34.69  0.001894505    1.221    0.181
       277 -10.0857    102.2065     41.0466   3.0312408778e+01   5.3178311100e+01    0.2396301    0.1648825  38.13 0.0006816937    1.367    0.268
       278 -11.1634     62.1794     41.4019   4.3418560050e+01   6.0701793032e+01    0.2876679    0.1862439 -42.73  0.001563847    1.713    0.416
       279  -9.3490    196.7656     41.6494   1.2525522053e+01   3.1150131679e+01    0.1780265    0.1132417  80.11 0.0003540571    1.548    0.354
       280 -10.3137    187.0383     41.0198   1.3656600989e+01   3.3479876364e+01     0.196544     0.172173 -88.26            0    1.008    0.008
       281 -10.3419    108.5354     40.7982   2.8538779354e+01   5.1848527243e+01    0.3664856    0.2127707  69.57  0.001596339    2.366    0.577
       282  -9.8602     89.9141     41.4934   3.4022194104e+01   5.5651394173e+01    0.2084601    0.1236831  48.31  0.001031339    1.596    0.373
       283 -10.0178     23.6310     40.4609   5.9438241798e+01   6.5869716737e+01    0.2713835    0.1679689 -32.06  0.001301425    1.379    0.275
       284 -12.3581     27.7205     37.6299   5.6509123761e+01   6.5939448769e+01    0.2357125    0.1906186  -6.27 0.0002745734    1.065    0.061
       285 -10.8918     24.3876     34.7803   5.7007380606e+01   6.6758293855e+01    0.2548202    0.1763008 -10.66 0.0004232141    1.300    0.231
       286 -11.9003     83.8535     36.6226   3.4120944879e+01   5.7517054706e+01    0.7491959    0.4141879  31.20   0.00301609    1.905    0.475
       287 -11.8083     75.2723     35.0993   3.6342774548e+01   5.9345964540e+01    0.3931759    0.3255059 -28.82  0.001853044    1.293    0.227
       288 -10.7032    225.9804     38.5037   8.5044587198e+00   2.5120109453e+01    0.2213351    0.1774824 -24.91  0.001201152    1.627    0.385
       289 -11.9269    139.5854     36.4109   2.0135114277e+01   4.5319128185e+01     0.396414    0.3336934  51.22  0.001309594    1.119    0.107
       290 -10.3939    148.5981     39.0954   1.9228201529e+01   4.2842433421e+01    0.4664276    0.1762282 -35.71  0.001862159    2.735    0.634
       291  -9.6522    165.2177     37.2070   1.5874417411e+01   3.9123507583e+01    0.2874689     0.165742 -71.51  0.001265277    2.337    0.572
       292 -10.2622    233.6055     39.5108   7.9623161293e+00   2.3393645353e+01    0.3075541    0.1554645  87.16  0.001111095    2.268    0.559
       293  -9.9397    222.0359     37.4920   8.6909904794e+00   2.6092453356e+01    0.1836798    0.1127793  73.12   0.00102288    1.561    0.359
       294 -10.3775     92.5948     34.8997   3.0845405525e+01   5.6001436221e+01    0.3405612    0.2215156 -15.83  0.001770242    1.783    0.439
       295 -11.1330     65.0552     36.6701   4.0541088528e+01   6.0928630701e+01    0.2171317    0.1810602 -14.43 0.0002019177    1.151    0.132
       296  -9.4097    129.2070     35.8213   2.2056369263e+01   4.7822987766e+01    0.1855249    0.1450691  35.19 0.0003300017    1.330    0.248
       297 -10.3362    241.4845     34.9557   6.3173294502e+00   2.2383997567e+01    0.1844587    0.1430631 -84.24 0.0008278267    1.140    0.123
       298 -10.1548    110.5058     34.9001   2.6038214883e+01   5.2182949073e+01    0.2980122    0.1732256  49.89  0.001478444    1.526    0.345
       299  -9.4429    168.8016    250.4202   6.2282130553e+01  -1.7057288157e+00    0.1828144    0.1048406  25.44 0.0005654366    1.649    0.394
       300 -10.0499     34.2089     33.6788   5.2023581579e+01   6.5849808052e+01    0.1817812    0.1451145 -27.36 0.0006583882    1.194    0.163
       301 -10.7087     17.6635     31.4334   5.8999923672e+01   6.7957821812e+01    0.4200933     0.197337   9.99  0.001614497    2.489    0.598
       302 -11.2429     12.0164     29.1933   6.0986582633e+01   6.8816861181e+01    0.2049726    0.1544601 -14.96 0.0003529516    1.064    0.060
       303  -9.9883     10.8875     24.6841   5.9836628410e+01   6.9642564754e+01    0.3011713    0.1465771 -33.53 0.0006081018    1.729    0.422
       304 -10.7941     73.3348    244.3504   8.1299336485e+01   1.3645348449e+01    0.2758204    0.2299261  21.21  0.001029431    1.495    0.331
       305 -12.3786     74.6984    239.7473   8.0569755618e+01   1.4380071608e+01    0.5608514    0.4714391 -62.73  0.002991115    1.371    0.271
       306 -10.0837     45.4148    244.2969   8.6900169350e+01   1.7267892760e+01    0.2095056     0.106774  54.45 0.0005261489    1.659    0.397
       307  -9.7153      4.6390    244.0107   9.4546773146e+01   2.1793318562e+01    0.1558493    0.1076461  80.48 0.0004721219    1.144    0.126
       308  -9.7309     65.0380     31.5064   3.8527127499e+01   6.1651523722e+01    0.1877934    0.1135711  39.70 0.0004396391    1.533    0.348
       309 -10.0137    162.9207     28.6857   1.3926478070e+01   4.0709610128e+01    0.3071219    0.1841031 -17.57  0.001168118    2.301    0.565
       310  -9.7264     49.0974     29.3785   4.3841196467e+01   6.4493772301e+01    0.2513502    0.1883575  37.89    0.0015734    1.433    0.302
       311 -10.7874    197.8897     28.2463   9.2373220397e+00   3.2596578190e+01    0.3088723    0.1771037  83.89  0.001094822    1.729    0.422
       312  -8.9449    139.3239     28.6347   1.7845813639e+01   4.6314811948e+01    0.1398038   0.09676455 -71.34 0.0007038785    1.793    0.442
       313 -10.7724    119.4594     27.2229   2.1385896997e+01   5.1087292744e+01    0.3300508    0.1864199  53.03 0.0003337311    1.533    0.348
       314 -10.2935    122.9466     26.3041   2.0339933112e+01   5.0393353241e+01    0.1937997     0.184955 -17.85 0.0005036968    1.177    0.150
       315  -9.9938     79.9600     27.1288   3.1751801131e+01   5.9487386564e+01    0.2304719     0.178073   4.76  0.001384841    1.318    0.241
       316 -12.0768    231.6154     26.2874   5.4481552274e+00   2.5488326591e+01    0.3222281    0.2050865 -86.08 0.0008224129    1.446    0.309
       317 -10.9162    176.6307     26.3864   1.1389244212e+01   3.7736542892e+01    0.2825319    0.2033618 -58.92  0.001623031    1.391    0.281
       318  -9.4044    133.7860     27.3727   1.8502585499e+01   4.7759540892e+01     0.188318    0.1058272  52.46 0.0004111218    1.572    0.364
       319 -10.5095    112.5238     26.2056   2.2602677371e+01   5.2766494443e+01    0.3274627    0.2224721   8.83   0.00170404    1.914    0.478
       320 -10.4163     61.4212     26.4749   3.7829775604e+01   6.2929520302e+01    0.2159038    0.1758182  14.14 0.0005569896    1.045    0.043
       321 -12.0435    215.5827     25.7560   6.8172318800e+00   2.8960040456e+01    0.6020796    0.2341758  72.89  0.002719418    2.475    0.596
       322  -9.2712    145.2948     26.3869   1.6116315431e+01   4.5159503226e+01     0.136817   0.09419918  32.01 0.0001111283    1.772    0.436
       323  -9.5470    102.3004    243.3353   7.5166368416e+01   9.6950799318e+00    0.1200068   0.09968728  -8.89 0.0003259624    1.657    0.397
       324 -10.1543     91.0779     24.9025   2.7602061007e+01   5.7529130791e+01    0.3314198     0.158995  49.68  0.001582609    1.813    0.448
       325 -10.5042    159.5005     23.5289   1.3036125951e+01   4.2108209314e+01    0.2433357     0.212165  59.13  0.001103704    1.140    0.123
       326 -11.0535    156.3019     21.4546   1.2943505827e+01   4.3092883743e+01    0.3459491    0.2136817 -53.72  0.001813715    1.782    0.439
       327 -10.6135    129.0286     24.0404   1.8385397176e+01   4.9237857291e+01    0.1976057    0.1697165  52.45 0.0003033923    1.058    0.055
       328  -9.7558     54.1480     22.8517   3.9093674014e+01   6.4586737789e+01    0.1663921    0.1212809   8.61 0.0003256113    1.268    0.211
       329 -11.9775     34.1729     22.6763   4.7519903041e+01   6.7487397453e+01    0.2237379    0.1624057   5.08 0.0002252524    1.188    0.158
       330 -11.4502    249.1199     20.8463   2.9797687413e+00   2.2623914649e+01     0.251544    0.1653971 -63.27 0.0003280985    1.212    0.175
       331 -11.2265    246.3377     16.7078   2.4062064856e+00   2.3657299915e+01    0.2287726    0.1426031 -81.00 0.0006128424    1.395    0.283
       332 -10.3310     82.6717     21.9006   2.8895204567e+01   5.9564818032e+01    0.2753524    0.2033847 -47.80   0.00120372    1.785    0.440
       333 -10.6735     88.9585    241.2364   7.7739006593e+01   1.2065372762e+01    0.2085873    0.1600684 -46.46  0.001219718    1.630    0.386
       334  -9.0408    131.7060    241.3219   6.8690221542e+01   5.5734546046e+00    0.1294713   0.09409103  63.27 0.0003072557    1.614    0.380
       335 -10.3326     59.6728    240.8166   8.3764803467e+01   1.6177467289e+01    0.1728313    0.1443484  51.01  0.001149422    1.139    0.122
       336 -10.2337    196.0293    238.3005   5.4979845119e+01  -3.8249281564e+00    0.2193687    0.1830046 -31.16  0.001010838    1.302    0.232
       337  -9.3747    149.7055    239.6774   6.4657486254e+01   3.0476806738e+00     0.128733   0.09679224  -1.00 0.0002929874    1.617    0.381
       338  -9.9479      3.5299    238.4606   9.4471058249e+01   2.3005730948e+01    0.2127374   0.09113222 -80.14  0.001051148    2.055    0.513
       339 -11.0198     35.0901    237.8522   8.8450939881e+01   1.9800170403e+01    0.2566625     0.134372  61.09  0.001117699    1.686    0.407
       340  -9.8658     24.4924     20.0290   5.0983522046e+01   6.9018751557e+01    0.1612607    0.1184063 -21.08 0.0004112395    1.170    0.145
       341 -10.2265     32.8124     15.3787   4.4924795045e+01   6.8638594800e+01    0.2163879    0.1678869  -5.12 0.0002907114    1.069    0.064
       342  -9.9667    230.7486     20.1899   4.2925521099e+00   2.6399730619e+01    0.1497385    0.1335329  74.89 0.0006457221    1.335    0.251
       343 -10.7772     30.8967    234.3647   8.9028592199e+01   2.0997770031e+01    0.3851875    0.1918981 -75.33  0.002119282    1.898    0.473
       344  -9.7207     40.5233    237.5565   8.7353871585e+01   1.9225770378e+01    0.1200793   0.09761753  68.09 0.0008072324    1.036    0.034
       345  -9.2034    191.2807    236.3241   5.5599510892e+01  -2.8069448664e+00    0.1288208   0.08915465  -2.57 0.0006996191    1.592    0.372
       346 -10.1415     67.5436    236.0734   8.1704092080e+01   1.6106501306e+01     0.244639    0.1758033  33.29  0.001451997    1.447    0.309
       347 -11.3873    183.0188    233.5161   5.6805980350e+01  -1.0933329353e+00    0.3901368    0.2594905 -38.29  0.001826074    1.601    0.376
       348 -10.8360    160.9220    235.1889   6.1633091021e+01   2.0733861746e+00    0.3436697    0.1692946  24.80   0.00148459    2.320    0.569
       349  -9.4511    160.7212    231.3852   6.1088827963e+01   2.7819883650e+00    0.1911806    0.1682207 -79.85  0.000744551    1.499    0.333
       350  -9.9980    126.7473     18.8593   1.7188717500e+01   5.0310001553e+01    0.2294522    0.1545997 -83.72 0.0007267311    1.926    0.481
       351 -10.6089     55.0516    231.6862   8.3905526778e+01   1.8660630393e+01     0.237757    0.1739831 -71.31  0.001170237    1.402    0.287
       352 -10.2182     76.7350     15.9453   2.8342367017e+01   6.1366681555e+01    0.2131006    0.1472497  40.28  0.000205882    1.230    0.187
       353 -10.0601    165.1443     17.1354   1.0521653210e+01   4.1460441866e+01    0.1871606    0.1554033  54.68  0.000339391    1.241    0.194
       354  -9.0310     23.6553    232.6882   9.0336620595e+01   2.2142432059e+01    0.1053474   0.08830725 -45.60 0.0006121194    1.706    0.414
       355 -10.5464    237.2559    230.3826   4.5913006004e+01  -8.3684701188e+00    0.2183105    0.1916239  89.07  0.001364661    2.341    0.573
       356  -9.0760    119.6178     16.8302   1.7935042226e+01   5.2149369659e+01    0.1711011    0.1148028 -41.27   0.00094407    1.716    0.417
       357 -10.4265    109.2001     16.7473   2.0117309553e+01   5.4502393638e+01    0.2481256    0.1536178  53.23 0.0008679366    1.367    0.269
       358 -10.3934    217.0222     16.0873   4.6249169065e+00   2.9776024396e+01    0.3821116    0.1176928  60.78    0.0016379    3.027    0.670
       359 -10.8051     39.6273    229.2954   8.6892391726e+01   2.1058462087e+01    0.2746493    0.1513859  62.59  0.001135025    1.658    0.397
       360 -10.4586    248.5151    229.0608   4.3718617146e+01  -9.6145129136e+00    0.1746962    0.1005776 -33.38  0.001028508    1.583    0.368
       361  -9.6182    192.3403    226.8542   5.3824125034e+01  -1.4150210821e+00    0.2401376    0.1201358 -50.31  0.001092604    2.502    0.600
       362 -10.0001      4.2415    225.7288   9.3668366784e+01   2.5550879039e+01    0.2197984    0.1690673  11.93  0.001479555    1.995    0.499
       363 -10.4348     79.4915    223.0955   7.7769889912e+01   1.7182146906e+01    0.2611113    0.2077808  -1.47  0.001453939    1.854    0.461
       364  -9.7730     16.2803    222.0448   9.1093648028e+01   2.5160958183e+01    0.1669318    0.1253841  82.13 0.0004432976    1.080    0.074
       365  -9.5291    126.0364    220.5121   6.6998482762e+01   1.0521193360e+01    0.2044453    0.1006394  54.51 0.0008096714    2.521    0.603
       366 -11.6179     49.0811    218.3983   8.3960216040e+01   2.2277878604e+01    0.5080443    0.2737657  30.29  0.002089527    2.025    0.506
       367  -9.5799    211.8140    218.8113   4.8607087358e+01  -3.0429780740e+00    0.1591288    0.1547072  -8.91 0.0006961662    1.323    0.244
       368 -10.2252     38.4712    217.0109   8.6121804574e+01   2.3854967516e+01    0.1883829    0.1459521  53.49 0.0004025811    1.178    0.151
       369 -12.3044      5.8656    212.7847   9.2596362564e+01   2.8166588586e+01    0.7375187    0.2952269 -88.45  0.003556139    2.343    0.573
       370 -11.9550     11.5463    209.6007   9.1230478538e+01   2.8336023207e+01    0.3782359    0.2069088  82.17  0.001277016    1.632    0.387
       371  -9.5539    110.3643    211.7914   6.9294063809e+01   1.4910738200e+01    0.1917474     0.125151 -47.17  0.000941942    1.709    0.415
       372 -10.4610     20.5330    212.0079   8.9526308139e+01   2.6918319657e+01    0.2376351    0.1251061  66.14  0.001267747    1.770    0.435
       373 -10.2205    217.1811    209.1934   4.5859719316e+01  -2.2697151576e+00    0.3044886     0.164349 -36.27  0.001078504    1.766    0.434
       374  -9.3146    132.2582    209.0330   6.3821353590e+01   1.1859618040e+01    0.1725457    0.1228338 -52.33 0.0006177977    1.507    0.336
       375 -10.2848     72.9173    208.2192   7.7522234178e+01   2.1411615084e+01     0.304259    0.1852216  24.74  0.001467422    1.988    0.497
       376  -9.5199    201.7646    207.0211   4.8453952448e+01   5.0215652648e-01    0.1777274    0.1068633 -40.00 0.0006538756    1.653    0.395
       377  -9.8885    147.8588    205.8943   5.9747013985e+01   9.8298005265e+00     0.222869    0.1900511  -2.22  0.001130027    1.295    0.228
       378 -11.5952     19.2339    204.0046   8.9201784850e+01   2.8842289751e+01    0.4927028    0.2068544 -51.91  0.002220433    2.958    0.662
       379 -11.1436     20.3404    199.9935   8.8646706076e+01   2.9645446598e+01    0.4175733    0.2456067 -38.99   0.00210788    2.660    0.624
       380 -10.4911     28.0354    205.3317   8.7393832526e+01   2.7636071035e+01    0.1741762    0.1402997  65.05 0.0006165321    1.102    0.092
       381  -9.4015     67.7657    203.3535   7.8142035713e+01   2.3244947581e+01    0.1846928    0.1264199  26.30 0.0004791841    1.687    0.407
       382 -10.3449    175.0451    202.0497   5.3066727176e+01   5.8743312793e+00     0.256105    0.1857213  33.64 0.0004568551    1.316    0.240
       383 -10.6777     29.4689    214.8843   8.7862557862e+01   2.5337992012e+01    0.2185352    0.1688052   6.58  0.001322555    1.968    0.492
       384  -9.3041    238.3714    200.7868   4.0446473153e+01  -4.0238405690e+00    0.1731361     0.102719 -28.29 0.0004064337    1.534    0.348
       385 -10.0183    193.7475    201.7491   4.9096470251e+01   2.7546819673e+00    0.2175416    0.1058737  47.54 0.0009010972    2.444    0.591
       386  -9.5360    185.6789    200.6668   5.0560735189e+01   4.3138946715e+00    0.1454172    0.1031299  -4.30 0.0003227076    1.701    0.412
       387  -9.3979    120.4908    200.0456   6.5118544813e+01   1.5801360538e+01     0.208892    0.1415418 -54.29 0.0009661018    1.549    0.355
       388 -10.1366     41.0728    197.7893   8.3764704664e+01   2.7928737410e+01     0.362489    0.2057719  70.54  0.001477764    1.851    0.460
       389 -10.1769    134.8555    196.4619   6.1123186964e+01   1.4096706748e+01    0.2405217     0.197302 -51.97 0.0005046465    1.281    0.219
       390  -9.6556     56.7180    197.2634   8.0037779178e+01   2.6138600678e+01    0.2016725     0.145092 -33.23  0.001043196    1.973    0.493
