#   1 NUMBER                 Running object number                                     
#   2 MAG_AUTO               Kron-like elliptical aperture magnitude                    [mag]
#   3 X_IMAGE                Object position along x                                    [pixel]
#   4 Y_IMAGE                Object position along y                                    [pixel]
#   5 X_WORLD                Barycenter position along world x axis                     [deg]
#   6 Y_WORLD                Barycenter position along world y axis                     [deg]
#   7 A_WORLD                Profile RMS along major axis (world units)                 [deg]
#   8 B_WORLD                Profile RMS along minor axis (world units)                 [deg]
#   9 THETA_WORLD            Position angle (CCW/world-x)                               [deg]
#  10 FWHM_WORLD             FWHM assuming a gaussian core                              [deg]
#  11 ELONGATION             A_IMAGE/B_IMAGE                                           
#  12 ELLIPTICITY            1 - B_IMAGE/A_IMAGE                                       
         1  -8.1515    118.4725      4.5346   7.2237700687e+01   5.3682364542e+01    0.1254689    0.1061312  48.39 9.184326e-05    1.015    0.015
         2  -9.0904     40.7984      3.1008   9.3625748354e+01   6.7970067006e+01    0.3040597    0.1546514   7.86  0.001621814    2.370    0.578
         3  -9.2286    152.9867      2.2657   6.5695387159e+01   4.5957953559e+01    0.1877804    0.1444272  67.14 0.0007941628    1.097    0.088
         4  -7.7367    138.5130      2.5168   6.7990597714e+01   4.9318986443e+01    0.1267936    0.1079218  61.83  0.000810166    1.026    0.026
         5  -8.1619     49.3247      2.3157   9.0080468783e+01   6.6836121070e+01    0.1195533   0.06879332  14.53 0.0005218704    1.668    0.400
         6  -9.4630    211.5448    245.4839   1.1291848070e+02  -8.0656370612e+00    0.3060217    0.1815803  27.69  0.001135244    1.557    0.358
         7 -11.5331    205.4893    248.8151   1.1458159769e+02  -7.5583622395e+00    0.7192459     0.413423  42.61  0.003977216    1.569    0.363
         8  -9.6776    248.3358    238.1068   1.0500321033e+02  -1.2716974732e+01    0.5280638    0.2831656   4.55  0.002497089    2.691    0.628
         9 -10.3857    221.5831    248.9227   1.1163584403e+02  -1.0122441883e+01    0.9222128    0.3009248  30.21  0.003307888    3.978    0.749
        10  -9.7885    242.5312    237.2914   1.0588617043e+02  -1.1756420874e+01    0.5271939    0.2647004  -6.71  0.002124665    3.747    0.733
        11  -9.6882    249.1792    232.1406   1.0380128531e+02  -1.2053672755e+01    0.3464566    0.1957947 -18.43  0.001880473    1.882    0.469
        12  -8.7889    226.7214    250.6010   1.1097932318e+02  -1.1131733240e+01    0.2921377   0.09793937  36.53 0.0008758086    2.614    0.617
        13 -10.9234    232.2032    244.3439   1.0894845608e+02  -1.1140527622e+01    0.6388234     0.372869  -4.28  0.003303912    2.253    0.556
        14  -9.1878    233.1821    250.5773   1.0981508350e+02  -1.2098316725e+01    0.3425446    0.1174678  36.78   0.00130934    2.546    0.607
        15 -10.2046    238.0316    246.5114   1.0827071736e+02  -1.2295102448e+01    0.5819784      0.24122 -36.05  0.002890673    2.566    0.610
        16 -10.2007    246.5207    250.2417   1.0740132551e+02  -1.3990271969e+01    0.7039105    0.1966233  37.56  0.002960987    3.176    0.685
        17  -9.8753    243.2953    245.3631   1.0714310015e+02  -1.2918652620e+01     0.364689    0.2277541  -3.73  0.001557986    1.735    0.424
        18  -9.9290    249.2899    243.8739   1.0583594746e+02  -1.3591854632e+01     0.363965    0.2938828  15.04   0.00164518    1.096    0.088
        19  -9.3422    184.8734    250.5121   1.1870911522e+02  -4.4094705280e+00    0.3426306    0.1056124  41.03  0.001361816    2.726    0.633
        20  -9.2604    166.9655    250.0154   1.2202975027e+02  -1.3092007636e+00    0.2003783    0.1443141  16.19  0.001134573    1.706    0.414
        21  -8.2385     90.2186    250.3727   1.3648723260e+02   1.1281766468e+01    0.1825774   0.08864379  51.62 0.0009530897    1.696    0.410
        22  -8.9052     75.5894    250.4887   1.3912427751e+02   1.3433814825e+01    0.3588957   0.09896503  41.39  0.001471622    3.173    0.685
        23 -10.1779     65.9373    248.7863   1.4067409350e+02   1.5124665085e+01    0.4797328    0.2048032  50.54  0.002130929    1.903    0.475
        24  -9.1587     57.9888    247.4715   1.4194923612e+02   1.6464058961e+01    0.1737097    0.1190676  62.98 0.0007495466    1.142    0.125
        25 -10.1007     51.1193    249.7622   1.4331389801e+02   1.6944040167e+01    0.3803743    0.1767314  46.80  0.001569116    1.822    0.451
        26  -9.8504     44.6604    244.7532   1.4402622661e+02   1.8727562786e+01    0.3891917    0.1700373  54.67  0.001468852    1.872    0.466
        27  -9.9348     37.6415    240.6943   1.4491719714e+02   2.0384790071e+01    0.5878536    0.2257471  74.84  0.002484836    3.502    0.714
        28 -10.5473     35.4222    248.3912   1.4584112798e+02   1.9181739767e+01    0.5954912    0.2999549  46.40  0.003216395    1.759    0.431
        29 -12.2313     20.0384    225.1470   1.4681843575e+02   2.5503345905e+01     1.313205    0.5028424  56.87  0.006891808    2.280    0.561
        30 -10.0268      2.3412    213.3956   1.4909154591e+02   2.9687671673e+01    0.3494259    0.1689434  84.39   0.00202346    1.710    0.415
        31 -11.8179      4.7743    224.3194   1.4935743695e+02   2.7248023144e+01    0.9914264     0.507517 -82.96  0.006329056    1.530    0.346
        32 -13.1381     10.4864    243.6170   1.4956496703e+02   2.2915718330e+01     1.556112     1.099657  58.04   0.01194223    1.310    0.237
        33  -9.7294    193.0197    242.3643   1.1589687316e+02  -4.5519115951e+00    0.2912789    0.1749813  24.28   0.00150408    1.790    0.441
        34 -10.2643    225.8633    240.6945   1.0948029667e+02  -9.6712094149e+00    0.3778701    0.2180082   5.13  0.001827806    2.448    0.592
        35  -9.6473     53.8379    239.5407   1.4201036784e+02   1.8547501972e+01    0.3683614    0.1859116  65.83  0.001885345    1.816    0.449
        36 -10.6439    177.0488    244.5135   1.1928715642e+02  -2.1638292926e+00    0.3830536    0.2534959  17.94   0.00203154    1.867    0.464
        37  -9.1063     72.8956    239.6652   1.3858484935e+02   1.5884639431e+01    0.3394107    0.1474731  51.35  0.001556349    1.941    0.485
        38  -9.6376     44.5876    236.7552   1.4341158615e+02   2.0292660361e+01    0.4087766    0.1808843  62.08  0.002073642    2.070    0.517
        39  -8.5579     39.1580    235.2034   1.4423909407e+02   2.1275975022e+01    0.2604331    0.1161686  72.21  0.001073573    2.335    0.572
        40  -8.7631    220.0814    237.9604   1.1007813590e+02  -8.3722388634e+00     0.203049    0.1341928   8.75  0.001120224    1.688    0.408
        41  -9.5049    183.9882    237.2059   1.1680543695e+02  -2.2000402186e+00    0.2200285    0.1397694  17.07   0.00108587    2.032    0.508
        42  -9.3909    196.2296    236.1784   1.1427675446e+02  -4.1483141549e+00     0.268536    0.1325265  30.04  0.001221413    2.122    0.529
        43  -9.7063    237.4969    234.3408   1.0626930774e+02  -1.0598266781e+01    0.2436189    0.1767499  -0.49   0.00110555    1.322    0.244
        44  -8.4926    189.6473    235.2931   1.1539911959e+02  -2.8765797831e+00    0.1267893    0.0979417  64.62 0.0007030626    1.681    0.405
        45  -8.6096    160.6537    235.6868   1.2113518907e+02   2.1526482903e+00    0.1313905   0.09912615  12.05  0.000298601    1.714    0.416
        46 -10.4998    197.9663    245.2769   1.1542520208e+02  -5.8156236778e+00    0.3405873      0.22658   4.60  0.001712332    1.963    0.491
        47  -9.0210    169.9964    240.4901   1.2003610079e+02  -2.9695562147e-01    0.2327752    0.1700861  11.31  0.001279819    1.753    0.429
        48  -9.0578     63.3908    231.5460   1.3955649298e+02   1.8840275201e+01    0.4369269    0.1660064  62.32   0.00177083    3.205    0.688
        49  -9.2288     48.0343    229.6361   1.4220286667e+02   2.1277333473e+01    0.3420101    0.1584622  63.62  0.001754248    2.059    0.514
        50  -9.0401    245.7022    229.6008   1.0396070371e+02  -1.1193431605e+01    0.2165446    0.1329483 -18.70 0.0009958054    1.654    0.395
        51  -8.6332     84.0193    244.4698   1.3702038510e+02   1.3322098549e+01     0.285261   0.08756806  46.64  0.001208997    2.639    0.621
        52  -8.5196    216.0445    229.9198   1.0944153743e+02  -6.5375699217e+00    0.2099425    0.1410201   6.65  0.001122485    1.732    0.422
        53  -9.0403    207.5144    230.4772   1.1115363054e+02  -5.1900008446e+00    0.1305915    0.1111979  19.13 4.617135e-05    1.027    0.026
        54  -9.3742    158.3044    245.4066   1.2302627597e+02   9.2033980942e-01    0.2628259     0.108369  38.20  0.001141588    2.198    0.545
        55  -8.1560    229.5033    226.9382   1.0640867779e+02  -8.2975041344e+00    0.1854035    0.1180723 -31.33   0.00103439    1.600    0.375
        56  -9.6321     34.4853    225.2948   1.4428569520e+02   2.3833332441e+01    0.3946831    0.1532493  87.76  0.001651334    3.346    0.701
        57  -8.1073    223.8188    225.1672   1.0714285801e+02  -7.1110527155e+00    0.1855955    0.1361182   8.36  0.001074187    1.370    0.270
        58  -8.0442    212.3481    225.3240   1.0933074178e+02  -5.2147670209e+00    0.1374758    0.0929494   7.85 0.0007049429    1.746    0.427
        59  -9.1429     39.7333    228.9538   1.4364103551e+02   2.2456779538e+01    0.2305707    0.1371107  57.33   0.00143075    1.419    0.295
        60  -8.9562    248.2003    224.0777   1.0251843214e+02  -1.0807300070e+01     0.198838    0.1440407   1.68  0.000972024    1.293    0.226
        61  -9.1692    235.4799    227.5047   1.0541835387e+02  -9.3292524481e+00    0.2703504    0.1766866  -9.21  0.001255379    1.674    0.403
        62  -8.1080    206.6217    222.6843   1.0995818607e+02  -3.8140616193e+00    0.1408041    0.0948396   9.41  0.000702692    1.807    0.447
        63 -10.2371     13.5645    217.0918   1.4738409532e+02   2.7827716662e+01    0.4596482    0.1917194  59.80  0.002349753    2.145    0.534
        64  -8.7017    240.4410    219.1968   1.0300517080e+02  -8.9118198623e+00    0.2274699    0.1136199 -30.53  0.001096315    2.016    0.504
        65 -11.1935     24.9334    240.9835   1.4707015165e+02   2.1830666385e+01     0.881036    0.2981128  47.92  0.004663781    2.368    0.578
        66  -9.6483     34.2333    216.7855   1.4363552265e+02   2.5623370042e+01    0.2937883    0.1290483  89.28  0.001396741    2.435    0.589
        67  -9.1671    248.1367    216.0508   1.0104588739e+02  -9.6581151581e+00    0.2652301    0.1901281  22.09    0.0012801    1.296    0.228
        68  -9.2303     18.1577    206.4043   1.4576855947e+02   2.9586534793e+01    0.2242722     0.122689  75.53  0.001151742    1.609    0.378
        69 -11.3797     13.2305    204.6908   1.4654667874e+02   3.0448430196e+01     1.404946    0.4519702  84.65  0.004363179    6.194    0.839
        70  -9.1749      1.6583    205.7594   1.4871451007e+02   3.1326089806e+01    0.2641328    0.1127247 -76.02   0.00124945    1.822    0.451
        71 -10.0783      9.0259    210.1911   1.4770626401e+02   2.9707996877e+01    0.5773021    0.1271715  51.12  0.002416987    3.844    0.740
        72  -9.8111      6.4721    205.6367   1.4784560647e+02   3.0904059399e+01    0.3350616    0.1715809  71.52   0.00148208    1.710    0.415
        73  -8.0010    228.3121    215.3204   1.0450402967e+02  -6.3586535316e+00    0.1349162   0.09229865   3.79 0.0007037502    1.650    0.394
        74 -10.5633      4.6884    190.0278   1.4703295804e+02   3.4388936251e+01    0.7655973    0.2878084  75.25  0.003272365    3.365    0.703
        75  -9.7759     24.2679    217.5256   1.4551325145e+02   2.6600884648e+01     0.278296    0.1279447 -88.26  0.001474758    1.994    0.499
        76  -9.9117     22.4838    210.9730   1.4532872380e+02   2.8164714498e+01    0.2321888     0.121578  59.21  0.001359227    1.694    0.410
        77 -10.5253      4.1109    197.8585   1.4772352990e+02   3.2763831159e+01    0.6293529    0.2951251  73.57  0.003138173    2.001    0.500
        78  -9.5840    210.7438    241.4129   1.1239662410e+02  -7.3560089385e+00    0.2311407    0.1372615  20.59  0.001069792    1.839    0.456
        79  -8.2808     18.9993    201.5054   1.4522045219e+02   3.0545973912e+01    0.1618653   0.06853259  59.78 0.0007508596    2.301    0.565
        80  -7.9490    250.3010    199.3468   9.7468547061e+01  -7.5065299462e+00    0.1353997   0.09040323  -2.28  0.000431274    1.685    0.407
        81  -8.7367     14.4044    197.0738   1.4573409932e+02   3.1961218453e+01    0.2393688    0.1146786  88.68  0.001279886    1.881    0.468
        82  -9.1668     11.6607    191.4600   1.4580639455e+02   3.3441102370e+01    0.2052438     0.129212  68.00 0.0008190462    1.407    0.290
        83 -10.0619     16.4175    189.0814   1.4467583640e+02   3.3505661922e+01     0.357554    0.1393767 -86.78  0.001598992    2.645    0.622
        84  -9.4728      9.9767    187.3210   1.4579487101e+02   3.4500135929e+01    0.1614249    0.1260573  75.83 0.0009365659    1.148    0.129
        85 -10.3070      6.2675    182.6636   1.4614129399e+02   3.5851698067e+01    0.2828402    0.1522804 -55.81  0.001651348    1.979    0.495
        86  -9.6262      2.0543    177.4755   1.4655334968e+02   3.7347000723e+01    0.3190032    0.1458727 -84.57  0.001311705    1.801    0.445
        87  -9.7803      5.6884    174.1534   1.4553750219e+02   3.7777111736e+01    0.1937077    0.1318995  63.21 0.0008739794    1.416    0.294
        88  -8.4348    114.9652    153.2572   1.1668900447e+02   2.8083826306e+01    0.1972965    0.1859093  68.25 0.0002088527    1.061    0.058
        89  -8.0539    243.4829    148.4950   8.8108039351e+01   2.2136541949e+00    0.1411551    0.1265206 -27.15 4.114819e-05    1.021    0.021
        90  -7.9406    233.6740    146.3146   8.9316903820e+01   4.5232454297e+00    0.1429727    0.1118314 -71.95 0.0007043201    1.668    0.401
        91  -8.9833    243.4758    138.9866   8.6024189833e+01   3.9142626723e+00    0.2228542      0.12777 -38.18 0.0007035066    1.574    0.365
        92  -8.4218    242.0195    132.7299   8.4876978119e+01   5.3269521913e+00    0.1980066    0.1860014 -36.46 0.0006118668    1.042    0.041
        93  -8.2809    232.3318    130.3242   8.5954069690e+01   7.7420867684e+00    0.1466413    0.1135477   2.22 0.0005034193    1.705    0.413
        94  -8.9725    247.6716    128.9706   8.3133720614e+01   4.8770024101e+00    0.2112519    0.1684682 -40.74  0.001163175    1.115    0.103
        95  -8.9086    249.5007    122.9695   8.1522904527e+01   5.5772084883e+00    0.2243889    0.1248582 -39.35  0.001033716    1.592    0.372
        96  -9.8485    238.4200    121.7614   8.2998196405e+01   8.0422155380e+00    0.4374289    0.1657982 -35.66  0.001574418    2.606    0.616
        97  -9.5095    246.7741    117.4956   8.0725852187e+01   7.0910435852e+00    0.2725766    0.1865353 -39.45   0.00139133    1.308    0.235
        98  -9.5218    231.3005    113.6515   8.2296191767e+01   1.1023330215e+01    0.3684392    0.1651009 -38.72  0.001455334    2.067    0.516
        99  -8.5510    218.6847    114.6761   8.4666072806e+01   1.3607975564e+01     0.148086    0.1188953   5.05 0.0007042473    1.665    0.399
       100  -9.0337    240.5058    108.4747   7.9653940636e+01   9.9868996979e+00    0.2660562    0.1328828 -28.68  0.001039036    2.428    0.588
       101  -9.7994     20.9716     77.4651   1.2729946570e+02   5.8146092675e+01    0.2369003    0.1539361 -70.48  0.001386419    1.698    0.411
       102 -10.3320     20.8018     70.0671   1.2556552635e+02   5.9653712758e+01    0.4695908    0.2425673 -32.44  0.002558519    1.890    0.471
       103  -8.5077    239.2361     65.5878   7.0099423823e+01   1.7467878647e+01    0.1771667     0.123966  55.71 0.0006053799    1.576    0.365
       104  -8.7349     22.4347     62.0228   1.2286255018e+02   6.1094242869e+01    0.2646847    0.1036176 -41.27  0.001294948    2.084    0.520
       105  -9.7101     19.9523     57.9813   1.2266309798e+02   6.2054905854e+01     0.256834    0.1590746   2.29  0.001571527    1.856    0.461
       106  -9.8440     20.5926     51.2630   1.2046128741e+02   6.3239110298e+01    0.3524625     0.229566  16.21   0.00229435    1.703    0.413
       107  -7.7334     51.6705     50.6718   1.0853155774e+02   6.0128677886e+01    0.1316904   0.08414558 -12.63 0.0006672408    1.709    0.415
       108  -7.5310     41.7032     45.6521   1.1049628387e+02   6.2166401318e+01    0.1278053   0.07797513 -17.77 0.0005823145    1.678    0.404
       109  -9.6213    136.3145     39.7658   8.0094759122e+01   4.5952013522e+01    0.2283394    0.2044683  38.16 0.0002231986    1.065    0.061
       110  -8.2649     32.0805     41.0000   1.1259902208e+02   6.3964752142e+01    0.1685154   0.06292555  28.37 0.0007952271    2.893    0.654
       111  -9.1561     22.2044     38.4851   1.1569520917e+02   6.5306563861e+01    0.3619016   0.09219918 -38.24  0.001448834    3.455    0.711
       112  -8.1346     44.5136     38.5513   1.0688517197e+02   6.2971094829e+01    0.1203495      0.09733 -13.06 0.0001141472    1.017    0.017
       113  -8.0233     32.9695     35.0000   1.1008591792e+02   6.4826674591e+01    0.1681783   0.06166052  29.80 0.0007951763    2.892    0.654
       114  -8.2759     15.4783     33.4735   1.1674931109e+02   6.6681534003e+01    0.1109729   0.08567161 -26.09 0.0001330851    1.063    0.059
       115  -7.8411     51.6649     31.6795   1.0158843312e+02   6.3064593542e+01    0.1269752   0.07997079  -1.61 0.0007049759    1.704    0.413
       116  -8.3318     29.6780     29.9601   1.0952841571e+02   6.5934126109e+01    0.1665046    0.1235071 -22.40  0.001163242    1.073    0.068
       117  -8.3056     32.9758     25.4820   1.0642739570e+02   6.6231680823e+01    0.1577298    0.1012212  24.75  0.001021688    1.565    0.361
       118  -8.3790     12.7891     24.6149   1.1468876740e+02   6.8275683212e+01    0.1364729   0.09251305  26.45 0.0009560225    1.756    0.431
       119  -8.2769     53.2236     21.2544   9.6837416856e+01   6.4218804453e+01    0.1735963   0.08280989 -40.12 0.0008803143    2.411    0.585
       120  -7.4946     39.6904     18.3031   1.0076593450e+02   6.6398692702e+01   0.09491326    0.0898792 -23.80 0.0003180726    1.607    0.378
       121  -8.0172     76.9876     17.0124   8.7155052903e+01   6.0880988254e+01    0.2582562    0.1162439  18.81 0.0009494827    4.055    0.753
       122  -9.2815    191.6785    248.4467   1.1710950043e+02  -5.2379245465e+00    0.2687238    0.1702293  -0.31  0.001324446    2.474    0.596
       123  -8.4503    151.4865    249.4842   1.2490475221e+02   1.4156389501e+00    0.1277865     0.106916  44.51 -5.020709e-05    1.029    0.028
       124  -9.3677    187.1640    246.4734   1.1765744259e+02  -4.1868243310e+00    0.2384293    0.1623894 -17.48  0.001316133    1.936    0.484
       125  -9.5424    218.7420    245.1383   1.1153221139e+02  -9.1644291367e+00    0.3084371    0.2058238   4.42  0.001446945    1.692    0.409
