#   1 NUMBER                 Running object number                                     
#   2 MAG_AUTO               Kron-like elliptical aperture magnitude                    [mag]
#   3 X_IMAGE                Object position along x                                    [pixel]
#   4 Y_IMAGE                Object position along y                                    [pixel]
#   5 X_WORLD                Barycenter position along world x axis                     [deg]
#   6 Y_WORLD                Barycenter position along world y axis                     [deg]
#   7 A_WORLD                Profile RMS along major axis (world units)                 [deg]
#   8 B_WORLD                Profile RMS along minor axis (world units)                 [deg]
#   9 THETA_WORLD            Position angle (CCW/world-x)                               [deg]
#  10 FWHM_WORLD             FWHM assuming a gaussian core                              [deg]
#  11 ELONGATION             A_IMAGE/B_IMAGE                                           
#  12 ELLIPTICITY            1 - B_IMAGE/A_IMAGE                                       
         1 -14.8310    238.5212     72.1689   6.4792063069e+01   1.6175365619e+01     2.481696     1.280586 -42.19  0.008923292    1.836    0.455
         2 -14.4735    223.9828     49.3991   6.0904578527e+01   2.2749607115e+01     1.485849     1.255865  53.55  0.005155866    1.235    0.190
         3 -13.2078    234.4195     34.6555   5.5844121549e+01   2.2142737587e+01     1.135139    0.6121539  62.33  0.005381422    1.858    0.462
         4 -14.1579    188.2809     32.8786   6.1282152515e+01   3.3906161194e+01     1.151056     1.034442 -60.13  0.003652452    1.130    0.115
         5 -14.6268    196.1708     22.2408   5.7050857677e+01   3.3129813616e+01     1.556422      0.90044 -16.33  0.001444849    2.047    0.511
         6 -10.6380     82.2964      5.9602   7.4166274272e+01   6.2526018834e+01    0.1813098    0.1530096   3.02 0.0003956791    1.070    0.066
         7  -9.6862    114.5318      3.5612   6.4495309805e+01   5.5776093604e+01    0.1352062    0.1208827  37.18  3.31382e-05    1.027    0.027
         8 -12.9228     54.6800    221.9833   1.3019424307e+02   2.3631538710e+01    0.4001281    0.1999549  65.82  0.001757129    1.816    0.449
         9 -14.2732    175.7323    195.5208   1.0362454797e+02   9.4461020218e+00     4.201882     2.072124  18.86   0.01220592    6.199    0.839
        10 -13.8571     58.8564    209.6324   1.2848565594e+02   2.5353684287e+01     1.106584    0.5219306  41.48  0.003545183    1.866    0.464
        11 -13.4252     80.2047    217.7502   1.2519903778e+02   2.1112538498e+01     1.452968    0.5557142  53.12  0.003189719    2.304    0.566
        12 -14.7751    111.7006    247.1886   1.2227383440e+02   1.1869658290e+01     4.365486    0.8929996  37.26   0.01338192    6.285    0.841
        13 -14.4586    110.7738    228.6591   1.2060945635e+02   1.4882559848e+01     3.482787    0.6446505  43.44   0.01254245    3.913    0.744
        14 -15.6631    149.4966    228.7000   1.1347594580e+02   8.8357940738e+00     1.835513     1.240073  44.03  0.008432576    1.174    0.148
        15 -12.3891     67.7770    246.1472   1.2964919742e+02   1.7973447730e+01    0.2681461    0.1663289  65.94 0.0004523232    1.313    0.238
        16 -12.1054     70.8654    243.4985   1.2894682454e+02   1.8004577238e+01    0.3106857    0.1945519  74.86  0.001232488    1.472    0.321
        17 -19.4131     12.0349    133.0070   1.3178789740e+02   4.5876715720e+01     17.13508     1.723779 -74.81   0.03899185   10.428    0.904
        18 -13.4462    215.4093    185.9515   9.4397128444e+01   3.7106338913e+00    0.9428695    0.6643831  63.95  0.004065593    2.227    0.551
        19 -12.5449    221.2496    208.0791   9.7284950271e+01  -2.5396837592e-01    0.4764792    0.3431578  25.57  0.001761436    1.147    0.128
        20 -14.8083    233.2098    199.7165   9.3742153930e+01  -1.1764050043e+00     1.388822    0.9216198  28.56  0.006307856    1.277    0.217
        21 -12.9516    123.4803    205.9931   1.1554425784e+02   1.6727952250e+01    0.5039214    0.3357565  58.88  0.002925004    1.432    0.302
        22 -10.3889     44.0991    210.1281   1.3125307868e+02   2.7008163137e+01    0.2756777    0.1051198  54.85  0.001043662    2.203    0.546
        23 -10.4631     37.3602    206.7983   1.3225426374e+02   2.8374472452e+01    0.1659568    0.1057997  59.24 0.0006046129    1.244    0.196
        24 -10.0607     45.5202    202.4764   1.3042925720e+02   2.8277575300e+01    0.2121188    0.1579512 -89.35    0.0013613    1.200    0.166
        25  -9.7373     43.2402    199.9807   1.3067200575e+02   2.9010890260e+01     0.221178    0.1985407  28.25  0.001014219    1.579    0.367
        26 -15.6821     72.5022    149.2881   1.1895439007e+02   3.5914036186e+01     4.660971     2.264147  83.62   0.01593593    4.392    0.772
        27 -11.0215    104.8248    200.0139   1.1852794354e+02   2.0761067651e+01    0.3108651    0.2480083   0.23  0.001825915    2.050    0.512
        28 -10.3562     39.8344    212.9772   1.3221989534e+02   2.6963736859e+01    0.2029103    0.1044887  55.68 0.0007694869    1.544    0.352
        29 -12.3470    194.1716    193.6308   9.9746712069e+01   6.4114442904e+00    0.6917068    0.5887395  84.03  0.004132779    1.741    0.426
        30 -11.8344     37.2502    200.2814   1.3182424486e+02   2.9614210638e+01    0.1779935    0.1316595  69.63 0.0003206568    1.040    0.038
        31 -13.2072     68.0647    194.7984   1.2537159495e+02   2.7002980472e+01    0.6037924    0.5081818  85.21  0.002819723    1.120    0.108
        32  -9.7878     82.7561    194.6203   1.2238172443e+02   2.5045497441e+01    0.1753027    0.0935503  49.70 0.0007746706    1.619    0.382
        33 -12.6759    168.7228    185.3593   1.0329204298e+02   1.2383795630e+01    0.6107895    0.4461326 -55.65  0.003065844    1.682    0.405
        34 -13.1356    174.8878    182.2639   1.0150567044e+02   1.1753001187e+01    0.6879559    0.5196983 -34.11   0.00388566    1.488    0.328
        35 -14.1802    235.4190    142.0416   8.1872876537e+01   6.3797790104e+00      1.84718     1.121436 -52.45  0.008384933    2.392    0.582
        36 -13.2430    242.0119    168.7272   8.6354409452e+01   1.3641884520e+00     0.773497    0.5240662  15.97  0.002730937    1.473    0.321
        37 -14.0947    234.4830    161.2930   8.6133903386e+01   3.7521232151e+00     1.322014    0.8398955  -4.94  0.005900387    1.847    0.459
        38 -11.6366    224.8793    179.2453   9.1413732845e+01   2.9597111340e+00    0.3698313    0.2060543 -50.57  0.001661961    2.867    0.651
        39  -9.9607     99.6407    180.8223   1.1715033097e+02   2.5259455414e+01    0.1719072     0.147926  87.40 0.0006494502    1.124    0.111
        40 -11.3066     81.6543    170.2638   1.1970217600e+02   3.0113601395e+01    0.2799985    0.2058302  71.79 0.0004824633    1.306    0.234
        41 -12.0631     79.2407    179.6942   1.2140928650e+02   2.8505830577e+01    0.4232929    0.2858309 -34.42  0.001450915    2.459    0.593
        42 -12.0529     82.9629    174.4250   1.1994848266e+02   2.9059905751e+01    0.2618928     0.232191 -38.08    0.0016855    1.489    0.328
        43 -10.7233    197.9925    176.9691   9.5972768495e+01   8.2514364646e+00    0.2892351    0.2820525  -0.27  0.001242379    1.186    0.157
        44 -11.5705    196.9700    172.0129   9.5215481922e+01   9.2282343449e+00    0.3595868    0.3394454 -33.23  0.001314574    1.219    0.180
        45 -12.1022    118.8452    173.7648   1.1192424916e+02   2.3528555547e+01    0.5171223    0.1825172  43.78  0.002020147    2.546    0.607
        46 -11.9711    177.8789    171.7146   9.8956030426e+01   1.2963618737e+01    0.3960462    0.3128438 -74.61   0.00209433    1.811    0.448
        47 -13.2344    162.3665    169.1041   1.0168002284e+02   1.6426513758e+01    0.7264085    0.4845106  39.00  0.003036936    1.384    0.277
        48 -12.2176    156.5554    164.9006   1.0212885339e+02   1.8323789849e+01    0.6106449    0.3886807  53.86   0.00294521    1.611    0.379
        49 -12.4946    145.9178    170.2296   1.0540496853e+02   1.9350804747e+01     0.511997    0.3663961 -44.39  0.002505664    1.549    0.354
        50 -10.6299     49.1435    172.6978   1.2712489327e+02   3.3796027781e+01       0.2654    0.1924603  59.60  0.001738954    1.225    0.184
        51 -11.3972    137.6475    171.2567   1.0738313365e+02   2.0686390012e+01    0.2498552    0.2065995  68.89  0.001418923    1.273    0.214
        52 -14.6887    143.8079    220.3317   1.1346628892e+02   1.1033001193e+01     1.111121    0.6901846  24.46  0.004916368    2.029    0.507
        53  -9.5349     44.3248    171.2922   1.2802264740e+02   3.4633304898e+01    0.1057354   0.08788639 -45.90 0.0002887066    1.617    0.381
        54 -10.3332    193.9017    166.0834   9.4645644382e+01   1.0782456783e+01    0.2079888    0.1942662  63.83 0.0009547198    1.269    0.212
        55 -11.9615     95.5527    157.5710   1.1468870499e+02   3.0718577021e+01    0.5146511    0.3641388 -31.91  0.001638174    2.048    0.512
        56 -11.9579     37.5187    226.0696   1.3344422393e+02   2.4889213208e+01    0.2170887    0.1217092  56.84  0.001304163    1.349    0.259
        57 -10.3500    140.5558    157.1135   1.0417968529e+02   2.2908948966e+01    0.2244268    0.1805906  55.61  0.000392757    1.212    0.175
        58  -9.3381     66.2537    232.7152   1.2894721188e+02   2.0356594094e+01    0.1075654   0.06242262  65.79  0.000444916    1.474    0.321
        59 -11.3811    133.9848    144.7377   1.0327024090e+02   2.6678709935e+01    0.8982094    0.2207334 -52.75  0.002440047    5.067    0.803
        60 -10.5240    174.9704    148.9647   9.4976996831e+01   1.7575050815e+01    0.2227793    0.1808686  83.59 0.0006231762    1.659    0.397
        61 -10.9982    107.4781    141.2365   1.0899272022e+02   3.2285344578e+01     0.469818    0.2995095 -28.75  0.002048036    2.449    0.592
        62 -12.4232     95.3697    142.0063   1.1214286414e+02   3.4133918233e+01    0.2521547    0.2442365 -46.25  0.000453762    1.174    0.148
        63 -10.0640     70.6890    228.2303   1.2782448484e+02   2.0550225427e+01    0.1578022    0.1103591  65.74 0.0008230726    1.143    0.125
        64 -10.5171    114.6445    131.5349   1.0527929954e+02   3.3124914345e+01    0.2658696    0.2364174  -4.39 0.0007721058    1.370    0.270
        65 -11.0150    102.3983    127.8009   1.0765090124e+02   3.6115052349e+01    0.2588841    0.2275329 -22.42 0.0005758121    1.362    0.266
        66 -10.3046    160.8292    127.7285   9.3317194911e+01   2.4598646472e+01    0.2900766    0.1995751 -69.47  0.001235911    2.110    0.526
        67 -13.6637    246.3470    175.2600   8.6919526024e+01  -2.5335212261e-01     1.004634     0.684556  41.37  0.005125648    1.484    0.326
        68 -10.5344    105.9928    130.8331   1.0733760501e+02   3.4823074171e+01    0.3237632    0.2607439  80.08  0.001396963    1.380    0.275
        69 -10.7140    135.5880    122.4773   9.8039708214e+01   3.0998072243e+01    0.3501087    0.1899853 -55.16  0.001415453    2.079    0.519
        70 -10.0161    110.1083    119.9111   1.0394772057e+02   3.6495633486e+01    0.2057692    0.1857987  82.10 0.0002762639    1.149    0.130
        71  -9.2318     42.1012    234.8799   1.3319308228e+02   2.2875606873e+01    0.1848275   0.07457116  60.00   0.00106712    2.044    0.511
        72 -11.9270    206.3266    110.2851   7.9627046408e+01   1.7574456967e+01    0.6665325    0.5210894 -88.23  0.002463469    1.807    0.446
        73 -11.4889     63.6379    113.8711   1.1548707193e+02   4.5092654887e+01    0.2050761     0.188169   9.94 0.0006413677    1.315    0.240
        74 -10.2276    167.9550    112.8561   8.8085354717e+01   2.5893670024e+01     0.287145    0.2006885 -68.25  0.001216873    2.038    0.509
        75 -12.3857     35.4517    229.7838   1.3400689535e+02   2.4475149795e+01    0.2642612    0.1635363  82.37 0.0005801484    1.364    0.267
        76 -11.3659     69.6723    102.6779   1.1150448732e+02   4.6851208599e+01     0.211823    0.2058269 -11.37   0.00128692    1.155    0.135
        77  -9.8053    134.4966    102.9579   9.3463666505e+01   3.5286137267e+01    0.2330089    0.1487552 -43.85  0.000949031    1.568    0.362
        78 -10.5428     57.1084    248.8532   1.3157458977e+02   1.8854249792e+01    0.1854964   0.09667992  66.25  0.001006289    1.626    0.385
        79 -12.0142     94.1521    237.7052   1.2447166755e+02   1.5824490369e+01    0.3787902    0.1749203  51.77 0.0004510199    1.724    0.420
        80 -11.3420     85.5355    236.6658   1.2589534440e+02   1.7177500980e+01    0.3041353    0.1720373 -74.19  0.000615627    2.012    0.503
        81  -9.9477     70.2213     72.2062   1.0378784839e+02   5.3502935338e+01     0.173067    0.1565446  83.75 0.0004553278    1.327    0.247
        82 -10.4470    169.1148     68.7035   7.5556700870e+01   3.3607211784e+01    0.4083039    0.2346137 -81.43  0.001138139    4.903    0.796
        83 -11.5737    226.1127    218.9841   9.8252408447e+01  -2.3678540507e+00    0.3463166    0.2285852  45.72  0.001301459    1.600    0.375
        84 -13.7749    177.8080     41.9071   6.5712114661e+01   3.5446861767e+01    0.9525822    0.7953759 -14.80  0.002500738    1.295    0.228
        85 -10.6997     46.9878    217.1483   1.3122258764e+02   2.5398985058e+01     0.363551    0.3507251 -57.81  0.002992934    1.596    0.373
        86 -12.8337     46.9025    229.0576   1.3202904754e+02   2.3316385811e+01    0.5663525    0.2763799  69.54  0.003284877    1.872    0.466
        87 -13.5568    110.6857    209.9857   1.1855689518e+02   1.8054421667e+01    0.7489166    0.5090187  55.87   0.00312978    1.270    0.212
        88  -9.4560    166.5065     33.5302   6.5047962867e+01   3.9485789051e+01    0.1462532    0.1404392  77.01 0.0001558524    1.044    0.043
        89 -12.1630     54.0069    229.1987   1.3081790853e+02   2.2457931999e+01    0.3893479    0.2048022  65.47  0.001765909    1.629    0.386
