#   1 NUMBER                 Running object number                                     
#   2 MAG_AUTO               Kron-like elliptical aperture magnitude                    [mag]
#   3 X_IMAGE                Object position along x                                    [pixel]
#   4 Y_IMAGE                Object position along y                                    [pixel]
#   5 X_WORLD                Barycenter position along world x axis                     [deg]
#   6 Y_WORLD                Barycenter position along world y axis                     [deg]
#   7 A_WORLD                Profile RMS along major axis (world units)                 [deg]
#   8 B_WORLD                Profile RMS along minor axis (world units)                 [deg]
#   9 THETA_WORLD            Position angle (CCW/world-x)                               [deg]
#  10 FWHM_WORLD             FWHM assuming a gaussian core                              [deg]
#  11 ELONGATION             A_IMAGE/B_IMAGE                                           
#  12 ELLIPTICITY            1 - B_IMAGE/A_IMAGE                                       
         1 -12.6199    208.0841     40.6458   7.0678038569e+01   2.8450582316e+01     2.845721      1.15834 -49.45  0.007021978    2.602    0.616
         2 -14.2737    248.8947     28.0723   6.3100127366e+01   2.0525022131e+01    0.8954546    0.5972909 -18.60  0.004722391    2.218    0.549
         3 -16.8561    243.4058     10.0422   5.9806598734e+01   2.3960245882e+01     4.359365       2.5516 -34.34    0.0242757    1.836    0.455
         4 -10.6966    151.9843     30.9401   7.6989635878e+01   4.3589906510e+01    0.5324671    0.3669891 -41.89  0.001743754    1.582    0.368
         5 -11.3730    113.5057     29.1213   8.4760646374e+01   5.2608453126e+01    0.8969201    0.6187444 -39.07  0.004419715    1.627    0.385
         6 -10.0125     97.0823     29.7378   8.9326841297e+01   5.5873279546e+01    0.5562246    0.3519132 -58.37  0.002555341    2.877    0.652
         7  -9.1761    190.7876     16.4179   6.6792456550e+01   3.5706147282e+01    0.3910696    0.2303232 -70.17  0.001863617    1.988    0.497
         8  -8.6077    167.3587     15.2667   6.9741255579e+01   4.1591163010e+01    0.4101754    0.2195622 -49.22  0.001920902    2.149    0.535
         9  -9.8381     20.6895     15.5958   1.1099772573e+02   6.8725057171e+01     0.463359    0.2286787  42.38  0.002402108    3.593    0.722
        10  -8.6559    152.3399      9.9808   7.0549878733e+01   4.5751955028e+01    0.2613727    0.2098659 -78.52  0.001539599    1.390    0.280
        11  -9.5916    167.6267      8.7220   6.7851558888e+01   4.2175637662e+01    0.4968991    0.2669868 -86.28  0.002047077    2.505    0.601
        12  -8.1166    167.3426      3.8830   6.6536707045e+01   4.2693529696e+01    0.2330876    0.1246402 -10.38  0.001080917    2.661    0.624
        13  -7.8533     28.7872     10.7893   1.0547255338e+02   6.8562268787e+01    0.1344175    0.1118964 -19.90 0.0004785365    1.336    0.251
        14  -8.7697    179.8655      9.1800   6.6304325358e+01   3.9141812638e+01    0.2026904    0.1814247 -67.12 0.0005742104    1.162    0.139
        15  -8.7498    141.5675      8.0927   7.1786089262e+01   4.8478568580e+01    0.2963777    0.2096069 -61.96   0.00162325    1.783    0.439
        16  -9.2055    135.2095      8.3012   7.2994572402e+01   4.9938703637e+01    0.2419468    0.1708815 -38.20  0.001173011    1.625    0.385
        17  -9.1258    160.5174      4.4402   6.7659566998e+01   4.4292881467e+01     0.297287    0.2355371 -40.88 0.0009907824    1.420    0.296
        18  -9.5374    175.9731      3.2413   6.5218279748e+01   4.0657362469e+01    0.3109612    0.2341837 -37.14  0.001759444    1.484    0.326
        19  -8.3782    155.7944      4.9019   6.8495892274e+01   4.5387065665e+01    0.2477103    0.1543747 -80.81  0.001212269    2.030    0.507
        20  -9.0479    126.7970      3.1225   7.2866321938e+01   5.2299828759e+01    0.2779492     0.234632 -32.06  0.001371166    1.375    0.273
        21  -8.9409    108.2731      3.5747   7.6847295852e+01   5.6302487846e+01    0.2766788    0.2121544  88.09  0.001194538    1.785    0.440
        22  -7.9631     93.0206      4.0456   8.0681254289e+01   5.9363439337e+01    0.1735894    0.1486676 -67.62  0.001003466    1.715    0.417
        23  -8.2260    181.9514      2.6504   6.4317573486e+01   3.9259264893e+01    0.2318143    0.1447703 -44.92  0.001257765    1.711    0.416
        24  -8.2665    101.4960      3.2354   7.8282471107e+01   5.7736271742e+01    0.2058008    0.1535889 -74.94  0.001164784    2.155    0.536
        25  -7.8186    189.8146      2.5092   6.3355051602e+01   3.7364369407e+01    0.1869622    0.1107728  72.98 0.0006817016    1.444    0.308
        26  -8.2237    135.0580      1.4775   7.0821147597e+01   5.0553628265e+01    0.1979143    0.1094524  62.65 0.0004923747    1.550    0.355
        27  -9.4527    233.2421    127.4401   8.7885050171e+01   8.0135763518e+00    0.2821417    0.2517375 -39.13 0.0007620442    1.045    0.043
        28  -9.4761     41.8373    250.2783   1.4649893301e+02   1.8531360700e+01    0.2348678   0.08673043  39.80   0.00111011    2.755    0.637
        29  -7.5286    127.3515    124.7190   1.0990820320e+02   3.2293993078e+01    0.1569147    0.1202254  82.28 0.0004559702    1.651    0.394
        30  -9.9893    249.2272    118.0790   8.3135561956e+01   6.3346976002e+00    0.5096005    0.2833486 -59.48  0.002103309    2.410    0.585
        31  -9.3116    166.3162    119.8032   9.9287778717e+01   2.4782256071e+01    0.6373752    0.1945414 -43.40  0.001886325    3.239    0.691
        32  -9.2606    152.6992    119.8307   1.0244683837e+02   2.7896440114e+01    0.4449337    0.2523607 -58.63 0.0009012446    2.151    0.535
        33  -7.8139    135.4475    120.9248   1.0692932288e+02   3.1449895445e+01    0.2363731    0.1497726 -49.03  0.001011078    1.555    0.357
        34  -8.4017    194.6172    118.2196   9.2854268979e+01   1.8470835519e+01    0.2163604    0.1469625 -30.22 0.0004405392    1.610    0.379
        35  -9.5609    242.8690    116.3438   8.3741839701e+01   7.9627120189e+00    0.2611216    0.1812695 -47.75 0.0007670257    1.357    0.263
        36  -8.9112    215.5066    116.7357   8.8496811995e+01   1.3914214020e+01    0.3452491    0.2250545  27.10  0.001436286    2.179    0.541
        37  -8.3106    227.1973    116.2434   8.6312199482e+01   1.1374460196e+01    0.2141262    0.1654826 -60.39  0.001062408    1.380    0.276
        38 -10.9343    244.6667    108.2515   8.1608347243e+01   9.0031112391e+00     0.648701    0.4566483  47.71  0.003310588    1.577    0.366
        39 -10.2683    232.9067    110.7007   8.4046547903e+01   1.1117895099e+01    0.6991373    0.2234366 -47.10  0.002213263    3.303    0.697
        40 -10.1798    240.3068    102.9245   8.1052094337e+01   1.0873036378e+01     0.346073    0.2905313 -21.44  0.001391239    1.317    0.240
        41 -10.4287    221.6473    111.9900   8.6260117304e+01   1.3402029362e+01    0.5460277    0.2925805  53.31  0.002291547    1.957    0.489
        42  -8.4994    200.4948    111.0303   8.9905633483e+01   1.8490567304e+01    0.2438479    0.1498134 -38.34  0.001035628    1.606    0.378
        43 -10.2810    235.8584    100.7592   8.1238060566e+01   1.2231349666e+01    0.7181519    0.2432202 -37.16  0.002477614    2.793    0.642
        44  -9.3351    204.1768    112.4128   8.9545329354e+01   1.7358342002e+01    0.3161277    0.2284104  89.08 0.0006699311    1.875    0.467
        45  -8.4501    227.3128    106.0234   8.3865184559e+01   1.3208496744e+01    0.2159157    0.1775055 -43.58  0.000637861    1.140    0.123
        46  -8.6308    146.9984    104.9063   9.9913632464e+01   3.2350028291e+01    0.3872257     0.305103 -23.03   0.00181851    1.466    0.318
        47  -8.7948    217.6832    105.2552   8.5322007229e+01   1.5551411439e+01    0.2473048    0.2232787  62.81  0.001000185    1.149    0.130
        48  -9.0692    197.4202    104.6152   8.8881144376e+01   2.0451964023e+01    0.3187098    0.2582317  11.16 0.0009429363    1.610    0.379
        49  -8.8907    138.8572    103.1455   1.0143894093e+02   3.4543189031e+01    0.2434959    0.2168891 -86.33  0.001234339    1.244    0.196
        50  -7.8611     23.4961    103.4818   1.3425785125e+02   5.2056595618e+01    0.1226613   0.09750279 -61.55 0.0001881287    1.012    0.012
        51  -7.7686    162.0371    102.3195   9.5692222194e+01   2.9388457241e+01    0.2214242     0.207883  63.97 0.0007621015    1.067    0.063
        52  -9.6497     33.8818    248.3633   1.4763850614e+02   1.9846818846e+01    0.2082262    0.1356512 -79.92  0.001492565    1.414    0.293
        53 -10.1782     30.8615    244.5254   1.4786932063e+02   2.0908759568e+01    0.2636685    0.1984241   7.49  0.001549912    3.637    0.725
        54  -8.1740    102.5247    231.4845   1.3412169029e+02   1.3419629032e+01    0.1287372    0.1032819  66.96 9.463222e-05    1.019    0.019
        55  -8.1449    167.3091    101.6285   9.4326273915e+01   2.8273875374e+01    0.1665377    0.1223708 -75.66 0.0007033717    1.769    0.435
        56  -8.5950     40.2265     99.4080   1.2853752692e+02   5.1470104815e+01    0.3305326    0.1849212 -69.39  0.001539046    1.829    0.453
        57  -9.6573    227.4059     89.4057   7.9863009346e+01   1.6130393534e+01    0.4040612     0.348405  12.75  0.001240341    1.490    0.329
        58  -8.6269    226.3150     98.6827   8.2270907559e+01   1.4751622990e+01    0.2799224    0.1795024 -50.96 0.0006852019    1.531    0.347
        59  -9.6140    228.5955     95.8896   8.1232080745e+01   1.4724363498e+01    0.4243194    0.3310577  84.41  0.001139396    1.450    0.310
        60 -10.4808    219.4108     89.6250   8.1197981543e+01   1.7959032930e+01    0.7381753    0.3720515 -30.98  0.002157887    2.218    0.549
        61  -8.4381    168.7914     97.4290   9.2870965971e+01   2.8747339938e+01    0.2247189    0.1450439  41.18 0.0009467574    1.662    0.398
        62  -8.2541    142.6496     95.6686   9.8443498980e+01   3.5229302971e+01    0.1612976    0.1234508   7.81 4.120188e-05    1.773    0.436
        63  -9.4213    210.3909     92.7920   8.3509443641e+01   1.9538064365e+01    0.3459912    0.3307357  13.92  0.001166241    1.191    0.160
        64  -7.8259    176.6327     93.8007   9.0219267537e+01   2.7549191038e+01    0.2303192    0.1383535 -49.60 0.0007160027    1.731    0.422
        65  -9.3741    188.9809     87.2268   8.5988124436e+01   2.5748944083e+01    0.2670593    0.2056661 -50.53 0.0005640893    1.295    0.228
        66  -8.4004    178.3526     87.6688   8.8207897160e+01   2.8279272841e+01    0.1651322    0.1196431 -77.40 0.0006074861    1.778    0.438
        67  -9.1690    152.2600     90.5553   9.4708821556e+01   3.4023277894e+01    0.2967979    0.1522361  56.04 0.0007424473    2.080    0.519
        68  -7.9623    230.6761     91.6999   7.9902554713e+01   1.4981079139e+01    0.2201824    0.1821939 -42.96 0.0005275027    1.143    0.125
        69  -8.8340    155.9630     88.4796   9.3268902328e+01   3.3548888030e+01    0.2408179    0.1513454  52.21  0.001030131    1.584    0.369
        70  -7.6706    165.3004     87.3681   9.0873560170e+01   3.1519486830e+01    0.1591851    0.1236521   8.96 0.0007032694    1.737    0.424
        71  -8.0388    107.0098     87.0409   1.0538460472e+02   4.4466056770e+01    0.2325492    0.1838181 -82.19  0.001134185    1.740    0.425
        72  -8.1034    211.6673     83.4359   8.0939473825e+01   2.0886142330e+01    0.2651575    0.1672189 -48.15 0.0007926005    1.543    0.352
        73  -8.8105    207.0468     82.5573   8.1497267255e+01   2.2156838463e+01    0.4198795    0.2030211 -40.68  0.001670512    1.984    0.496
        74  -8.3006    227.0988     82.5047   7.8246871318e+01   1.7384225474e+01    0.2114698    0.1847914 -52.85 0.0003760208    1.067    0.063
        75  -9.1393    223.1779     79.3500   7.8081674042e+01   1.8837043188e+01    0.5497833    0.2465532  63.07  0.002132043    2.414    0.586
        76 -11.7694    218.6392     73.1395   7.7253298228e+01   2.0951893788e+01      0.65457     0.349269 -46.73  0.002830406    1.800    0.444
        77 -10.0013    157.3599     79.2293   9.0322396237e+01   3.4938786425e+01    0.3957691     0.270901 -55.69   0.00127862    1.648    0.393
        78  -7.5064    112.2884     81.3218   1.0222861358e+02   4.4569699305e+01     0.147202    0.1132442  -3.65 0.0007007787    1.602    0.376
        79  -8.2100     61.7000     79.0204   1.1686841349e+02   5.3379731215e+01    0.1924194    0.1536132 -43.50   0.00114854    1.101    0.092
        80 -10.6510    233.5679     74.5123   7.5386934207e+01   1.7212414396e+01    0.4526934    0.2967532  49.25  0.001080437    1.713    0.416
        81  -8.7361    232.2608     68.7867   7.4215329834e+01   1.8439365939e+01    0.2758236    0.2101325 -30.84 0.0007357603    1.426    0.299
        82  -9.1495    184.8591     78.1385   8.4340086307e+01   2.8387980582e+01    0.2068598    0.1840594  17.64 0.0004818922    1.326    0.246
        83  -8.4850    180.4826     78.4930   8.5281680127e+01   2.9409984458e+01    0.1510832    0.1470858  80.37   0.00081024    1.027    0.027
        84  -8.3526     82.0142     78.0543   1.1015468475e+02   5.0646493607e+01    0.2119127    0.1955557 -27.25 0.0006315332    1.031    0.030
        85  -9.0920    148.3128     77.0758   9.1757953355e+01   3.7481605392e+01    0.3881736    0.1882764  49.06  0.001509678    2.014    0.504
        86  -9.6673    202.9140     72.0261   7.9490624100e+01   2.4961446607e+01    0.5682378    0.2204746 -40.91  0.001779709    2.459    0.593
        87  -8.7016    190.8626     75.8297   8.2598988574e+01   2.7299231935e+01    0.2211809    0.2030001  35.94 0.0005082574    1.205    0.170
        88  -9.6978    169.2621     75.4816   8.6700109079e+01   3.2709444927e+01    0.2979255    0.2774893 -56.55  0.001075994    1.082    0.076
        89  -8.3402    196.1480     74.8794   8.1398534336e+01   2.6152154225e+01    0.2094093    0.1835428  24.43  0.001083575    1.366    0.268
        90 -10.5525    160.6254     73.6111   8.7988920094e+01   3.5149000957e+01    0.5848182    0.3865251 -44.37  0.002661395    1.546    0.353
        91  -8.5636    211.9840     73.4745   7.8378030918e+01   2.2502243324e+01    0.2350264     0.208779 -15.35  0.000539256    1.337    0.252
        92  -8.0563    151.3192     73.2992   8.9957228399e+01   3.7443459459e+01    0.1531699    0.1176318  19.00 0.0005206942    1.619    0.382
        93  -9.1963    190.7878     70.5768   8.1206327711e+01   2.8206440158e+01    0.3951153    0.3062295 -55.50  0.001971506    1.310    0.237
        94  -9.9389    189.1493     65.6328   8.0167268414e+01   2.9427469405e+01    0.6805867    0.3760799  33.26  0.002521742    2.836    0.647
        95  -9.5392    180.5715     71.7103   8.3401881491e+01   3.0558896547e+01    0.4507696    0.2361147  62.67  0.001711385    1.998    0.499
        96  -8.0566    105.0383     72.2594   1.0151599776e+02   4.7707927684e+01    0.1938723    0.1807617  31.00 0.0004028796    1.099    0.090
        97  -8.1494     84.8387     72.1585   1.0750854127e+02   5.1334315396e+01    0.1945633    0.1562019  -3.67  0.001077199    1.340    0.254
        98  -8.3732    195.7652     70.7523   8.0376065247e+01   2.6940527790e+01    0.2838073    0.1994954  72.61 0.0007820006    1.496    0.332
        99 -10.4654    170.5033     68.1671   8.4377389724e+01   3.3653664759e+01    0.5800752    0.3742989 -73.40  0.002362372    2.268    0.559
       100 -10.4557    174.6614     61.4791   8.1673222938e+01   3.3710410308e+01    0.5323792    0.3880034 -29.25  0.001827821    1.496    0.332
       101  -8.6214    111.4094     69.5868   9.8884427094e+01   4.6942823772e+01    0.2659315    0.2468749 -23.24 0.0007791416    1.050    0.048
       102  -8.7423    225.2677     67.6608   7.4930740445e+01   2.0260899834e+01    0.2355394    0.1798735 -38.30  0.001232179    1.312    0.238
       103 -10.6484    163.3842     71.1760   8.6699151164e+01   3.4897227536e+01    0.9953906    0.5302237 -68.06  0.002964706    4.336    0.769
       104  -7.8931    209.0367     65.2931   7.6772635151e+01   2.4554946282e+01    0.2025976    0.1874117  81.39  0.001129656    1.058    0.055
       105 -10.2702    199.8037     61.5812   7.7285543626e+01   2.7421050769e+01    0.4853674    0.3880439 -15.63  0.001354631    1.555    0.357
       106  -9.8552    165.6053     62.7338   8.3804014959e+01   3.5755198202e+01    0.4051446    0.2766365 -33.65  0.001077824    1.537    0.349
       107  -9.5182    161.0612     59.6823   8.3838513313e+01   3.7359598713e+01    0.3807712    0.3017962 -26.66  0.001941747    1.370    0.270
       108  -9.5221    164.8511     52.5082   8.0979251038e+01   3.7527162995e+01     0.419253    0.2670869  78.54  0.001825211    1.938    0.484
       109  -9.5765    186.5179     59.4412   7.8949679114e+01   3.1069217890e+01    0.5166391    0.3230851  29.53  0.002131928    2.377    0.579
       110  -9.6388    182.7346     55.6313   7.8566678378e+01   3.2602108568e+01    0.4766158    0.3370958 -75.31  0.001385303    1.696    0.410
       111  -9.8747    175.5334     53.8653   7.9360794454e+01   3.4669374776e+01    0.5505924    0.3850316  87.43  0.002572602    1.710    0.415
       112  -9.0241    170.5388     52.4751   7.9886508358e+01   3.6121818775e+01    0.2721223    0.2070233 -36.24  0.001385164    1.378    0.274
       113  -8.7311    191.7471     52.5276   7.6199230004e+01   3.0812761060e+01    0.3517326    0.2970158 -50.31 0.0009239744    1.191    0.160
       114 -13.4163    228.2594     38.2097   6.7539505734e+01   2.3915505113e+01     1.759562    0.6611978  79.27  0.005398728    4.022    0.751
       115  -7.6661    143.2793     51.6250   8.5197822140e+01   4.2881444960e+01    0.1470839    0.1104493 -67.07 0.0007009386    1.702    0.412
       116  -7.7596     63.4887     49.0018   1.0695918894e+02   5.8715476370e+01    0.1637317    0.1086463 -60.95 0.0008092056    2.448    0.592
       117  -8.5937    193.3777     45.7609   7.4135381437e+01   3.1385140541e+01    0.3301086    0.2046546 -34.91 0.0008579429    1.688    0.408
       118  -7.6888    187.9504     47.0000   7.5326880316e+01   3.2565992136e+01    0.2373402   0.07756623  61.91 0.0007944236    2.887    0.654
       119  -7.6447    181.6989     46.3294   7.6174094066e+01   3.4225774768e+01    0.1498645    0.1055855 -70.18 0.0007032243    1.645    0.392
       120  -8.0202    153.9965     46.4930   8.1340998934e+01   4.1060883531e+01     0.231034     0.134785  58.03 0.0008677353    1.612    0.380
       121  -9.6025    104.6485     44.0397   9.2322024448e+01   5.2456659681e+01    0.2902669    0.2066972 -50.53  0.001511503    1.756    0.431
       122  -8.1549     90.5791     44.7598   9.6659715635e+01   5.5026861801e+01    0.1758308    0.1203792 -41.69 0.0005778542    1.577    0.366
       123  -8.7744     85.0345     42.9988   9.7736316810e+01   5.6274237240e+01    0.2745515    0.1920118  69.90  0.001321143    2.632    0.620
       124  -9.1583    195.7514     40.7197   7.2445794343e+01   3.1492168589e+01    0.2362976    0.2250525  49.12 0.0003737647    1.181    0.153
       125  -9.5202    173.0278     38.2267   7.5367668123e+01   3.7497213057e+01    0.5447938    0.3432109 -79.42  0.002026533    2.155    0.536
       126  -8.6132    189.0155     38.9827   7.2997718574e+01   3.3405942276e+01    0.3364794    0.1877352 -43.94 0.0009339612    1.828    0.453
       127 -10.9789    123.3060     36.3227   8.4846787861e+01   4.9585132716e+01    0.5351247    0.3879349 -29.08   0.00172832    1.451    0.311
       128  -7.9866     73.0113     37.2839   9.9519674809e+01   5.9116646449e+01    0.1787901    0.1536465   9.88 0.0006970225    1.075    0.070
       129 -11.1505     45.0918    221.8266   1.4377981677e+02   2.3575990154e+01    0.8915116    0.4633626  61.39  0.005151576    1.669    0.401
       130  -7.5544     79.3075    218.6870   1.3711013030e+02   1.9549645895e+01    0.1327023   0.08014922  71.86 0.0002548625    1.623    0.384
       131  -8.6189    161.0751     33.9419   7.6216070625e+01   4.1004977847e+01    0.2962095    0.2352671 -74.13  0.001190172    1.429    0.300
       132  -9.4405    139.5144     34.2720   8.0526849386e+01   4.6150714252e+01    0.4491946     0.272191 -17.89 0.0005614957    1.975    0.494
       133  -9.0849    135.8356     31.1138   8.0288029677e+01   4.7397263170e+01    0.3178726    0.2461109 -63.20  0.000779607    1.625    0.384
       134 -10.0387    193.0321     31.1552   7.0330212495e+01   3.3419645107e+01    0.6228925     0.352867 -78.98  0.002599548    2.357    0.576
       135  -8.0640    185.8967     28.3278   7.0602235029e+01   3.5542054539e+01    0.2463412     0.148989  62.55  0.000737614    1.485    0.326
       136  -7.1141     86.5143    213.5427   1.3511465535e+02   1.9517615430e+01     0.131978    0.1050893  73.58 0.0004476728    1.049    0.047
       137  -7.4640    171.3163     31.6829   7.3791753737e+01   3.8756485886e+01    0.1439198    0.1020798 -72.03 0.0007038492    1.652    0.395
       138  -8.7849    201.4292     27.7699   6.8321148045e+01   3.1764171655e+01    0.2471739    0.1906606 -59.84  0.001042302    1.278    0.218
       139  -8.9648    162.8634     27.1309   7.3893221942e+01   4.1390362986e+01    0.2517466    0.1851754  64.99 0.0009567719    1.234    0.190
       140  -9.4347    155.8073     25.4268   7.4613496654e+01   4.3310748607e+01    0.3909756    0.2878364 -74.82  0.002051649    1.644    0.392
       141  -8.9091    146.3033     25.0633   7.6248181563e+01   4.5640240669e+01    0.1819831    0.1819212  56.98 0.0009057566    1.108    0.097
       142  -8.2478     84.1731     24.5213   9.1126192414e+01   5.8921779928e+01    0.2340215    0.1541211 -44.11  0.000797026    1.942    0.485
       143  -9.1459    174.9757     23.6855   7.0956514757e+01   3.8799922751e+01    0.2633423    0.2289418  83.01  0.000417745    1.075    0.069
       144  -8.0364    174.5638     19.5200   6.9859410088e+01   3.9367870252e+01    0.2077019      0.20149   0.63 0.0007046597    1.204    0.170
       145  -8.8448    186.3271     21.5254   6.8724397982e+01   3.6235916830e+01    0.2660362    0.2167676  34.72 -0.0001199715    1.454    0.312
       146  -8.8206    184.7573     17.6094   6.7898630928e+01   3.7061057049e+01    0.2905003    0.1541539 -83.35  0.001203845    2.562    0.610
       147  -8.7795    180.7691     21.4823   6.9494380790e+01   3.7616162571e+01    0.2486568    0.2115424  73.97 0.0007635138    1.040    0.039
       148  -8.9778    164.3525     19.1740   7.1328537962e+01   4.1916441786e+01    0.2700596    0.2229294 -57.15  0.001009661    1.317    0.241
       149  -8.3821     87.5630     35.4862   9.4227604481e+01   5.6902058908e+01    0.2245515    0.1821341  83.65 0.0009318019    2.075    0.518
       150 -10.8075     28.7781    208.1696   1.4559548644e+02   2.8283968988e+01     0.558194    0.4219182  86.08  0.003033559    1.053    0.050
       151  -8.4875    155.8151     17.9676   7.2371571664e+01   4.4123183603e+01    0.3008602    0.1895201  77.72  0.001495611    1.679    0.404
       152 -11.1834     57.5415    198.4497   1.3917659304e+02   2.6874160955e+01    0.3962136    0.2784398  66.61  0.002430327    1.256    0.204
       153  -9.7232    138.5041     16.4223   7.4995412461e+01   4.8402320303e+01    0.2724925    0.1873746 -52.54  0.001446823    1.790    0.441
       154  -7.9603    170.3443    196.6864   1.1516210037e+02   7.9116540235e+00    0.1456597    0.1099593  76.18 0.0007047147    1.710    0.415
       155  -8.3248     68.5538     15.3457   9.2407977993e+01   6.2653517573e+01    0.2434584     0.151092 -43.52  0.001354766    2.210    0.548
       156  -8.9459    177.2500     15.0072   6.8230795430e+01   3.9189552795e+01     0.314696    0.1743609  70.22 0.0008669808    1.622    0.384
       157  -8.0215    155.9891     12.3252   7.0659894748e+01   4.4650566625e+01     0.208577    0.1170336  76.81 0.0009759074    1.881    0.468
       158  -7.9064     84.8237    192.0071   1.3273217939e+02   2.4393183442e+01    0.2315439    0.1376448  82.23  0.001087092    2.010    0.502
       159  -7.9163    108.5097    187.4830   1.2692188928e+02   2.1510465563e+01    0.2441715     0.114491  52.59 0.0006448171    2.160    0.537
       160 -11.9753     46.9890    179.2366   1.3921104822e+02   3.2451131892e+01    0.9636833    0.6402966 -77.75  0.005735897    1.269    0.212
       161  -7.6882     80.2354     11.6014   8.7217520749e+01   6.1057995546e+01    0.1722626   0.09541111  37.85 0.0009422647    1.587    0.370
       162  -8.8978    248.7285    169.2565   9.4404080494e+01  -2.3677770177e+00    0.3626564    0.2184014 -37.83  0.001434004    1.559    0.359
       163  -8.2776     61.0917    167.2950   1.3458822252e+02   3.3408737493e+01    0.1837395    0.1531561  70.07  0.001087625    1.154    0.133
       164  -8.2924    203.4052    163.7358   1.0169274585e+02   7.5294952744e+00    0.2057921    0.1393838 -30.07 0.0009447669    1.585    0.369
       165 -10.4440    178.4960    150.7896   1.0401589797e+02   1.5494039749e+01     0.621547    0.5028089 -85.89  0.002126306    1.537    0.349
       166  -7.5607    229.2931    152.6630   9.4289264431e+01   4.2416348516e+00    0.1425939    0.1132423 -69.75 0.0002524778    1.645    0.392
       167  -7.7250     80.0364    148.5074   1.2707998656e+02   3.5152394196e+01    0.1949647     0.137575  41.19 0.0004085072    1.530    0.347
       168  -8.3623     66.3192    144.6655   1.2985540948e+02   3.8010901621e+01    0.1416575   0.09663777  79.55 0.0003134561    1.699    0.411
       169 -11.1535    242.0786    137.7940   8.8727752160e+01   4.3196488668e+00     0.810567    0.6009498 -54.78  0.004063766    1.466    0.318
       170  -9.3161    248.3177    132.4952   8.6510760363e+01   4.0003732044e+00     0.373341     0.323172 -71.79  0.002112035    1.342    0.255
       171  -8.5447    196.2034    139.2123   9.7609493966e+01   1.3916949031e+01    0.2165009    0.1840498 -77.84  0.001068307    1.370    0.270
       172  -8.4751    198.8784    136.0647   9.6325151419e+01   1.3943520680e+01    0.2398217    0.2098123 -74.58  0.000689709    1.277    0.217
       173  -9.0702    232.5163    132.7612   8.9231940475e+01   7.1981014097e+00    0.3057493    0.1968123 -43.82  0.001253948    1.473    0.321
       174  -7.6063    225.6713    129.6898   8.9732057187e+01   9.2265829997e+00      0.14931    0.1161256   6.72 0.0007040986    1.664    0.399
