#   1 NUMBER                 Running object number                                     
#   2 MAG_AUTO               Kron-like elliptical aperture magnitude                    [mag]
#   3 X_IMAGE                Object position along x                                    [pixel]
#   4 Y_IMAGE                Object position along y                                    [pixel]
#   5 X_WORLD                Barycenter position along world x axis                     [deg]
#   6 Y_WORLD                Barycenter position along world y axis                     [deg]
#   7 A_WORLD                Profile RMS along major axis (world units)                 [deg]
#   8 B_WORLD                Profile RMS along minor axis (world units)                 [deg]
#   9 THETA_WORLD            Position angle (CCW/world-x)                               [deg]
#  10 FWHM_WORLD             FWHM assuming a gaussian core                              [deg]
#  11 ELONGATION             A_IMAGE/B_IMAGE                                           
#  12 ELLIPTICITY            1 - B_IMAGE/A_IMAGE                                       
         1 -14.5191    194.8589     15.4404   6.9695421019e+01   3.4431020727e+01     2.774146     1.633631  24.52    0.0124811    2.169    0.539
         2 -10.6154     33.0000      5.5221   1.0815226962e+02   7.2685731026e+01    0.5798386    0.0639504 -42.51   0.00134976    8.027    0.875
         3 -15.4463     57.6685    218.6204   1.4336453378e+02   2.4629147383e+01     6.685448    0.4559004  36.72   0.02140969    4.672    0.786
         4 -12.6631    140.8641    249.1810   1.3077448431e+02   1.0450042190e+01    0.5067467    0.2905789  39.37  0.003558149    1.328    0.247
         5 -11.7891    109.8926    250.2665   1.3623105665e+02   1.4060627033e+01    0.3271264    0.2327136  74.12  0.002495149    1.849    0.459
         6 -11.9507     98.4247    249.2494   1.3814080855e+02   1.5529149099e+01    0.4868863    0.1983539  51.21  0.002796366    2.370    0.578
         7 -11.7806    102.5846    247.7421   1.3729831505e+02   1.5249041307e+01    0.3343193    0.2136107  43.29 0.0004871643    1.183    0.155
         8 -10.1382     73.7755    250.4362   1.4248117574e+02   1.8104454105e+01    0.2701683   0.09950768  30.66  0.001319007    2.454    0.593
         9 -11.7520     81.6095    248.6752   1.4101779643e+02   1.7499142759e+01    0.3258379    0.2158667  51.23  0.001583968    1.220    0.181
        10 -12.2347     83.5242    244.2986   1.4038318798e+02   1.7897629953e+01    0.5784734    0.2425002  56.41  0.003267005    2.595    0.615
        11 -10.9238     77.4822    244.5226   1.4145952258e+02   1.8533317169e+01    0.2016735    0.1307258  34.31  0.001176519    1.294    0.227
        12 -12.5460     67.1468    243.5473   1.4320675486e+02   1.9784675159e+01    0.5583713     0.275357  41.90  0.002470316    1.466    0.318
        13 -10.8625     67.3989    250.4306   1.4357163567e+02   1.8779518638e+01    0.2439127    0.1422989  45.70  0.001851741    1.240    0.193
        14 -10.4721     63.6725    250.7113   1.4422248058e+02   1.9127405453e+01    0.2121077   0.09858054  36.78 0.0004796157    1.604    0.377
        15 -13.6525     33.2647    246.0971   1.4913908921e+02   2.2758718860e+01     1.529785    0.4591338  33.32  0.008793671    2.551    0.608
        16 -15.6089      9.6117    240.1542   1.5287636001e+02   2.5696170979e+01     6.698019     1.046263 -70.69    0.0309727    5.903    0.831
        17 -10.7740    162.9279    249.2325   1.2701294878e+02   7.6971387459e+00    0.2293871    0.1086638  41.52  0.001431703    1.759    0.431
        18 -10.0477    186.1829    239.2185   1.2191354753e+02   5.8460164230e+00    0.1362166    0.1062945  35.37 0.0003810562    1.335    0.251
        19 -10.5969     37.7825    231.1544   1.4771962236e+02   2.4603670391e+01    0.2107058   0.09753475  53.42   0.00112028    1.668    0.400
        20 -11.1818    173.9693    222.1494   1.2182820749e+02   9.4213830222e+00    0.2740482    0.2084223  48.98  0.001290681    1.606    0.377
        21 -10.0259    229.3045    229.1742   1.1351957084e+02   1.3796579968e+00    0.1947822    0.1232803 -45.08  0.001205369    3.138    0.681
        22 -11.7478    124.8256    249.9282   1.3361468688e+02   1.2320967171e+01    0.4298608    0.1104676  36.97  0.002063472    2.757    0.637
        23 -15.2293      3.8927     20.8900   1.3430615496e+02   7.2294571149e+01     22.98094     1.697297 -66.79   0.03536699   20.045    0.950
        24  -9.1986    152.7006    212.9710   1.2451147817e+02   1.3558436023e+01    0.1474791    0.1283679  21.17 0.0003454334    1.107    0.096
        25 -10.3981     33.8031    206.2356   1.4722317913e+02   2.9105827566e+01    0.2071412    0.1806595  38.18 0.0007546899    1.287    0.223
        26 -10.7112    193.0153    194.9107   1.1439920632e+02   1.0112012826e+01    0.6538771    0.3677651 -59.41  0.002238475    7.512    0.867
        27 -11.6868     72.5300    196.7485   1.3872057655e+02   2.6724486591e+01    0.3417116    0.2342083 -39.50  0.002012679    2.055    0.513
        28 -11.7377     77.1131    189.4807   1.3706639690e+02   2.7491864693e+01    0.2421726    0.2091007 -39.20 0.0006023164    1.466    0.318
        29 -11.1234     85.4170    177.2385   1.3392373188e+02   2.8736955395e+01     0.214285    0.2020854  70.01 0.0004110375    1.090    0.083
        30 -13.2648     73.1770    174.8917   1.3643417148e+02   3.0723929832e+01    0.4207396    0.2552912 -41.11  0.001558496    2.245    0.554
        31 -12.5081     50.7380    130.0275   1.3679386948e+02   4.2844954183e+01    0.4806421    0.2986909  46.66  0.001211004    1.587    0.370
        32 -12.6305     91.7416    168.2905   1.3136900061e+02   2.9619611942e+01     2.295652    0.3923684  42.55  0.007060532    4.895    0.796
        33 -10.2185    102.9807    151.5122   1.2623848010e+02   3.1338090826e+01    0.2830027    0.2569922  15.46 0.0008665361    1.179    0.152
        34  -9.3414    105.4622    147.0810   1.2489537656e+02   3.1855767521e+01    0.2645986    0.1934056 -26.59   0.00112264    1.741    0.426
        35 -12.1523     92.0376    151.0144   1.2885808054e+02   3.3041384980e+01      0.25704    0.2350797  -5.96 0.0004875876    1.268    0.211
        36 -11.6090     47.5143    150.9402   1.4006780581e+02   3.8554731873e+01    0.3672066    0.2134247  75.84  0.001964833    1.874    0.467
        37  -9.5534    134.0000    146.5161   1.1794137298e+02   2.7307147963e+01    0.4364965   0.07726692 -47.85  0.001162195    5.993    0.833
        38 -13.7985     11.0493    206.8493   1.5160220698e+02   3.0976435174e+01    0.9901129    0.6919727  34.17  0.004490572    1.424    0.298
        39  -8.6044    192.2851    144.2761   1.0513870439e+02   1.7288661199e+01    0.1335406   0.09329427   8.38 0.0002124865    1.510    0.338
        40 -10.8515    125.9141    174.5060   1.2453717202e+02   2.3510920861e+01    0.3492319     0.111962  37.07  0.001375916    2.779    0.640
        41 -10.0110    112.6859    136.6699   1.2121539020e+02   3.2825545201e+01    0.2896371    0.2171324 -10.80  0.001291128    1.782    0.439
        42 -10.6649    100.4586    134.0731   1.2386697347e+02   3.5328121432e+01    0.2699466    0.2245124 -25.16 0.0005983385    1.393    0.282
        43 -10.8887     70.1794    134.9797   1.3211670132e+02   3.9438702510e+01    0.2324836    0.1855492  37.24  0.001169911    1.267    0.211
        44 -13.5695     68.5330    145.6918   1.3406767313e+02   3.7299626153e+01     1.813195    0.8670897  74.86  0.006370338    4.388    0.772
        45  -9.3143    118.2818    129.0785   1.1828803520e+02   3.3431654261e+01    0.2262321   0.09776436 -32.74 0.0007016212    4.157    0.759
        46  -9.5163    109.0106    123.8692   1.1960810309e+02   3.6095637902e+01     0.197844    0.1921332  36.23 0.0003305135    1.018    0.018
        47 -12.8289     57.4125    129.5029   1.3484932255e+02   4.2219098443e+01     1.691408    0.5709637 -78.58  0.004589082    6.536    0.847
        48 -11.0270    168.3857    113.4049   1.0287794526e+02   2.6838693135e+01    0.3690216    0.3159105 -81.60  0.001195501    1.654    0.395
        49  -9.1943    203.6532    111.6658   9.5608205028e+01   1.9998505109e+01    0.1504408   0.09905013  10.89 0.0007048937    1.770    0.435
        50 -12.9657     49.8158    230.9296   1.4555466781e+02   2.3467480738e+01    0.3224531    0.3162435 -43.42   0.00113879    1.451    0.311
        51 -11.1261    249.6094    246.1991   1.1282273300e+02  -2.5095977517e+00    0.3490351    0.1470209  17.72  0.002074044    2.251    0.556
        52 -11.1254    238.4203    248.7258   1.1482772636e+02  -1.4425252272e+00    0.2549338   0.08156382  27.74  0.001345685    2.630    0.620
