#   1 NUMBER                 Running object number                                     
#   2 MAG_AUTO               Kron-like elliptical aperture magnitude                    [mag]
#   3 X_IMAGE                Object position along x                                    [pixel]
#   4 Y_IMAGE                Object position along y                                    [pixel]
#   5 X_WORLD                Barycenter position along world x axis                     [deg]
#   6 Y_WORLD                Barycenter position along world y axis                     [deg]
#   7 A_WORLD                Profile RMS along major axis (world units)                 [deg]
#   8 B_WORLD                Profile RMS along minor axis (world units)                 [deg]
#   9 THETA_WORLD            Position angle (CCW/world-x)                               [deg]
#  10 FWHM_WORLD             FWHM assuming a gaussian core                              [deg]
#  11 ELONGATION             A_IMAGE/B_IMAGE                                           
#  12 ELLIPTICITY            1 - B_IMAGE/A_IMAGE                                       
         1  -8.4687     55.6792     10.0371   5.7699597327e+01   6.6259166640e+01    0.1885294    0.1524988  42.87 0.0006042971    1.282    0.220
         2  -8.0328     47.5341     10.0353   6.0930663696e+01   6.7674704148e+01    0.1458518   0.09996325 -48.26 0.0008084783    2.446    0.591
         3  -8.4006     90.7974      8.9648   4.6416870603e+01   5.9338852843e+01    0.1880032    0.1345801 -56.30 0.0007126182    1.952    0.488
         4  -7.7795     27.7263      9.3876   6.9824455499e+01   7.0755264238e+01   0.09847946   0.09247224 -30.65  0.000699505    1.719    0.418
         5  -7.8885    101.4846      8.0127   4.3576994094e+01   5.7066624492e+01    0.1591607   0.09597038 -52.79 0.0004433886    2.302    0.566
         6  -8.3879      5.6452      8.2848   8.1927130775e+01   7.3397316056e+01   0.09631319   0.08322084  23.19 0.0005916847    1.667    0.400
         7  -8.5021     33.4125      5.0339   6.4734042505e+01   7.0438831602e+01    0.2223918    0.1672425 -46.58  0.001242821    2.262    0.558
         8  -8.4874     79.2392      4.0031   4.7431057480e+01   6.2199127599e+01    0.2680452    0.1394498 -33.42  0.001084257    2.287    0.563
         9  -7.9334     44.6788      3.2888   5.8793406220e+01   6.8821946129e+01   0.09912971   0.09387739  58.12 0.0002761224    1.602    0.376
        10  -7.6376     15.6870      2.7171   7.2890040526e+01   7.3072389379e+01    0.1165256   0.06845328   2.16 0.0002432631    1.574    0.365
        11  -8.1382     62.2871      1.3811   5.1350385010e+01   6.5803296729e+01    0.1570707    0.1028037  58.04 0.0004714046    1.580    0.367
        12  -8.9333    147.1972    246.0213   9.2276176751e+01   1.4525641357e+00    0.2997246    0.2172102  77.66  0.001482858    2.456    0.593
        13  -8.5529    248.9993    249.8189   7.2739331629e+01  -1.2341176516e+01     0.214578    0.1159378 -19.02  0.001132357    1.599    0.374
        14  -9.7336    248.5934    242.0899   7.1530075966e+01  -1.1258812703e+01    0.3705283    0.1787334 -43.28  0.001970347    2.456    0.593
        15  -8.3674     94.2044    249.6324   1.0429681536e+02   8.4480515253e+00    0.2983147    0.1357283  61.66  0.001107307    3.716    0.731
        16  -7.8353     25.6875    250.3052   1.1855081565e+02   1.6858778400e+01    0.1257898   0.06661606  60.92 0.0002585184    1.617    0.382
        17  -9.4228    120.1966    245.5368   9.8121226914e+01   5.5135033789e+00    0.3656939    0.2540281  73.35  0.001733616    2.072    0.517
        18  -8.8937     67.5385    244.7284   1.0955026363e+02   1.3031883040e+01    0.3192971    0.1543366 -83.83  0.001429638    2.767    0.639
        19  -8.6607     49.8842    243.9586   1.1322226651e+02   1.5402598297e+01    0.3146123    0.1452994  89.86   0.00141364    2.763    0.638
        20  -9.3249      9.4187    244.0860   1.2133819106e+02   1.9788884728e+01    0.2680438   0.09013218  88.80  0.001137829    3.311    0.698
        21  -8.5527    201.9842    243.3771   8.0429156684e+01  -5.8217504000e+00    0.2082196     0.167422 -44.08  0.000840744    1.609    0.379
        22  -8.8386    169.0708    243.0963   8.7145382926e+01  -1.2208353566e+00    0.2386677    0.1788714 -28.40 0.0009097668    1.375    0.273
        23  -9.6379     77.8997    243.1705   1.0715803611e+02   1.1980921887e+01    0.4113693    0.1791829  54.43  0.001731231    2.513    0.602
        24  -8.8320     34.6858    244.1166   1.1636452362e+02   1.7138199367e+01    0.1980558    0.1233258  72.53  0.001168107    1.474    0.322
        25  -8.7638     88.2002    242.2703   1.0480246510e+02   1.0753123965e+01    0.2524937    0.1684991 -68.77 0.0007432337    1.678    0.404
        26  -9.2609    194.2666    240.1593   8.1448312842e+01  -4.2764569907e+00    0.3057011    0.1993394 -55.85  0.001331942    2.381    0.580
        27  -9.3415    183.0810    240.2009   8.3748189698e+01  -2.7298790482e+00    0.4075908    0.2780314  55.59  0.002064086    2.439    0.590
        28  -9.4765    159.8363    239.8242   8.8617531159e+01   6.9687363947e-01    0.3503638    0.2599094 -80.03   0.00139877    2.423    0.587
        29  -8.2565    153.4590    241.9752   9.0325331898e+01   1.2547133494e+00    0.1815786    0.1308489 -47.33  0.001021641    1.579    0.367
        30  -8.1966    214.0308    241.3092   7.7733426674e+01  -7.0650302422e+00    0.1761432    0.1374535   5.58 0.0007551131    1.067    0.062
        31  -8.6121    240.4958    240.0231   7.2608108849e+01  -1.0069720851e+01     0.173436   0.09808758 -32.26 0.0007217238    1.564    0.361
        32  -8.5300    146.5209    239.7544   9.1511667227e+01   2.6899608415e+00    0.1612279    0.1331995 -69.20 0.0009338649    1.610    0.379
        33  -9.5779    135.5843    238.8641   9.3802665366e+01   4.4977201604e+00    0.2896203    0.1903132  51.23  0.001069687    1.709    0.415
        34  -9.5042    231.0606    236.2650   7.3678229293e+01  -8.4216636018e+00    0.4085487    0.2094478 -35.80  0.001590211    1.793    0.442
        35  -7.9793    208.8194    238.0484   7.8199737737e+01  -5.8912439746e+00    0.1699207    0.1499498 -65.54  0.000712662    1.950    0.487
        36  -9.0344     27.0624    237.6394   1.1747641008e+02   1.9333224120e+01    0.5466238    0.1191335  49.38  0.002016277    3.748    0.733
        37  -8.0692     58.0029    237.2093   1.1091629884e+02   1.5823563919e+01    0.1712726   0.09193087  34.65 0.0007495523    1.718    0.418
        38  -8.5607     12.8563    237.6492   1.2032733171e+02   2.0789642559e+01    0.1721348   0.08092553  44.47 0.0006001071    1.767    0.434
        39  -9.2401    247.8981    234.9484   7.0444290380e+01  -1.0189308015e+01    0.2169876    0.1831929 -39.12  0.001511536    1.707    0.414
        40  -9.5681    246.4740    229.1009   6.9686804270e+01  -9.1901883916e+00    0.4226975    0.1772006 -36.60    0.0017227    2.073    0.518
        41 -10.0163    214.8230    233.1265   7.6198314555e+01  -5.9072137304e+00    0.4679115     0.365524 -79.70  0.002328176    3.417    0.707
        42  -8.9960    203.1641    234.8426   7.8775727496e+01  -4.6303365896e+00    0.2609653    0.1999971 -58.10  0.001186807    2.080    0.519
        43 -10.1226    175.5491    233.1445   8.4182404891e+01  -4.3833836278e-01    0.5559284    0.2758495 -54.79    0.0024005    2.881    0.653
        44  -8.9877    173.0401    223.0650   8.3034143225e+01   1.7544282532e+00    0.2830754    0.2150311 -75.54 0.0008612495    2.278    0.561
        45  -8.3432    170.1376    235.8251   8.5772255774e+01  -1.1402047220e-01    0.1862298    0.1709914  34.71 0.0006630021    1.277    0.217
        46  -9.3252    108.4687    234.3937   9.9307315925e+01   9.4474818055e+00    0.3180987    0.2293396  69.77  0.001107957    1.704    0.413
        47  -9.0316     78.7559    234.3766   1.0604504901e+02   1.3703193901e+01    0.2826968    0.1669575  88.21  0.001006427    2.221    0.550
        48  -8.1901    122.9443    234.0134   9.5961248130e+01   7.3528383342e+00     0.217121     0.153863  62.64 0.0009299638    1.760    0.432
        49  -8.4091     99.6746    234.1403   1.0127856058e+02   1.0792870576e+01    0.2090726    0.1601425  76.28 0.0009564623    1.512    0.338
        50  -9.7474     68.5805    232.4808   1.0812962769e+02   1.5478267748e+01    0.5512348    0.2309596  60.63  0.002061486    3.354    0.702
        51  -8.4439    194.3175    232.4780   8.0158595419e+01  -3.0237201643e+00    0.1874844    0.1586967 -57.62 0.0006644243    1.729    0.421
        52  -8.8816    140.0327    230.1217   9.1515507983e+01   5.5068045957e+00    0.3201324    0.1829225  51.30   0.00144599    2.129    0.530
        53  -8.8230    132.6726    232.7006   9.3566441497e+01   6.1318044306e+00    0.2396659    0.1682135 -87.96 0.0009106047    2.335    0.572
        54  -8.7647     92.6104    231.9581   1.0262449475e+02   1.2273589708e+01    0.3091322    0.1912261  73.32  0.001249272    2.182    0.542
        55  -9.5999    186.4451    230.5759   8.1460244059e+01  -1.5800900751e+00    0.3367004    0.2643728 -74.07  0.001543474    2.324    0.570
        56  -8.2475    157.9302    231.9615   8.7805421010e+01   2.4113048187e+00    0.1988572    0.1633098  64.76 0.0006844293    1.695    0.410
        57  -8.9596    236.0416    230.7108   7.1816996787e+01  -8.1992958603e+00    0.2188099    0.1735364 -32.77 0.0007427288    1.417    0.294
        58  -8.9806      1.6451    230.6703   1.2216164449e+02   2.3326578680e+01    0.2385139   0.09752944  74.61  0.001111351    2.367    0.578
        59  -9.1128    151.3278    228.9869   8.8798189127e+01   3.9823576786e+00    0.3232215    0.2222361  84.58  0.001165416    3.154    0.683
        60  -9.5708    148.6322    224.5905   8.8703668976e+01   5.2532070705e+00    0.4753713    0.3337536  76.97  0.001768249    2.647    0.622
        61  -8.1687    229.6101    228.8349   7.2665193964e+01  -7.1297309631e+00     0.160366    0.1060029 -40.62 0.0006476815    1.644    0.392
        62  -8.7790    162.0487    227.6264   8.6199869859e+01   2.5902450739e+00    0.2467023     0.213142  78.98  0.001084282    1.693    0.409
        63  -9.0134    127.8632    227.2387   9.3863246124e+01   7.9666527088e+00    0.3377755    0.2308256  64.21  0.001213825    1.994    0.498
        64  -8.6534    119.8985    227.5496   9.5748605587e+01   9.1319122896e+00    0.2575225    0.1863047 -85.80  0.001055358    1.925    0.480
        65  -8.5783      7.6457    228.1842   1.2083792991e+02   2.3311802140e+01    0.1636545   0.09170555 -72.12 0.0007341855    1.677    0.404
        66  -9.2798    225.0180    222.3558   7.2378770714e+01  -5.5368912975e+00     0.462906     0.193159 -29.53  0.002056475    2.416    0.586
        67  -8.3650    206.0383    226.0915   7.6699750547e+01  -3.5951497544e+00    0.1748406    0.1661071  80.97 0.0006128362    1.708    0.415
        68  -7.9263    200.1586    226.2210   7.7899310814e+01  -2.7964289065e+00    0.1602654    0.1513733 -20.51 0.0005217048    1.345    0.257
        69  -8.8112    216.5165    223.6538   7.4222498428e+01  -4.6223409065e+00    0.2495673    0.2149763 -54.32 0.0009779314    1.740    0.425
        70  -8.9462    104.6670    223.5797   9.8752303587e+01   1.2293294892e+01    0.3540532    0.2366954  80.65  0.001543341    2.111    0.526
        71  -9.1146     94.2844    224.2631   1.0128255774e+02   1.3688518590e+01    0.4510081    0.2122463  56.18   0.00171141    2.747    0.636
        72  -7.8045     72.4931    225.5039   1.0650405540e+02   1.6486315007e+01    0.1314022    0.1203205  58.36 0.0008101341    1.050    0.048
        73  -8.3924     38.5291    224.7497   1.1409490267e+02   2.0883301597e+01    0.1788801    0.1066566  85.10 0.0009436673    1.674    0.403
        74  -8.8198    180.1845    223.9856   8.1656516036e+01   5.0345736649e-01    0.2196418    0.2057881 -10.40 0.0004129364    1.195    0.163
        75  -7.9977    113.9806    223.9685   9.6618157528e+01   1.0791790454e+01    0.2208454    0.1579229  64.12 0.0007209414    1.685    0.407
        76  -8.3189     59.9135    223.9091   1.0922374019e+02   1.8495214555e+01    0.2213204    0.1329459  62.14  0.001115183    1.688    0.408
        77  -9.0576    159.1177    220.5022   8.5668826405e+01   4.4030322608e+00    0.3170546    0.2285163  60.82  0.001231095    2.029    0.507
        78  -8.6410    140.5386    222.8249   9.0268569418e+01   6.8779310949e+00    0.2405075    0.1666856  63.90 0.0009842525    2.086    0.521
        79  -9.2244    238.8186    221.4730   6.9699345085e+01  -7.1437426717e+00    0.2546557    0.1492022 -36.74 0.0008982889    1.564    0.361
        80  -9.2263    192.3519    221.1572   7.8607844430e+01  -8.0141752785e-01    0.2940376    0.2516441 -62.09  0.001150774    1.702    0.412
        81  -8.2841     49.5324    226.9810   1.1185508046e+02   1.9096542491e+01    0.2622105    0.1435841  80.83  0.001259982    2.085    0.520
        82  -9.3620    120.3545    219.0950   9.4405065415e+01   1.0840680311e+01    0.4980963    0.2837113  62.65  0.001964442    2.799    0.643
        83  -9.1606     82.8761    220.4159   1.0349039255e+02   1.6187166145e+01    0.3675429    0.2130654  65.16  0.001289491    2.133    0.531
        84  -8.1320     73.1703    220.7557   1.0581667460e+02   1.7459148846e+01    0.2382408    0.1180147  64.38 0.0009425522    2.750    0.636
        85  -8.2044     27.5256    221.0288   1.1620912748e+02   2.2924467838e+01    0.1884479    0.1100662 -78.64   0.00103035    1.586    0.370
        86  -8.1183    202.6173    220.2476   7.6352022621e+01  -2.1310998064e+00    0.1757742    0.1106187 -28.80  0.000303959    1.492    0.330
        87  -8.2818    209.9808    219.1142   7.4685275927e+01  -2.9788958586e+00    0.1822166     0.164548 -19.04 0.0004715414    1.257    0.204
        88  -8.7776    248.7598    217.9152   6.7327257251e+01  -7.8032699451e+00    0.1960272    0.1655387  55.54  0.001243799    2.225    0.551
        89  -9.0226    143.0491    216.6876   8.8698378946e+01   7.7273433706e+00    0.3383365    0.2330488 -71.89  0.001085189    2.126    0.530
        90  -9.3079    132.7594    215.7853   9.0958955194e+01   9.5714265212e+00    0.5393814    0.3464823  81.15  0.002104711    3.221    0.690
        91  -8.4833     61.9154    217.4202   1.0808928243e+02   1.9714944256e+01    0.2568819    0.1688422  80.53  0.001320609    1.647    0.393
        92  -9.4052     51.3138    217.2614   1.1054214942e+02   2.1083225942e+01     0.277448    0.1916823  82.04  0.000828946    1.437    0.304
        93  -7.9906    111.8184    217.0347   9.6131953769e+01   1.2622587289e+01    0.2268654    0.1583254  78.28 0.0007617698    1.996    0.499
        94  -8.6724    169.1140    216.0390   8.2678726904e+01   3.6882860201e+00    0.2810818    0.2251005 -71.05 0.0008677248    1.834    0.455
        95  -8.8413    232.4661    214.3835   6.9572632514e+01  -5.2342733110e+00    0.3331363    0.2056651 -43.86  0.001825793    1.760    0.432
        96  -8.1712    154.5892    215.2730   8.5806161787e+01   6.1561191260e+00    0.2062371    0.1694719  72.78 0.0009937844    1.724    0.420
        97  -9.3082     92.9676    213.8806   1.0023273874e+02   1.6202521864e+01    0.3506221    0.2163399  65.32   0.00129372    2.037    0.509
        98  -7.8284     41.6819    215.3602   1.1258043583e+02   2.2663926725e+01     0.144218   0.08227712  64.97 0.0007043145    1.763    0.433
        99  -8.5268    185.4429    214.2991   7.8833909040e+01   1.4715744222e+00    0.2109734    0.1653362  50.21 0.0007560988    1.667    0.400
       100  -8.2248     77.1721    214.3985   1.0411742454e+02   1.8361629546e+01    0.2154813    0.1261286  36.94  0.001034587    1.591    0.372
       101  -9.2661     72.2866    211.2264   1.0491290719e+02   1.9775145949e+01    0.5016001    0.2467682  67.33  0.001756154    3.117    0.679
       102  -9.3694    213.9025    212.2027   7.2665356310e+01  -2.3598939259e+00    0.3125307    0.2609479  53.77  0.001742496    1.829    0.453
       103  -8.5222    161.6967    212.3570   8.3688727458e+01   5.5924459583e+00    0.2254533    0.1807007 -61.16  0.000630524    1.570    0.363
       104  -7.8024    106.4953    212.9600   9.6819252565e+01   1.4354269202e+01     0.200453    0.1416399 -62.07 0.0009151385    1.524    0.344
       105  -8.5258     18.4839    216.0137   1.1781271662e+02   2.4983334034e+01    0.1912867    0.1070608 -80.26  0.001016634    1.605    0.377
       106  -9.3606    175.4563    210.0115   8.0210952523e+01   3.8426813147e+00     0.393007    0.2861254  67.22  0.001553663    2.420    0.587
       107  -8.8193    204.1739    210.6283   7.4296502659e+01  -6.8446734604e-01    0.2372561    0.1689307 -36.98 0.0006742862    1.360    0.265
       108  -8.3251    192.2583    210.6466   7.6737130795e+01   1.0989839843e+00    0.2325669    0.1633284 -51.07 0.0005869492    1.715    0.417
       109  -8.6980    148.0347    210.5677   8.6509540830e+01   8.1816186807e+00    0.2794914    0.2234762  85.76  0.001051876    1.841    0.457
       110  -9.0008    116.3545    210.3330   9.4027620580e+01   1.3389446588e+01    0.3598368     0.258511  74.10  0.001066651    1.880    0.468
       111  -9.4828      6.5601    209.1531   1.1994319534e+02   2.7664761357e+01    0.5108427    0.1599899  73.88   0.00161746    5.118    0.805
       112  -8.4667     85.3680    209.4284   1.0149072056e+02   1.8348791367e+01    0.3195946    0.1839786  72.99  0.001302205    2.547    0.607
       113  -7.9110     32.3138    210.6300   1.1431245195e+02   2.4809074024e+01    0.1436313   0.08011955  65.61 0.0007035612    1.778    0.437
       114  -9.0962    236.4296    208.1882   6.7727446863e+01  -4.7547794232e+00     0.271427    0.2229105 -58.33  0.001334074    1.933    0.483
       115  -8.2611     46.3573    209.1669   1.1090776545e+02   2.3571490538e+01    0.1984609    0.1127531 -88.64 0.0009454958    1.866    0.464
       116  -9.3660    246.3787    207.1879   6.5802697212e+01  -5.8644048796e+00    0.2655367    0.1743574 -35.88 0.0005936935    1.365    0.267
       117  -8.4094    139.0319    208.0118   8.8189548802e+01   1.0203226671e+01     0.226171    0.1756177  69.72 0.0006859584    1.738    0.425
       118 -10.0979    124.2663    206.2081   9.1443035094e+01   1.3029148987e+01    0.3140224    0.2270405  62.21  0.001506477    1.709    0.415
       119  -9.3701     99.5558    206.4376   9.7566295268e+01   1.6918313704e+01    0.4206655    0.2673013  76.62  0.001266861    2.303    0.566
       120  -9.8779    164.2193    203.7292   8.1569110219e+01   6.9156603760e+00    0.4974452    0.3855748  87.57  0.001713236    2.176    0.540
       121  -8.5301     56.1625    205.2743   1.0814591096e+02   2.3306856114e+01    0.2591569    0.1513002  75.49 0.0007022085    2.006    0.502
       122  -8.9540    183.8405    203.9774   7.7281951539e+01   3.6650861689e+00    0.3105081    0.2604977  75.28  0.001077322    1.881    0.468
       123  -9.0450    131.4335    204.1926   8.9364080415e+01   1.2293650708e+01    0.3168937    0.2509027  72.60  0.001192093    1.639    0.390
       124  -8.2111    109.0438    205.0835   9.5007678682e+01   1.5744387940e+01    0.2282523    0.1686625  70.45 0.0005907553    1.664    0.399
       125  -8.0808     92.4072    205.1712   9.9161347560e+01   1.8304565233e+01    0.2021501     0.135502 -80.53 0.0009438372    1.781    0.439
       126  -9.3887    194.9008    203.3794   7.4836630883e+01   2.0325192449e+00     0.359612    0.2476916 -44.81   0.00112049    1.520    0.342
       127  -9.2551    192.4091    197.3897   7.4215032864e+01   3.5543616837e+00    0.3275552    0.2633134 -58.08  0.001209167    1.612    0.380
       128  -9.3292    250.0925    201.8538   6.4194577584e+01  -5.4883773894e+00    0.3675715    0.1522756 -38.77  0.001235487    2.030    0.507
       129  -9.2180    243.0736    200.7782   6.5191029738e+01  -4.4223320780e+00    0.3102998    0.1565445 -40.25  0.000888664    1.767    0.434
       130  -8.1352    228.0000    201.9899   6.8102753095e+01  -2.6000940014e+00    0.2153407   0.06486769 -40.84 0.0008044266    2.956    0.662
       131  -8.3047    222.1100    201.3034   6.9067399834e+01  -1.6563954272e+00    0.2220522    0.1691458 -60.05  0.001026102    2.029    0.507
       132  -8.3069    210.9815    201.9930   7.1332808986e+01  -1.6009223959e-01      0.18929    0.1680126 -68.89 0.0005804618    1.705    0.414
       133  -9.6128    149.7314    199.0687   8.4071753874e+01   1.0327531428e+01    0.5022937    0.3285588 -75.28  0.001777291    2.665    0.625
       134  -8.8929    140.3384    200.9671   8.6653653623e+01   1.1509720216e+01    0.3541286    0.2519439 -89.44  0.001363906    2.352    0.575
       135  -8.5870     79.9091    201.1942   1.0174361876e+02   2.1093163681e+01    0.3553793    0.2067826  77.85   0.00131982    2.498    0.600
       136  -8.6111     48.5441    202.0110   1.0965106185e+02   2.5027475962e+01     0.281583    0.1565842  84.01  0.001268159    2.086    0.521
       137  -8.3366      9.9778    202.7427   1.1877114980e+02   2.8854580972e+01    0.1490669    0.1034966  32.99 0.0005464063    1.566    0.361
       138  -8.9031    124.0115    199.2248   9.0338498737e+01   1.4645137192e+01    0.3423681    0.2391858 -79.69  0.001255808    1.999    0.500
       139  -9.3316    113.0016    198.6127   9.2986291092e+01   1.6605160292e+01    0.4601465    0.2845874  61.47  0.001931746    2.165    0.538
       140  -9.1231     88.7344    198.5253   9.9129283663e+01   2.0440639620e+01    0.4087679    0.2581625  89.80  0.001413666    2.143    0.533
       141  -9.8861     27.1047    199.0266   1.1453015410e+02   2.8117315034e+01    0.3920937    0.2539877 -40.40  0.001623316    2.044    0.511
       142  -9.2950    237.0476    198.2561   6.5771707090e+01  -3.2119952425e+00    0.2918207    0.1619998 -43.58  0.000937632    1.775    0.437
       143  -8.5163    177.0718    198.7618   7.7768762349e+01   5.7857584954e+00    0.2351756    0.1915779 -49.78 0.0005080855    1.375    0.273
       144  -8.2762    202.1490    197.6992   7.2271273472e+01   1.9592548543e+00    0.2269832    0.1776293 -45.49 0.0007456071    1.403    0.287
       145  -9.3447     61.4547    196.9859   1.0586645123e+02   2.4647014810e+01    0.5203305    0.2781768  68.44  0.002133949    2.452    0.592
       146  -8.4657     12.7796    197.0872   1.1772987175e+02   2.9947982736e+01    0.3318205    0.1238628  75.10   0.00120035    3.621    0.724
       147  -9.5588    245.7458    193.7036   6.3412115273e+01  -3.6213008611e+00     0.345881    0.2554508 -67.22  0.001209911    2.724    0.633
       148  -8.2354    133.1751    196.0774   8.7525971878e+01   1.3812271261e+01    0.1991948    0.1757126  74.76 0.0005538643    1.344    0.256
       149  -7.9444     53.9504    196.4837   1.0769973635e+02   2.5722106804e+01    0.2103679   0.08821393  51.42 0.0008094028    2.566    0.610
       150  -8.7327    224.5278    194.1205   6.7248792548e+01  -7.5916435759e-01    0.2592504     0.162627 -45.81 0.0008797529    1.673    0.402
       151  -8.7475    185.1950    194.8814   7.5259311179e+01   5.2121767145e+00    0.2400589    0.2180675 -47.59  0.000712177    1.281    0.219
       152  -8.7697    230.7094    193.9035   6.6077784084e+01  -1.6047599008e+00    0.2597357   0.09691723 -35.46  0.000983175    2.410    0.585
       153  -9.4312     77.0304    193.7802   1.0145665260e+02   2.3314256178e+01    0.2882327    0.2172925  79.89 0.0007611137    1.448    0.309
       154  -9.0270     43.5663    193.0710   1.0992777684e+02   2.7803021825e+01     0.427963    0.2203307  77.23  0.001781192    2.459    0.593
       155  -8.2526    198.9551    191.8900   7.1793216681e+01   3.5519871918e+00    0.1949375    0.1742815 -77.22 0.0005032196    1.621    0.383
       156  -8.9738    160.7823    194.2131   8.0578380728e+01   9.4705102589e+00    0.3085329    0.2323981 -74.49  0.001054418    1.969    0.492
       157  -8.1699    172.6451    192.0705   7.7464380104e+01   7.8831745275e+00    0.2191305    0.1814813 -64.27   0.00100377    1.539    0.350
       158  -9.0964    139.5222    190.6605   8.4978054662e+01   1.3939450094e+01    0.3551796    0.2684815  75.63  0.001169158    1.914    0.478
       159  -7.6775    205.3040    191.6656   7.0467523192e+01   2.5863291643e+00    0.1268353     0.112613 -75.40 0.0003366732    1.663    0.399
       160 -10.5241     92.3328    188.7827   9.6715749178e+01   2.2269025530e+01     1.028584    0.3251687  45.86  0.003174491    3.532    0.717
       161  -8.2803    148.6311    189.4762   8.2541557418e+01   1.2608942244e+01    0.2423922    0.1873206 -75.91 0.0007543486    1.771    0.435
       162  -8.4523    237.1707    188.6294   6.3921441850e+01  -1.6123476040e+00    0.2171346    0.1521463 -38.87   0.00058186    1.314    0.239
       163  -8.9148    216.5086    187.8588   6.7537406968e+01   1.5481390783e+00    0.2697345    0.2076707 -47.14 0.0007320228    1.438    0.305
       164  -9.1825    155.8749    187.4256   8.0418173415e+01   1.1783125671e+01    0.3608695    0.2154486 -56.56 0.0008926204    1.952    0.488
       165  -8.9080    129.2331    188.5797   8.7149106818e+01   1.6206644150e+01    0.3064952    0.2370607  74.01 0.0008678076    1.714    0.417
       166  -9.7100    120.8474    186.5065   8.8901096900e+01   1.8141468504e+01    0.5771357    0.3356204 -76.91  0.002077249    2.966    0.663
       167  -8.7244    215.7888    195.3577   6.9133474700e+01   3.0695339562e-01    0.2920406    0.1684645 -52.64  0.001147234    2.265    0.559
       168  -8.7610    191.3729    187.3496   7.2467441190e+01   5.6685625990e+00    0.2765437    0.2399891 -84.64 0.0009162356    1.707    0.414
       169  -9.1390     54.6830    186.8626   1.0635633633e+02   2.8032804317e+01    0.4620689    0.2487082  72.93   0.00187043    2.487    0.598
       170  -8.2906    230.4520    187.2352   6.4840150178e+01  -4.1714940361e-01    0.1840338    0.1130844 -47.05 0.0009387621    1.725    0.420
       171  -8.7826    164.9549    186.6140   7.8140063288e+01   1.0357490370e+01    0.3268963    0.2455692 -65.65  0.001079338    1.749    0.428
       172  -9.2059    109.6075    186.2970   9.1772697407e+01   2.0094772791e+01    0.4135156    0.2876772  67.75  0.001381062    1.875    0.467
       173  -9.3600    249.3472    185.5361   6.1268352571e+01  -2.7571161626e+00    0.2512463    0.1897181 -47.04  0.001064514    1.513    0.339
       174  -8.7828    210.2031    184.3866   6.8064276283e+01   3.1695784108e+00    0.2455252    0.1688829 -35.19 0.0004796624    1.298    0.229
       175  -8.7277    202.7556    184.6808   6.9595863112e+01   4.3106066694e+00    0.2671829    0.1800263 -48.98 0.0007538545    1.601    0.376
       176  -8.5895    182.8079    184.7634   7.3778306749e+01   7.6345612868e+00    0.2782842    0.1948719 -51.46 0.0007694758    1.570    0.363
       177  -9.1464     66.5435    184.3812   1.0289645677e+02   2.7125325018e+01    0.3908035    0.2492392  70.03  0.001107824    1.867    0.464
       178  -8.8483    224.0257    183.4903   6.5273016010e+01   1.1935010530e+00    0.2454827    0.1667031 -46.24 0.0006135208    1.526    0.344
       179  -8.8328    174.3340    183.5482   7.5399643023e+01   9.3560136853e+00    0.2777473    0.2434811 -74.87 0.0007681408    1.495    0.331
       180  -9.7522     26.4090    180.1110   1.1293757396e+02   3.2864670562e+01    0.8658512    0.3352502  75.41  0.002587116    4.993    0.800
       181  -8.4165    243.3239    183.6452   6.1909422846e+01  -1.6238672799e+00    0.1206495   0.09837192 -59.90 0.0007046458    1.764    0.433
       182  -8.9099     44.4832    182.3262   1.0847897283e+02   3.0398670290e+01    0.3987269    0.2168084  62.62  0.001115152    2.117    0.528
       183  -7.7934      1.7192    183.6049   1.1934122828e+02   3.4118262766e+01    0.1691166    0.1009344  44.32 0.0009439985    1.668    0.401
       184  -9.1498    147.5880    180.6266   8.1068713184e+01   1.4774029370e+01     0.363699    0.2867332  88.89  0.001204342    1.826    0.452
       185  -8.1191     90.9903    181.5014   9.5894050382e+01   2.4290450271e+01    0.2307941    0.1476826  31.05  0.001033291    1.604    0.377
       186  -8.5297    240.4895    180.0114   6.1686273762e+01  -6.0903257823e-01    0.2066406      0.10838 -37.57  0.001032095    1.589    0.371
       187  -8.7519    137.5680    179.3041   8.3287093943e+01   1.6887172121e+01    0.3151047    0.2396243  84.55 0.0009376942    1.918    0.479
       188  -8.6104    250.5690    172.6846   5.8608056613e+01  -7.8143169013e-01    0.2259812    0.1551898 -37.86 0.0004507947    1.222    0.182
       189  -9.3545    248.9223    177.3642   5.9775532799e+01  -1.3399323331e+00     0.303354    0.2299972 -51.39  0.001185889    1.582    0.368
       190  -8.6985    247.2989    173.6871   5.9328052651e+01  -4.9344953162e-01    0.2073981    0.1346967 -42.17 0.0002791852    1.385    0.278
       191  -9.2157    191.4928    178.3407   7.0622217711e+01   7.4351146752e+00    0.2843851    0.2627928 -81.10  0.000534985    1.429    0.300
       192  -8.0669    169.6481    178.6963   7.5471503859e+01   1.1211987878e+01    0.2759136    0.1829146 -67.82 0.0009906536    2.341    0.573
       193  -8.9785     35.8576    176.7012   1.1010601091e+02   3.2779887569e+01    0.5233118      0.23247  76.28  0.001781444    3.666    0.727
       194  -8.6847    231.2078    176.9399   6.2687243162e+01   1.2806970647e+00    0.2735516    0.1550001 -46.91 0.0008557335    1.779    0.438
       195  -8.7826    205.0780    177.6482   6.7713120529e+01   5.2760912452e+00     0.251347    0.1773713 -46.52 0.0006651004    1.439    0.305
       196  -8.6223    129.1514    177.2649   8.5025927502e+01   1.8880211544e+01    0.2819203     0.203607 -86.01 0.0007624248    2.040    0.510
       197  -8.8297     34.2942    188.0812   1.1173663364e+02   3.0065657617e+01    0.3500001    0.1780551  74.79  0.001084795    2.366    0.577
       198  -8.8398     89.0431    177.1255   9.5691793395e+01   2.5698375688e+01    0.3237492    0.2233333  74.25 0.0008894689    1.863    0.463
       199  -8.3677    217.6268    177.1663   6.5198898659e+01   3.3334279008e+00     0.207257    0.1565316 -48.00 0.0005649955    1.419    0.295
       200  -9.2752    183.0882    175.9611   7.1922004806e+01   9.3861932322e+00    0.3556953    0.2256663 -51.80 0.0006298767    1.716    0.417
       201  -9.4989    104.4116    174.8238   9.1102239076e+01   2.3788780251e+01    0.6319182    0.3388794  60.70  0.001872404    2.959    0.662
       202  -8.3101     98.0034    177.4933   9.3317133931e+01   2.4179384243e+01    0.2308885    0.1501944  30.86 0.0006038635    1.583    0.368
       203 -10.0294     57.1927    173.1192   1.0385568092e+02   3.1239284342e+01    0.8769476    0.4159228  80.94  0.002608949    4.542    0.780
       204  -8.6447     12.8482    176.6174   1.1606559558e+02   3.4960120881e+01    0.3322234    0.1435578  62.26  0.001387955    2.668    0.625
       205  -7.5542    211.6789    176.3319   6.6158154712e+01   4.4437183832e+00    0.1314753    0.1117745 -72.78 0.0006642913    1.698    0.411
       206  -9.2542    158.9566    175.2043   7.7235112465e+01   1.3914689688e+01    0.4090478    0.2950158  76.26  0.001218323    2.340    0.573
       207 -10.8668     75.7835    169.7459   9.8140359480e+01   2.9590413140e+01     1.436396    0.5465378 -73.54  0.003908177    4.693    0.787
       208  -8.6456     79.2765    158.5567   9.5198712072e+01   3.1987194106e+01    0.3170903     0.208767  16.00  0.001162983    1.893    0.472
       209  -9.5878     81.8124    154.9096   9.3776546679e+01   3.2552714850e+01    0.5865583    0.4196019 -75.44  0.002233845    1.542    0.351
       210  -8.4672    224.5180    173.8157   6.3256514458e+01   2.8645955551e+00    0.2601327    0.1163044 -37.61 0.0007609342    1.954    0.488
       211  -9.5103    175.7641    172.2256   7.2751267095e+01   1.1482292188e+01    0.3683225    0.2404559 -45.50  0.001047597    1.493    0.330
       212  -8.7217    143.1166    172.6571   8.0561017871e+01   1.7416002274e+01    0.2657039    0.2110877 -62.28 0.0006398981    1.413    0.292
       213  -8.6565    134.8220    171.7173   8.2464591055e+01   1.9166269907e+01    0.2832848    0.2068223 -84.83  0.001201128    2.029    0.507
       214  -9.4434    121.3693    170.4039   8.5705464705e+01   2.1929791642e+01    0.3965073    0.2905039 -87.89 0.0009679243    1.923    0.480
       215  -9.2031     45.0011    170.7140   1.0690127535e+02   3.3325601003e+01    0.4349824    0.2383827  84.03  0.001693088    2.318    0.569
       216  -8.5646    237.2316    169.4744   6.0166297851e+01   1.6971579880e+00    0.2451031    0.1573862 -37.42  0.000671678    1.304    0.233
       217  -9.1696    230.3895    168.9600   6.1236972355e+01   2.8308329157e+00    0.4705862    0.2119446 -49.16  0.001964635    2.430    0.588
       218  -8.3197    205.6900    170.1863   6.6057872266e+01   6.6138989375e+00    0.2165468    0.1640234 -50.72 0.0005041735    1.427    0.299
       219  -8.4295    198.3246    170.0398   6.7494497404e+01   7.9077958460e+00    0.2087432    0.1680811 -39.63 0.0006723441    1.173    0.147
       220  -9.2287    167.0897    168.6064   7.3951161432e+01   1.3859523210e+01    0.3857848    0.2764386  70.73  0.001118158    2.234    0.552
       221  -8.6963    149.9211    169.4967   7.8221862699e+01   1.6876043779e+01    0.2849202     0.219765 -68.34 0.0008213393    1.605    0.377
       222  -8.6648    244.4729    169.1480   5.8901040624e+01   6.8639095116e-01    0.1951537    0.1725797 -52.55 0.0007874104    1.391    0.281
       223  -8.8111    111.7859    167.4774   8.7701738034e+01   2.4355056295e+01    0.4356652    0.2876659  80.14  0.001495881    2.509    0.602
       224  -8.4529     88.8058    168.7644   9.4308993672e+01   2.7870250500e+01    0.2820833    0.1930017  85.01 0.0007728842    1.965    0.491
       225  -8.1742    218.9180    168.3388   6.3164530583e+01   4.7659362217e+00    0.1888656    0.1678002 -14.80 0.0005916505    1.068    0.064
       226  -8.0862    211.4622    167.9842   6.4486140991e+01   6.0642355446e+00    0.2178031      0.12513 -41.35 0.0004307459    1.561    0.359
       227  -8.9140    191.9198    166.6462   6.8092610167e+01   9.7194698204e+00    0.2764669    0.2020141 -48.05    0.0007081    1.381    0.276
       228  -8.8621    185.0350    166.4878   6.9510413842e+01   1.0996201390e+01    0.2795568    0.1990185 -56.02 0.0006785876    1.612    0.380
       229  -8.3963     13.3272    167.6731   1.1513049881e+02   3.7175195795e+01    0.1407591   0.08512183  66.36 0.0007050249    1.700    0.412
       230  -9.8820    136.8117    164.4530   8.0446142640e+01   2.0517371692e+01    0.6574476    0.3445378  55.47  0.002191216    2.743    0.635
       231 -10.1415     95.0352    162.8387   9.1459031514e+01   2.8386898377e+01    0.9158489    0.5320298  77.16  0.002959387    3.572    0.720
       232  -9.0564     20.4192    165.8620   1.1305841851e+02   3.7043314570e+01    0.3731865    0.2055746  65.74  0.001611246    2.020    0.505
       233  -8.2427    234.0026    165.0094   5.9819414131e+01   2.9806539333e+00    0.1965714    0.1527467 -58.50 0.0005668818    1.619    0.382
       234  -8.4782    159.5426    164.3232   7.4797637307e+01   1.6228538272e+01    0.2617656     0.214882 -66.38 0.0006865378    1.448    0.310
       235  -9.4358     33.6025    163.5152   1.0916090530e+02   3.6416751553e+01    0.5787014    0.2243876  50.91   0.00213518    3.104    0.678
       236  -8.3040    240.1239    163.9216   5.8578003046e+01   2.2389971443e+00    0.2003836    0.1595764 -45.91 0.0007014126    1.283    0.221
       237  -8.5518    213.1309    163.7003   6.3279306927e+01   6.6013480739e+00    0.2461332    0.1728155 -47.82 0.0007441193    1.424    0.298
       238  -8.4226     56.6325    163.8713   1.0266292091e+02   3.3723298848e+01    0.3631715    0.2049287  -3.64  0.001306178    3.410    0.707
       239  -8.7352    246.1152    162.9505   5.7415621768e+01   1.5156760842e+00     0.195772    0.1547471 -47.64  0.000631989    1.326    0.246
       240  -8.2848    204.9996    162.9665   6.4679701401e+01   8.1399860242e+00    0.2094065     0.173067 -69.12  0.000409151    1.607    0.378
       241  -9.2289      3.4571    162.4158   1.1725164439e+02   3.9244347268e+01    0.3966843    0.1864056  56.35  0.001536332    2.308    0.567
       242  -9.3208    177.3787    160.6824   6.9920152286e+01   1.3638049307e+01    0.3238585    0.2636654 -63.58 0.0008157263    1.466    0.318
       243  -8.6483    151.6421    160.8479   7.5947218326e+01   1.8528855038e+01    0.2835441    0.2315103 -79.46  0.000680927    1.588    0.370
       244  -8.9124     60.6957    160.3378   1.0093753334e+02   3.4132098449e+01    0.3814676    0.2327284  72.57  0.001504008    2.208    0.547
       245  -8.6720    227.4650    159.0688   5.9731587521e+01   5.0918677429e+00    0.3050418    0.1912701 -56.18  0.001050916    1.986    0.496
       246  -9.8165    250.1702    157.7969   5.5763755924e+01   1.8063995124e+00    0.3403231    0.1647399 -42.04 0.0008560932    1.705    0.413
       247  -9.3969    246.7462    155.6344   5.5865573043e+01   2.6882599214e+00    0.4820549    0.1953081 -28.09  0.001761293    3.355    0.702
       248  -8.8638    237.0964    158.8526   5.8058507124e+01   3.5996834999e+00    0.2009583    0.1649078 -49.44 0.0006024151    1.301    0.231
       249  -8.4068    128.2331    159.0819   8.1540433356e+01   2.3423476853e+01    0.2897372    0.2038273  66.78 0.0008580025    1.965    0.491
       250  -9.6135    106.0722    158.0809   8.7397680611e+01   2.7719741057e+01     0.580192    0.3552937  59.93  0.001876475    2.216    0.549
       251  -8.5445    196.4576    157.8319   6.5273331642e+01   1.0684366725e+01    0.2568109    0.2260852 -79.42 0.0007351295    1.471    0.320
       252  -8.4448    188.0885    157.7066   6.6966187792e+01   1.2253096006e+01    0.2573018    0.1924582 -50.35 0.0005819456    1.367    0.268
       253  -9.2269    167.5806    157.2439   7.1368559035e+01   1.6255692500e+01    0.3426507    0.2759633 -87.50  0.001093858    1.754    0.430
       254  -8.7255    218.0098    156.5299   6.0877258565e+01   7.1361653422e+00    0.2742573    0.1741989 -52.16 0.0007624468    1.699    0.411
       255  -8.8373    157.6331    155.6557   7.3348364444e+01   1.8546450336e+01       0.3575    0.2301533 -48.75  0.001037994    1.535    0.349
       256  -9.2491    119.4233    155.1396   8.3067864490e+01   2.6039343959e+01    0.4370076    0.3046298 -82.22  0.001583346    2.105    0.525
       257  -9.3990     49.7116    154.9652   1.0332690593e+02   3.6909776852e+01    0.4811696    0.2757362  71.32  0.001947928    2.419    0.587
       258  -9.2038    242.8427    154.8806   5.6328269512e+01   3.4133044730e+00    0.2527772    0.1899199 -78.45 0.0003809105    2.273    0.560
       259  -8.0492    204.5430    155.1170   6.3092186890e+01   9.7632052588e+00    0.2215446    0.1296259 -42.92  0.001009667    1.549    0.354
       260  -8.7921    144.6003    154.6474   7.6326855318e+01   2.1331477063e+01    0.3068413     0.243049 -70.39 0.0007964479    1.530    0.346
       261  -9.7144    132.7791    153.0652   7.9021552719e+01   2.4008451303e+01    0.4939369    0.3964984  84.30  0.001271854    1.646    0.393
       262  -9.3520    133.3335    148.3460   7.7811488106e+01   2.5032736812e+01    0.3505374    0.2477474 -23.09  0.001266637    1.738    0.425
       263  -9.4226     68.1736    153.9698   9.7657176181e+01   3.4801990595e+01    0.4252928    0.2901143  72.51   0.00118824    1.863    0.463
       264  -8.3226    232.9597    153.9681   5.7749122606e+01   5.1320470753e+00    0.2051521    0.1562992 -62.92 0.0006418414    1.693    0.409
       265  -8.7703    151.7928    152.5811   7.4072795729e+01   2.0395056699e+01    0.2561095    0.1864618 -51.78 0.0006401745    1.391    0.281
       266  -9.4169     20.1979    152.6683   1.1166168532e+02   4.0467453151e+01    0.2629918    0.1763554  63.32 0.0008059388    1.605    0.377
       267  -9.5374     29.4322    150.6758   1.0872405022e+02   4.0173877451e+01    0.5222946     0.252106  67.99  0.001961282    3.078    0.675
       268  -8.6751      3.0302    150.7105   1.1630781998e+02   4.2235166463e+01    0.4049759    0.1620644 -80.02  0.001731597    2.210    0.547
       269  -9.6103    248.8269    149.3640   5.4297070650e+01   3.4594598472e+00    0.3352948    0.1760056 -40.42 0.0007821678    1.542    0.352
       270  -8.7670    189.2631    150.1569   6.5055645808e+01   1.3591939965e+01    0.3099596    0.2154516 -51.00 0.0008851027    1.465    0.317
       271  -8.3319    182.1124    151.0950   6.6769145090e+01   1.4767722156e+01    0.2310903    0.1846833 -75.73 0.0008979418    1.683    0.406
       272  -8.2976    162.4893    150.5125   7.1037098442e+01   1.8742902598e+01    0.2643442    0.1460133 -55.68 0.0005917009    2.091    0.522
       273  -8.7913     98.3222    150.6889   8.8087623299e+01   3.0949895466e+01    0.3230408    0.2467257  78.35 0.0008590055    1.682    0.405
       274  -9.4239    243.0319    149.8912   5.5293690200e+01   4.2606778858e+00    0.2487012    0.1590532 -39.75 0.0008098604    1.286    0.222
       275  -9.4381    237.8621    149.9380   5.6122073840e+01   5.0691902024e+00    0.3102946    0.2005147  32.28  0.001418371    1.887    0.470
       276  -9.3303    233.5242    147.4310   5.6309142064e+01   6.2230111842e+00    0.3085194    0.1843187 -41.95  0.001040711    1.420    0.296
       277  -8.0693    212.7970    149.9733   6.0432731949e+01   9.2923655552e+00     0.198098    0.1676305 -32.23 0.0004014485    1.034    0.033
       278  -9.8471     39.8710    147.8575   1.0520225781e+02   3.9881026534e+01    0.5905267    0.2980619  63.45  0.002236956    2.910    0.656
       279  -8.3980    198.8320    149.0300   6.2877781270e+01   1.2017821642e+01    0.2233442    0.1886369 -63.81 0.0007172287    1.382    0.276
       280  -8.9507    116.8951    149.0766   8.2440476867e+01   2.8013060701e+01     0.230929    0.2229625 -19.87 0.0003263959    1.034    0.033
       281 -10.1631     89.3049    146.2923   8.9834465191e+01   3.3599275918e+01    0.7272267    0.4310213 -87.99  0.002439208    3.218    0.689
       282 -10.3285    148.9648    144.7914   7.2981856799e+01   2.2750205217e+01    0.6398047    0.4326384 -77.75  0.001537031    2.456    0.593
       283 -10.3825     54.9511    144.8205   1.0008002273e+02   3.8958517987e+01    0.8714479    0.4677733  72.57  0.002561665    3.357    0.702
       284 -10.0348     57.2525    135.0916   9.7580198215e+01   4.1232506863e+01    0.4925067    0.2839747   3.70   0.00193002    2.653    0.623
       285  -8.2381    223.2822    146.9377   5.7922833860e+01   8.0359586773e+00    0.1981583    0.1550149 -35.84   0.00037074    1.095    0.087
       286  -9.8715    139.0296    145.0062   7.5552228064e+01   2.4698209565e+01    0.5581114    0.3469178 -66.46  0.001706711    2.226    0.551
       287  -8.8993    140.0631    136.9464   7.3376625590e+01   2.6379242150e+01    0.4666946    0.2576585 -25.49  0.001557668    2.872    0.652
       288 -10.4036    106.8261    143.9404   8.4157121598e+01   3.1158667457e+01    0.8753337    0.6183735 -72.30  0.002593149    1.735    0.424
       289  -8.8412     78.1424    146.9424   9.3337224862e+01   3.5196937388e+01    0.3260795    0.2121945  72.13  0.001146442    2.227    0.551
       290  -9.5198     13.5141    146.5079   1.1288623981e+02   4.2586700664e+01    0.3587562    0.2027174  59.03  0.001208356    2.025    0.506
       291 -10.3897    241.5344    143.8557   5.4302117893e+01   5.5617779885e+00    0.5442106    0.3091257 -17.40  0.002345185    2.705    0.630
       292  -7.7306    206.6950    146.3261   6.0773797896e+01   1.1100545620e+01    0.1413296    0.1115671 -69.94  0.000703442    1.646    0.393
       293  -8.2052    175.3361    146.0396   6.7095036534e+01   1.7169176432e+01    0.2214082    0.1845023 -44.45 0.0004238827    1.148    0.129
       294  -9.7189    124.9071    142.5357   7.8738572606e+01   2.8085683402e+01    0.5542685    0.3695464 -78.93  0.001524584    2.397    0.583
       295  -9.2436    247.0474    143.8363   5.3458225835e+01   4.6925410118e+00    0.2606626    0.1615733 -39.56 0.0004892208    1.308    0.236
       296  -8.2241    250.5343    140.7800   5.2329496234e+01   4.6785765030e+00    0.1956497    0.1720138 -54.01  0.000829034    1.239    0.193
       297  -7.8121    194.4728    143.9656   6.2614078010e+01   1.3863168822e+01    0.1994537    0.1236631 -62.80 0.0005633067    2.284    0.562
       298  -8.6693    165.5401    144.0146   6.8833168878e+01   1.9571251594e+01    0.2696565    0.2200311  65.40 0.0007930952    1.492    0.330
       299 -11.0357     69.3390    139.6369   9.4615151271e+01   3.8407736359e+01    0.9766624    0.5287684 -66.43   0.00320144    1.934    0.483
       300  -9.3106      2.9577    141.8089   1.1544931645e+02   4.4504856272e+01    0.4403568    0.2103626  65.46   0.00156766    2.604    0.616
       301  -8.4789    182.1200    141.7011   6.4635417896e+01   1.6742467657e+01    0.2600686    0.1968866 -53.88 0.0005742193    1.370    0.270
       302  -8.2795    134.1335    140.1487   7.5693030484e+01   2.6829223466e+01    0.2210972    0.1906929 -75.73 0.0005353956    1.338    0.253
       303  -9.8516     23.6221    138.2840   1.0881176564e+02   4.3926323966e+01    0.5528044    0.2787586  60.45  0.002049857    2.676    0.626
       304  -8.6543    172.4189    138.2567   6.5933680022e+01   1.9427242566e+01    0.3085947    0.2295152 -74.05 0.0008594719    1.851    0.460
       305  -7.6891    218.5507    138.5310   5.6941116739e+01   1.0445265463e+01    0.1418644    0.1225641 -40.56 0.0001593784    1.043    0.041
       306  -8.2467    207.7735    138.0624   5.8755227403e+01   1.2513763516e+01     0.220986     0.180033 -61.02 0.0008534178    1.362    0.266
       307  -8.6660    197.4101    137.5119   6.0582896169e+01   1.4597569209e+01    0.2695647    0.2064852 -46.67 0.0005611923    1.224    0.183
       308  -8.4191    162.8224    136.3554   6.7656685882e+01   2.1812312480e+01    0.2657557    0.2079158 -56.98 0.0007567172    1.354    0.261
       309  -8.8944    150.4848    136.2569   7.0581469600e+01   2.4390318287e+01    0.3838754    0.2435161   3.91  0.001309141    3.071    0.674
       310  -8.8655    250.8005    129.9183   5.0113871088e+01   6.5025490913e+00    0.4266059   0.09955652 -39.86  0.001429536    3.522    0.716
       311  -9.1452    248.2791    135.2068   5.1537742609e+01   5.9953681912e+00    0.2854729    0.1762618 -42.44 0.0007644689    1.319    0.242
       312  -8.5043    246.8736    130.1628   5.0719053786e+01   7.0950390418e+00    0.2367885    0.1541465 -41.79 0.0006162754    1.248    0.199
       313  -7.9296    187.8260    135.7836   6.2088057191e+01   1.6833927766e+01     0.206209    0.1702459 -63.18 0.0005811719    1.350    0.259
       314 -10.5363     83.4390    132.8417   8.8738873021e+01   3.8025237664e+01    0.6237273    0.3945482 -70.37   0.00135349    1.891    0.471
       315  -9.5000     38.9920    135.8786   1.0359800762e+02   4.3125973201e+01    0.2858529    0.2176927  88.60 0.0008338347    1.412    0.292
       316  -8.0920    125.6403    135.6725   7.6912566395e+01   2.9599194728e+01    0.1698657    0.1262985  -8.77  0.000323208    1.788    0.441
       317  -8.1693    237.5811    133.3524   5.2748750690e+01   8.0762343228e+00    0.2533869    0.1087498 -44.33 0.0008990395    1.974    0.494
       318  -7.5772    231.3202    134.2760   5.3916869437e+01   8.9793285518e+00    0.1303866    0.1006638  -8.52 0.0002313702    1.575    0.365
       319  -8.4875    179.3706    133.8923   6.3401258994e+01   1.8934260092e+01    0.2839116    0.2192275 -66.87 0.0008552527    1.557    0.358
       320  -9.3688    112.7257    133.1678   7.9949144059e+01   3.2736237837e+01    0.3779704    0.3037668  81.28  0.001142909    1.609    0.379
       321  -9.9576    132.1514    131.2804   7.4075473863e+01   2.9326329641e+01    0.5081481    0.3448171 -74.39  0.001125852    2.201    0.546
       322 -10.4437     98.0857    130.2078   8.3589277591e+01   3.6191571444e+01    0.7184224    0.3557402 -53.70  0.001665864    1.982    0.496
       323 -10.0440     73.3366    128.9582   9.1106616132e+01   4.0599560636e+01    0.5135326    0.3366392 -81.67  0.001718467    2.097    0.523
       324 -10.0929     12.8922    128.7494   1.1089381795e+02   4.7209127883e+01    0.6143165    0.3191812  83.29  0.002275628    2.434    0.589
       325  -7.9335    204.7645    130.5419   5.7624720791e+01   1.4549208217e+01    0.1808101    0.1425654  66.45 0.0005197775    1.570    0.363
       326  -8.1779    192.7068    130.1504   5.9812235222e+01   1.7001386775e+01    0.2367434    0.1733463 -56.74 0.0006308474    1.449    0.310
       327  -9.1505    168.3544    129.4636   6.4739858936e+01   2.2155106929e+01    0.3110118    0.2486047 -71.10 0.0005413126    1.510    0.338
       328  -9.3349    152.9145    128.5934   6.8116828592e+01   2.5603508229e+01    0.5249324    0.2543499 -50.95  0.001562979    2.155    0.536
       329  -8.0016      1.5128    130.4789   1.1466530096e+02   4.7470909573e+01    0.1316667     0.108105 -76.41 0.0001194033    1.048    0.046
       330  -7.7786    220.5180    129.5812   5.4666282323e+01   1.1764833351e+01     0.139504    0.1221291 -39.86 0.0001653481    1.013    0.013
       331  -8.0481    211.5145    129.0164   5.6077046653e+01   1.3550040107e+01    0.1994835    0.1121756 -59.45 0.0008071947    2.347    0.574
       332 -10.4644     59.9689    125.0976   9.4681256581e+01   4.3483337772e+01    0.7639254    0.4592364  83.52  0.002312759    3.001    0.667
       333 -10.8616     44.7437    123.1692   9.9431380876e+01   4.5830376726e+01     1.228745    0.6576305  78.37  0.004019944    4.061    0.754
       334  -9.8902    117.8580    125.2440   7.6521203411e+01   3.3651030160e+01    0.5618035    0.3841681  75.74  0.001285148    2.407    0.584
       335 -10.2883     28.8552    122.6091   1.0472155699e+02   4.7550055883e+01    0.7634225    0.3893614  69.13  0.002773413    3.520    0.716
       336  -8.1339    228.3976    125.2252   5.2455021647e+01   1.1134954045e+01    0.2007049     0.110609 -48.63 0.0006788705    1.660    0.397
       337  -8.8625    179.1442    124.6594   6.1251457468e+01   2.0900897934e+01     0.299495    0.2234802 -68.98 0.0008433247    1.665    0.399
       338  -7.9040    243.7929    124.0390   4.9908314417e+01   8.6670110750e+00    0.1806992    0.0884084 -41.31  0.000504931    1.670    0.401
       339  -8.4828    234.4071    123.7980   5.1230593740e+01   1.0323648898e+01    0.2011638    0.1128802 -32.77 0.0009547297    1.720    0.418
       340  -7.8678    188.5306    124.0498   5.9204351999e+01   1.9075529443e+01    0.2277673    0.1376411 -44.04 0.0005934905    1.528    0.345
       341  -8.7635     84.8276    122.7724   8.5965014944e+01   4.0353061510e+01    0.4919307    0.2907906   7.01  0.001748023    2.865    0.651
       342  -9.4545    158.8896    121.7512   6.4994605455e+01   2.5825532943e+01    0.3975433    0.2833993 -78.05  0.001184401    2.073    0.518
       343  -9.2327    143.0260    131.6255   7.1320764454e+01   2.6996929735e+01    0.3109356    0.2485426 -70.12 0.0005500084    1.488    0.328
       344  -9.7876     71.1302    119.7499   8.9750791445e+01   4.3280526906e+01    0.3584681    0.2816783 -84.98  0.001110401    1.571    0.364
       345  -9.9323    141.5298    118.4241   6.8368522114e+01   3.0296569401e+01    0.4878801    0.3107527 -63.53  0.001112169    2.052    0.513
       346 -10.0998    130.6656    118.2450   7.1166260222e+01   3.2652242562e+01    0.5527424    0.3184676 -63.22  0.001429422    2.455    0.593
       347  -9.7061      2.8984    117.0819   1.1260453904e+02   5.0781787451e+01    0.5021966    0.2481863  71.03  0.002119482    2.917    0.657
       348  -7.7190    231.4839    117.4994   5.0332980053e+01   1.1964000159e+01    0.1378049    0.1148987 -48.68 0.0008098085    1.058    0.054
       349  -9.0329     58.4636    115.8939   9.3187916441e+01   4.6036223604e+01    0.3766412    0.2280683 -14.96   0.00151569    2.404    0.584
       350  -8.3525    185.5733    115.9852   5.7860368867e+01   2.1303217883e+01    0.2295176    0.1376117 -42.62 0.0004413166    1.548    0.354
       351  -9.9689    109.4582    114.2470   7.6128197923e+01   3.7922593337e+01    0.5518363     0.369778 -74.83  0.001449551    2.306    0.566
       352  -9.0842    110.0091    107.0995   7.4032960221e+01   3.9462982930e+01    0.4521878    0.2589014  17.97  0.001533752    2.974    0.664
       353  -8.6828    250.1809    115.0584   4.7202754032e+01   9.1316046863e+00    0.1933113    0.1564686 -28.31 0.0007823228    1.264    0.209
       354  -8.1935    192.8878    115.1416   5.6257490369e+01   1.9935229345e+01     0.226568    0.1846487 -60.26 0.0004741811    1.257    0.205
       355  -8.5850    172.0130    121.5291   6.2001638071e+01   2.3057352464e+01    0.2794057    0.2019744 -56.28 0.0004234443    1.461    0.315
       356 -10.3587     92.9592    111.3400   8.0462611294e+01   4.1740782226e+01     1.025576    0.4338805 -48.22  0.002225976    2.257    0.557
       357 -10.0042     78.9457    112.5928   8.5387221845e+01   4.3846526594e+01    0.5452721      0.39899  82.42  0.001739232    2.070    0.517
       358  -8.4211    167.2355    114.3973   6.1263927453e+01   2.5567577586e+01    0.2077385     0.190574 -32.26 0.0005697038    1.083    0.076
       359  -8.6979     26.8931    113.6868   1.0384440068e+02   5.0004331880e+01    0.2179026    0.1587346 -26.24  0.000920429    1.465    0.317
       360  -8.8237    174.8697    112.0214   5.9045547429e+01   2.4389845566e+01    0.3265329    0.2030858 -60.50 0.0009292248    1.963    0.490
       361 -10.6170    133.7647    109.1635   6.7930504399e+01   3.4015007810e+01     0.743849    0.3174533 -48.14  0.002150913    2.388    0.581
       362  -9.8788    121.8773    112.5139   7.2067490232e+01   3.5798484474e+01    0.3643441    0.2977951  84.01 0.0007979452    1.583    0.368
       363 -10.7811    248.7290    107.6903   4.5900115021e+01   1.0614343328e+01     0.589902    0.2535096 -38.23  0.002700452    1.989    0.497
       364  -9.0073    159.1141    111.7134   6.2390537879e+01   2.7904988217e+01      0.26273    0.2037976 -55.16 0.0004576071    1.325    0.245
       365 -10.4319     66.4823    109.6449   8.8918039336e+01   4.6489210106e+01    0.7186614    0.3620861 -55.85    0.0025906    1.894    0.472
       366 -10.0433     14.2529    111.2209   1.0787623314e+02   5.1580695059e+01    0.4086783    0.2430694  66.25   0.00153578    2.316    0.568
       367  -7.9925    182.6835    109.3292   5.6806631862e+01   2.3232489968e+01     0.254401    0.1432016 -46.46 0.0004026844    1.683    0.406
       368  -8.4442    180.9847    107.0000   5.6565409501e+01   2.4055295533e+01    0.2849618    0.2476476  13.81  0.001489391    1.384    0.277
       369  -8.8664     42.8666    109.3210   9.7264201130e+01   4.9569132840e+01      0.34579    0.1392226  11.15  0.001097834    4.220    0.763
       370  -8.2881    189.3878    107.7574   5.5142863939e+01   2.2099202532e+01    0.2900986    0.1281707 -45.44  0.000905346    2.116    0.527
       371  -9.2960    139.9721    104.7362   6.5132248019e+01   3.3606842095e+01    0.3801324    0.2786116 -77.81 0.0008614439    1.923    0.480
       372 -10.0153    119.2199    105.8654   7.1008954330e+01   3.7846648928e+01    0.3621114    0.2761278 -18.49  0.000970252    1.556    0.357
       373  -9.1013    107.7765     92.4667   7.0531741752e+01   4.3133530070e+01     0.491684     0.277146  25.05  0.001829363    2.448    0.591
       374  -9.2968    115.9933    102.9999   7.1136476133e+01   3.9154673717e+01    0.2937838    0.2310887  40.67  0.001122759    1.285    0.222
       375 -10.2331    108.8035     98.7552   7.2051174562e+01   4.1569445996e+01    0.6240856    0.4359856  79.69  0.001231644    2.466    0.594
       376  -8.9586     78.6673    105.1025   8.3535887525e+01   4.5703357485e+01    0.4005153    0.2685995   4.89   0.00143926    2.000    0.500
       377 -10.4650     45.5301    102.1644   9.4677765042e+01   5.1048905880e+01    0.7684318    0.4717692  74.85  0.002965977    3.186    0.686
       378  -9.3622     46.1961     92.3996   9.2026617953e+01   5.3321843600e+01    0.4875856    0.2668476  -0.22  0.001956289    2.692    0.628
       379 -10.6137     22.8619    102.5718   1.0323311458e+02   5.3120881456e+01    0.7402495    0.4262872  75.18  0.002738131    2.942    0.660
       380  -8.5008    166.8026    104.2517   5.8771911453e+01   2.7721167852e+01    0.2632951    0.1958842 -55.12 0.0006848419    1.379    0.275
       381  -9.4740    150.4574    102.9898   6.2104009575e+01   3.1634448035e+01    0.4191764     0.281497 -63.17 0.0009835307    1.855    0.461
       382 -10.2800    128.4831    102.1009   6.7400319440e+01   3.6688232425e+01    0.4213037    0.3030856 -60.79 0.0009282687    1.624    0.384
       383  -8.7992      6.8570    102.9706   1.0919469757e+02   5.4085551336e+01    0.2699224    0.1840673  59.03  0.001318785    1.870    0.465
       384  -8.0338    175.4486    102.2063   5.6463598171e+01   2.6201862269e+01    0.2111136     0.133734 -53.06 0.0005177808    1.624    0.384
       385  -8.2314    159.8846    101.0783   5.9445268447e+01   2.9902542073e+01    0.2344475    0.2000279 -72.45 0.0004810755    1.287    0.223
       386  -9.2691     82.0202     99.8639   8.0964517690e+01   4.6371248294e+01    0.3999707    0.2866111 -76.33 0.0009108081    2.032    0.508
       387  -9.3694     95.0463     97.0279   7.5836608892e+01   4.4661794777e+01     0.332015    0.2439958 -59.39 0.0006344312    1.552    0.356
       388 -10.3029     63.8839     95.7864   8.6255848241e+01   5.0199293848e+01    0.5931561    0.4110482 -84.69  0.001762666    2.393    0.582
       389  -9.4245     64.8940     87.6934   8.3605356890e+01   5.1903696938e+01    0.6666985    0.3195318  13.17  0.002124744    3.957    0.747
       390  -8.4779    150.8236     95.7643   6.0066456353e+01   3.3007236067e+01    0.2666846    0.1757449   6.99 0.0009682512    2.897    0.655
       391 -10.8469    246.6183     93.8425   4.3349343833e+01   1.3266337050e+01    0.3890653    0.2751645 -30.38  0.002259198    1.504    0.335
       392  -9.5796    120.6155     93.2042   6.7025279202e+01   4.0267865737e+01    0.3251648    0.2468438 -41.87  0.001545613    1.315    0.240
       393  -9.8632    124.4504     90.8349   6.5280942833e+01   3.9917320314e+01    0.4232142    0.3421943 -76.20 0.0008988149    1.565    0.361
       394  -8.2547    176.3798     93.1657   5.3983096319e+01   2.7710142339e+01    0.2181792    0.1271022 -51.13 0.0005628809    1.742    0.426
       395  -9.8003    138.9921     91.6470   6.1748512739e+01   3.6506625391e+01    0.5106054    0.2925122 -43.85  0.001425481    1.742    0.426
       396  -9.3280     22.6498     90.2680   1.0078524334e+02   5.6129699458e+01    0.4122635    0.2075267 -35.95  0.001671355    1.918    0.479
       397  -8.3109    157.8097     91.5619   5.7361565987e+01   3.2230177384e+01    0.2468897    0.1737693 -46.11 0.0005402352    1.398    0.285
       398  -9.6594     34.8825     89.9501   9.5847307098e+01   5.5122508997e+01    0.4825709    0.2848889 -77.61  0.001533784    2.423    0.587
       399  -9.5542      4.9286     91.8364   1.0805329329e+02   5.6897282407e+01    0.2943568    0.2219989  59.46  0.001147562    1.707    0.414
       400  -8.2232    151.3391     89.1287   5.8129765940e+01   3.4177606605e+01    0.2203723    0.1328133 -50.22 0.0003038162    1.735    0.423
       401 -10.4696     86.7813     85.6569   7.5190515467e+01   4.8679597547e+01    0.7949693    0.5092838 -38.60  0.001565477    1.538    0.350
       402  -9.8826     48.3893     83.6918   8.8821913680e+01   5.5067557353e+01     0.611899    0.4177967 -78.23  0.001971213    2.271    0.560
       403  -9.6882    104.7431     82.9748   6.8586393705e+01   4.5714852239e+01    0.4722072    0.3270345 -65.08  0.001012938    2.021    0.505
       404  -9.0390    105.9497     76.8166   6.6299319133e+01   4.6667986601e+01      0.47342    0.1876162  33.42  0.001440177    3.650    0.726
       405  -8.2690    157.9962     83.9838   5.5264434080e+01   3.3602020410e+01    0.2252264    0.2092379 -66.53 0.0003658648    1.068    0.064
       406  -9.0881    140.9564     82.9622   5.8796957959e+01   3.7728620196e+01    0.3366259    0.2126565 -49.60 0.0006720718    1.670    0.401
       407  -8.5727    127.6220     83.7745   6.2360963363e+01   4.0607541575e+01    0.3309489    0.1740004  23.50 0.0009636892    4.265    0.766
       408  -8.3648    164.8008     94.1645   5.6565583947e+01   3.0139145043e+01    0.2269944    0.1962561 -68.67  0.000441181    1.209    0.173
       409  -8.1153     63.8554     82.6016   8.2488989634e+01   5.3185103010e+01    0.1892634    0.1326161  41.81 0.0004495024    1.598    0.374
       410  -8.1752     35.3128     82.3500   9.3745576497e+01   5.6845312076e+01     0.151165   0.08822989 -30.22 0.0002997245    1.722    0.419
       411  -9.5222     24.5844     80.4966   9.7722497905e+01   5.8259762270e+01     0.409288    0.2663143 -87.09  0.001361926    2.396    0.583
       412  -9.1696      9.8057     81.0412   1.0401951145e+02   5.9179782418e+01    0.3143723    0.1836282  47.50  0.001269228    2.421    0.587
       413  -8.5477    150.1943     80.4956   5.5981061396e+01   3.6045208428e+01    0.3007048    0.1795027 -54.00 0.0007310419    1.894    0.472
       414  -8.7425    119.4693     80.3311   6.3512196984e+01   4.3081042802e+01    0.3055636    0.2299346 -75.22  0.000894484    1.868    0.465
       415  -8.8304     74.6146     80.4759   7.7847514390e+01   5.1920881042e+01    0.3232896     0.221133 -59.06  0.001205525    1.792    0.442
       416  -8.3250    166.7365     79.7229   5.2341573364e+01   3.2341361304e+01    0.2398394     0.173416 -38.21 0.0004668852    1.389    0.280
       417  -8.1564    183.8757     78.2006   4.8823442684e+01   2.8679531834e+01    0.1865694    0.1682248 -15.18 0.0006275125    1.315    0.240
       418  -7.4797    174.6908     78.3288   5.0475701308e+01   3.0749988392e+01    0.1513168    0.1076673 -72.01 0.0004627491    1.662    0.398
       419  -8.0281    157.3530     76.2577   5.3276457589e+01   3.5128657940e+01     0.209339      0.12897 -48.86 0.0004271217    1.666    0.400
       420  -8.5169    140.6747     75.3491   5.6658987805e+01   3.9178898412e+01    0.2623604    0.1733921 -51.07 0.0007006589    1.631    0.387
       421  -9.2931    128.0815     75.2375   5.9686193936e+01   4.2096593495e+01    0.3500968     0.253258 -63.70 0.0007738933    1.743    0.426
       422  -9.9563     63.1031     73.4100   7.9913490427e+01   5.5245945168e+01    0.4583849    0.2844175 -56.38  0.001003945    1.924    0.480
       423  -8.3978    163.4556     73.6708   5.1350788838e+01   3.4147606166e+01    0.2771778    0.1313488 -43.95  0.001113371    2.085    0.520
       424  -9.6599     82.3568     72.6044   7.2566312714e+01   5.2149999486e+01    0.3874977    0.2792017 -64.25 0.0009041248    1.976    0.494
       425  -8.2429    151.5037     73.0400   5.3596275787e+01   3.7052758687e+01    0.2178127    0.1436055 -39.60 0.0007216567    1.534    0.348
       426  -8.9349    115.7267     72.4180   6.2094964560e+01   4.5376738168e+01    0.4141259    0.1980321 -42.53  0.001280007    2.162    0.537
       427  -8.1407     42.5819     72.7303   8.8000194515e+01   5.8179695642e+01    0.1790179    0.1273881 -59.17 0.0005079784    1.573    0.364
       428  -7.8542    175.4600     72.5097   4.8825006823e+01   3.1555371063e+01    0.1421061    0.1329743 -75.30 6.165868e-05    1.006    0.006
       429  -8.9161    105.9409     71.5567   6.4623712732e+01   4.7653514066e+01    0.2690433     0.205304 -57.58 0.0006787342    1.582    0.368
       430  -9.3143     95.1621     71.0639   6.7782952346e+01   4.9975548434e+01    0.3697924    0.2445282 -55.87 0.0008682353    1.922    0.480
       431  -9.1255     28.4316     70.9042   9.3539813848e+01   6.0065777759e+01    0.4112625    0.1737851 -29.28  0.001601885    2.882    0.653
       432  -9.3980     51.3927     69.3588   8.3279864948e+01   5.7771127006e+01     0.451993    0.2772046 -66.55  0.001648563    2.622    0.619
       433  -9.0252     16.6631     70.1443   9.8525781585e+01   6.1202048945e+01    0.2597153    0.2046446 -88.54   0.00123131    1.752    0.429
       434  -7.5138    157.2809     69.6799   5.1467921115e+01   3.6263438163e+01    0.1471279    0.1092398 -71.88 0.0002399785    1.584    0.369
       435  -8.8394    147.0835     68.0194   5.3102042619e+01   3.8937516938e+01    0.3537078    0.1948332 -42.66  0.001084998    1.845    0.458
       436  -8.8051    138.6914     65.9797   5.4350154146e+01   4.1244655034e+01    0.2629696     0.188429 -53.85 0.0008077984    1.539    0.350
       437  -8.7788    121.5453     65.8293   5.8459907447e+01   4.5227604268e+01    0.2675005    0.2244773 -80.70 0.0006738783    1.469    0.319
       438  -8.8956     37.3482     64.4671   8.7689166205e+01   6.0514968485e+01     0.250523    0.2051899  63.34 0.0008679473    1.883    0.469
       439  -9.0499    110.2702     63.4634   6.0742148761e+01   4.8143409506e+01    0.3055876    0.2372894 -54.92 0.0007804608    1.515    0.340
       440  -8.4147     85.0304     64.3071   6.8854592059e+01   5.3205782994e+01    0.2393367    0.1052921  25.62 0.0007041881    4.225    0.763
       441  -8.4473     64.8389     62.9151   7.5725711829e+01   5.7040083124e+01    0.4321029    0.2305288   2.96  0.001380375    4.352    0.770
       442  -9.4095     97.7003     60.7230   6.3521829982e+01   5.1296290185e+01    0.3259916     0.273024  68.29  0.001142337    1.466    0.318
       443  -7.9847     51.3651     62.2842   8.0942295202e+01   5.9190582573e+01     0.144592   0.09587411  -9.00 0.0004588164    1.690    0.408
       444  -7.6386    158.2902     61.7155   4.9055764105e+01   3.7308128352e+01    0.1417413    0.1063463 -75.44 0.0001906899    1.533    0.348
       445  -9.6106     73.2655     59.3167   7.1271906129e+01   5.6269936241e+01      0.36597    0.2447765 -50.40 0.0009824235    1.792    0.442
       446  -8.1585    146.6429     59.2050   5.0636532057e+01   4.0453683338e+01    0.1875119    0.1374218 -23.11 0.0004857812    1.597    0.374
       447  -8.2092     88.7384     59.1818   6.5838864038e+01   5.3381600144e+01    0.2123093    0.1795306 -56.10 0.0007179552    1.460    0.315
       448  -9.8303     23.4438     56.4324   9.1475244491e+01   6.3553788989e+01    0.4115824    0.2966207 -86.71  0.002100962    2.604    0.616
       449  -8.1456    130.7636     57.7734   5.3673920150e+01   4.4411128738e+01    0.1923987      0.16464 -80.46 0.0004119777    1.338    0.253
       450  -9.5285      7.5794     57.1623   9.9272737942e+01   6.4588671038e+01    0.2634909    0.2040057  84.17 0.0009837919    1.992    0.498
       451  -8.5275    139.9366     56.1298   5.1130218774e+01   4.2509146946e+01    0.2186048    0.1870977 -75.59 0.0004769262    1.280    0.219
       452  -9.3468    119.0158     55.0705   5.5665067753e+01   4.7538545849e+01    0.4151522    0.2080799 -45.45  0.001428057    2.259    0.557
       453  -8.6009     44.1398     55.6389   8.1726755669e+01   6.1435147976e+01    0.2179519    0.1745215 -47.10 0.0007231144    1.392    0.282
       454  -9.0211     62.8468     54.5714   7.3525040517e+01   5.8883446905e+01    0.2779734     0.192654 -46.90 0.0006109822    1.636    0.389
       455  -8.9975     54.2244     53.9684   7.6801715966e+01   6.0337297937e+01    0.3493302    0.2256937 -58.97   0.00126063    2.350    0.574
       456  -8.7739    105.8162     53.1242   5.8537743984e+01   5.0788938669e+01    0.2109847    0.1917092 -76.36 0.0006708337    1.334    0.251
       457  -9.5022     92.5186     50.5629   6.1577963135e+01   5.4014484145e+01    0.3731087    0.2355873 -46.18  0.001048593    1.862    0.463
       458  -8.8255     75.3709     51.2040   6.7558407177e+01   5.7273237191e+01    0.3440218    0.1911025  18.67  0.001412554    2.517    0.603
       459  -8.2165    144.6675     48.8290   4.7988186443e+01   4.2453071680e+01     0.194391    0.1211997 -45.06 0.0005380461    1.694    0.410
       460  -8.5781    129.8364     49.0713   5.1169551354e+01   4.5922208350e+01    0.2086722    0.1859339 -72.55  0.000491097    1.236    0.191
       461  -8.8988    120.9372     47.4456   5.2709028677e+01   4.8221764675e+01    0.2442524    0.1896252 -52.87 0.0005883402    1.478    0.323
       462  -8.5064    112.0794     46.6244   5.4640122391e+01   5.0357997931e+01    0.2581024    0.1876697 -52.75 0.0008074441    1.660    0.398
       463  -8.8799     82.2657     46.3396   6.3350835466e+01   5.6724948002e+01    0.2819646     0.223252 -49.71 0.0007649993    1.576    0.365
       464  -8.4093     45.0202     44.5219   7.7202309638e+01   6.3310856225e+01    0.2210127    0.1769419 -48.73 0.0006438805    1.571    0.364
       465  -8.8315     16.7514     44.6802   9.0859410618e+01   6.6426771919e+01    0.2209669    0.1594626 -56.64 0.0006907521    1.609    0.378
       466  -8.3985    132.7099     43.1920   4.8707438501e+01   4.6057984314e+01    0.2086964      0.16819 -56.87 0.0003611511    1.380    0.275
       467  -8.7863     92.9286     42.6567   5.8590700038e+01   5.5094807202e+01     0.233188    0.1834084  -2.93  0.000775395    1.376    0.273
       468  -9.3114     69.6589     41.6149   6.5984289182e+01   5.9815336793e+01    0.3256488    0.2539119 -58.07  0.001085574    1.905    0.475
       469  -9.0783     58.1232     42.3812   7.0764666828e+01   6.1684709227e+01    0.3026175    0.2068862 -52.72  0.001209287    2.086    0.521
       470  -9.6370      5.3052     41.9842   9.5894970791e+01   6.7773440639e+01    0.3010424    0.2050216 -77.10  0.001491419    2.375    0.579
       471  -8.8243    105.9055     41.5236   5.4505866561e+01   5.2444792984e+01    0.2483505    0.1969153 -39.73 0.0006012928    1.402    0.287
       472  -8.4521     36.7647     40.6540   7.9473050498e+01   6.5056150255e+01    0.2037048    0.1648032 -27.68 0.0006254079    1.195    0.163
       473  -8.6355     95.5405     38.0489   5.6133045324e+01   5.5168990820e+01    0.2369263    0.1869473  68.57 0.0006817554    1.509    0.337
       474  -8.4438     80.7175     36.5929   6.0153953727e+01   5.8424958503e+01    0.2107863    0.1594976 -50.54 0.0007926273    1.749    0.428
       475  -7.6599    133.6291     36.2983   4.6375898788e+01   4.6727460729e+01    0.1409337    0.1012161 -79.30 0.0007029799    1.739    0.425
       476  -8.2541    125.9108     35.5139   4.7714587612e+01   4.8639894362e+01    0.1865015    0.1834869 -11.91 0.0004389482    1.123    0.110
       477  -9.2591     26.2228     35.4022   8.2537901826e+01   6.7177400735e+01     0.240002     0.198584 -48.03 0.0008246268    1.562    0.360
       478  -8.8849    111.7976     34.6976   5.0643390892e+01   5.1999867193e+01    0.2526457    0.1810111 -44.60 0.0008744845    1.605    0.377
       479  -8.7188    119.1360     33.0658   4.8388167476e+01   5.0513674482e+01    0.2695608    0.1623694 -48.01 0.0006476701    1.986    0.497
       480  -7.9399     88.5549     34.5107   5.6877173392e+01   5.7103853990e+01    0.1344999    0.1183745  29.30  0.000206196    1.013    0.012
       481  -9.0874     48.5495     33.4529   7.1138649164e+01   6.4556118935e+01    0.2233789    0.2119854   1.35 0.0007607554    1.347    0.257
       482  -8.8509     72.3206     31.0304   6.0791745651e+01   6.0791417899e+01    0.2985952    0.1812992 -38.73  0.001077257    1.894    0.472
       483  -8.8572     13.0039     30.1266   8.7420288620e+01   6.9356895874e+01    0.2608026    0.1604819 -51.38  0.001064713    1.830    0.454
       484  -8.8117    101.6738     29.3466   5.1286157492e+01   5.4910748396e+01    0.2233824    0.1567061 -41.42 0.0008087819    1.658    0.397
       485  -8.9148     60.6837     32.4470   6.5688739743e+01   6.2721153551e+01     0.247953    0.1991799 -37.64 0.0005803067    1.482    0.325
       486  -8.9483     81.4808     27.2565   5.6238857693e+01   5.9451758016e+01    0.2619092    0.1971616 -55.81 0.0008509465    1.921    0.479
       487  -8.9026      3.7723     27.4528   9.1584594381e+01   7.0528870898e+01    0.2342999    0.1571961 -54.32  0.001024313    1.714    0.417
       488  -8.8269     91.8909     26.4653   5.2847447273e+01   5.7370604066e+01    0.2287308    0.1771343 -47.24  0.000717961    1.613    0.380
       489  -8.4045    104.4669     22.9277   4.8279698424e+01   5.4998231388e+01    0.1786688    0.1298143 -25.65 0.0008607803    1.547    0.354
       490  -8.1709     34.7609     22.9963   7.2891288773e+01   6.8042905703e+01    0.1620098    0.1469581 -64.64 0.0008300754    1.972    0.493
       491  -8.3166    117.2250     22.2334   4.5182494631e+01   5.2163591080e+01    0.1953073   0.09076954 -39.90 0.0006955976    2.442    0.590
       492  -8.9438     63.5732     20.9946   5.9698210679e+01   6.3651951973e+01    0.2570891    0.2038312 -53.63 0.0008695567    1.924    0.480
       493  -8.7746     48.2541     21.5377   6.6028971463e+01   6.6232547553e+01    0.1977724    0.1892245 -19.98 0.0006461149    1.462    0.316
       494  -7.9088     19.5165     21.4996   8.0118351603e+01   7.0111991406e+01    0.1197938   0.09339052  -6.78 6.207621e-05    1.050    0.047
       495  -8.8199     74.0562     19.4742   5.5433949701e+01   6.1816823159e+01    0.2114834     0.173336 -42.94 0.0006683887    1.575    0.365
       496  -8.1870     87.8228     17.7601   5.0620102094e+01   5.9165357191e+01    0.1587765    0.1484773  87.71 0.0004482917    1.331    0.249
       497  -8.2568     38.7175     18.2416   6.8778422130e+01   6.8116321438e+01    0.1674902    0.1447219 -23.17 0.0007160958    1.401    0.286
       498  -8.0606    112.5530     16.5412   4.4227595419e+01   5.3803734229e+01    0.1291067    0.1118059  56.55 8.946471e-05    1.025    0.024
       499  -8.1470     30.1893     16.1502   7.1935520780e+01   6.9579985958e+01    0.1471949    0.1308845  -2.61  0.000452755    1.348    0.258
       500  -8.0176     97.1611     15.1234   4.7191836415e+01   5.7398932731e+01    0.1601523    0.1482764 -72.42 0.0004232391    1.320    0.242
       501  -7.9981      7.5171     15.5309   8.4284456089e+01   7.2174789232e+01    0.1147998   0.08802322 -10.86 1.666182e-06    1.078    0.072
       502  -7.7782     17.4809     14.4212   7.7914383768e+01   7.1356213140e+01    0.1171819   0.08931649  -2.54 0.0001759932    1.042    0.041
       503  -7.8177    163.4824     12.6290   3.4870973322e+01   4.2269353147e+01    0.1257059    0.1032722  78.56 0.0001526696    1.043    0.041
       504  -8.8792    232.6106    247.2562   7.5236076266e+01  -1.0181695384e+01    0.2180613    0.1838555 -49.60 0.0009942874    2.003    0.501
       505  -9.1735    210.9908    246.7286   7.9212944964e+01  -7.4936374523e+00    0.2948945     0.196428 -52.49  0.001331178    2.361    0.576
       506  -8.9439    175.5853    247.5818   8.6469792077e+01  -2.8972912174e+00    0.2867228    0.2425815  72.86  0.001173675    1.972    0.493
       507  -8.5285    156.5129    248.2318   9.0591691642e+01  -2.9131226878e-01    0.2953844    0.1946736  57.33   0.00148503    2.280    0.561
       508  -8.8523    132.2372    247.9965   9.5804731225e+01   3.2890943384e+00    0.2597551    0.2032329  62.04 0.0006824612    1.568    0.362
       509  -8.3247    113.1326    248.6521   1.0006317015e+02   5.9480574463e+00    0.2267459    0.1480641 -78.63 0.0009402992    2.169    0.539
       510  -9.4318    103.7589    246.6726   1.0187850259e+02   7.6764317562e+00    0.4680647    0.2639006 -85.77  0.002036098    3.103    0.678
       511  -9.2448    242.9783    246.6115   7.3266930111e+01  -1.1261169446e+01    0.3406968    0.1441948 -33.42  0.001742944    2.078    0.519
       512  -8.1028    218.6685    248.3541   7.8008526478e+01  -8.6844612876e+00    0.1526285    0.1430611  34.36 0.0006539452    1.694    0.410
       513 -10.0362    223.8686    244.0330   7.6318479955e+01  -8.6896612071e+00     0.450123    0.2183916 -45.44  0.002264581    2.560    0.609
