#   1 NUMBER                 Running object number                                     
#   2 MAG_AUTO               Kron-like elliptical aperture magnitude                    [mag]
#   3 X_IMAGE                Object position along x                                    [pixel]
#   4 Y_IMAGE                Object position along y                                    [pixel]
#   5 X_WORLD                Barycenter position along world x axis                     [deg]
#   6 Y_WORLD                Barycenter position along world y axis                     [deg]
#   7 A_WORLD                Profile RMS along major axis (world units)                 [deg]
#   8 B_WORLD                Profile RMS along minor axis (world units)                 [deg]
#   9 THETA_WORLD            Position angle (CCW/world-x)                               [deg]
#  10 FWHM_WORLD             FWHM assuming a gaussian core                              [deg]
#  11 ELONGATION             A_IMAGE/B_IMAGE                                           
#  12 ELLIPTICITY            1 - B_IMAGE/A_IMAGE                                       
         1 -13.4892    239.8576     11.4037   2.8892389053e+01   2.5838226772e+01     2.153348     1.250639 -70.57   0.01347551    1.471    0.320
         2 -11.2534      4.5343     21.2809   9.0391741300e+01   7.1516488948e+01    0.7899078    0.2982074 -25.30  0.003542152    2.983    0.665
         3 -11.5881     24.8040      7.9443   7.2490270766e+01   7.1426377702e+01     0.477295    0.2267138  23.81  0.002580727    1.998    0.500
         4 -10.8426     30.6377      3.0127   6.6876493383e+01   7.1207944627e+01    0.4453095    0.1854614  28.56   0.00222241    2.302    0.566
         5 -11.4818     14.5040     20.4519   8.4271506343e+01   7.0819706459e+01    0.6351084    0.2034854 -38.38            0    2.684    0.627
         6 -12.3962     15.3738     13.0536   8.0312950001e+01   7.1834606184e+01    0.6927003    0.3995169  18.34  0.004301472    1.579    0.367
         7 -11.1259     22.8808      2.3146   7.0522384245e+01   7.2338790383e+01    0.8086086    0.3027426  24.61  0.003625524    3.070    0.674
         8 -10.9246      8.9193      2.5093   7.8738556471e+01   7.3919795879e+01    0.6231844    0.2400964  25.67  0.003304958    2.418    0.586
         9 -11.4938      6.4642     11.9229   8.5053604392e+01   7.2836522286e+01     1.059859    0.4641891  -6.39  0.004724347    3.368    0.703
        10  -8.3725     15.6370     30.6859   8.7968385118e+01   6.9045657337e+01    0.1310364   0.07227095 -18.58 0.0007040906    1.760    0.432
        11 -12.1406    210.2461    246.5534   8.1026170003e+01  -6.8483901445e+00     1.338925    0.7199061   3.50  0.006514314    2.377    0.579
        12 -12.3384    233.2510    245.4811   7.6568028333e+01  -9.5793564141e+00     1.361804    0.7063662  23.29   0.00776387    1.759    0.432
        13 -12.8743    200.9298    237.4240   8.1351044331e+01  -4.2199299409e+00     4.821285     2.279183  -6.31   0.01241504    8.498    0.882
        14 -11.5048    248.8973    179.1450   6.1890960100e+01  -1.5403273592e+00     1.167679    0.2935748 -42.62   0.00409055    3.631    0.725
        15 -11.8470    225.0507    244.7290   7.7943272823e+01  -8.4745593541e+00     1.375397    0.3276885 -36.50  0.005169451    4.155    0.759
        16 -11.2685    216.7197    231.2301   7.7246457371e+01  -5.4210281376e+00    0.6848305     0.391775   8.39  0.003523185    1.960    0.490
        17 -11.9687    230.3021    215.1251   7.1877003636e+01  -4.7580026330e+00     1.936656    0.8696914 -16.10    0.0068048    4.312    0.768
        18 -14.1368    244.8335    157.9244   5.8366817611e+01   2.6176747094e+00     7.397599     2.731246 -52.26    0.0227688    5.082    0.803
        19  -9.4929      3.9519    250.1306   1.2341531062e+02   1.9890896245e+01    0.2556619     0.107888  42.12   0.00148172    1.896    0.473
        20 -10.1689     19.6531    249.0864   1.2047889030e+02   1.8536065138e+01    0.4176618    0.1187972  41.59  0.001995807    2.534    0.605
        21 -10.5793     11.8539    248.7635   1.2191300541e+02   1.9391024874e+01    0.4716181    0.1576107  37.26  0.002411053    2.428    0.588
        22  -8.8387     79.1353    235.7375   1.0728291648e+02   1.4094759249e+01    0.2538525    0.1450443  32.59   0.00130409    1.664    0.399
        23  -8.6297     42.7690    236.5964   1.1510710358e+02   1.8535287095e+01    0.1807285   0.09039694  45.15 0.0006342324    1.675    0.403
        24  -9.7674      6.2564    234.9906   1.2227482193e+02   2.2709837838e+01    0.1659922    0.1237231  74.84  0.001158189    1.044    0.043
        25  -9.2724    109.2543    232.8147   1.0027157755e+02   1.0361841361e+01    0.2937074    0.2053971  19.20   0.00129849    1.604    0.377
        26  -9.2372    101.5413    230.2977   1.0168406513e+02   1.2023569809e+01    0.3554341    0.2234353  18.90  0.001732742    1.948    0.487
        27  -8.6152     85.7444    230.8404   1.0529176637e+02   1.4196243081e+01    0.2087898    0.1360351 -21.45 0.0009474771    2.774    0.640
        28  -9.7328    114.8333    228.1420   9.8400310632e+01   1.0463266639e+01    0.3407277    0.2508549  26.46    0.0016881    1.334    0.251
        29  -8.2904     93.5098    227.4713   1.0315100357e+02   1.3792220567e+01    0.2396482    0.1266921  22.26  0.001031503    2.389    0.581
        30  -8.0972     79.6621    227.6804   1.0630053800e+02   1.5716652173e+01     0.126082    0.1024658 -18.06 0.0007049706    1.709    0.415
        31  -9.5455      4.8030    227.3330   1.2216446472e+02   2.4444864116e+01     0.230776   0.06813379  38.84  0.001091592    2.655    0.623
        32  -8.3848     69.9706    227.0000   1.0839675405e+02   1.7181233034e+01    0.2160677   0.06772441  32.91 0.0006568024    2.973    0.664
        33 -10.4750    130.3115    223.3339   9.4199399750e+01   9.0259084064e+00    0.3741835    0.2258307  23.73  0.001432098    1.760    0.432
        34  -9.4055    135.8853    222.8393   9.2859022327e+01   8.2402749982e+00    0.2790273    0.1797059  21.62   0.00117888    1.647    0.393
        35  -9.3843    121.5769    224.3565   9.6339856628e+01   1.0192299321e+01    0.2752636    0.1566707  31.88  0.001186194    1.641    0.391
        36  -7.8060    105.6408    223.2958   9.9848448367e+01   1.2869691845e+01    0.1444861   0.09517407  60.15 0.0007032708    1.703    0.413
        37  -9.1469    181.1456    220.9279   8.2607276338e+01   1.4319997588e+00     0.315497     0.218259   4.95  0.001588342    1.559    0.359
        38  -9.6108    186.1448    219.4956   8.1312435943e+01   9.1507182372e-01    0.3313094    0.2387435  -4.44  0.001208522    1.447    0.309
        39 -10.2641    149.0175    220.4441   8.9522186824e+01   6.6105985733e+00    0.4017455    0.2917623   4.78  0.001368138    1.597    0.374
        40  -8.4324    154.7513    218.2108   8.7875734429e+01   6.1206809200e+00    0.2409723    0.1585854  13.42 0.0008255071    1.754    0.430
        41  -8.4406    115.7335    220.9926   9.7203416800e+01   1.1800293929e+01    0.1960052    0.1479928   7.73 0.0006909672    1.618    0.382
        42  -8.9008    166.4769    220.0240   8.5594376267e+01   3.8969823546e+00    0.2658195    0.1745628  17.75 0.0008696251    1.585    0.369
        43  -9.3326    141.4649    219.9866   9.1151878120e+01   7.9153573684e+00    0.2726213    0.1846976  18.58  0.001359183    1.587    0.370
        44 -10.4073     55.9890    216.9878   1.1053222414e+02   2.1200906745e+01    0.3816898    0.1663145 -69.03  0.001073882    2.275    0.560
        45 -10.0911    202.6951    216.6195   7.7427016349e+01  -1.0888845411e+00    0.4512576    0.2803569 -18.50  0.001702854    1.718    0.418
        46  -8.0023    204.6786    211.6855   7.6141991454e+01  -5.4454102103e-01    0.1380306    0.1110057  -4.01 0.0007167017    1.098    0.090
        47  -9.9688    210.9521    216.4142   7.5762187821e+01  -2.2631609704e+00    0.3355581    0.2262113 -16.53  0.001187366    1.437    0.304
        48 -10.0879    194.0765    216.0267   7.9063464183e+01   3.0881393022e-01    0.4125407     0.265824   8.01  0.001576361    1.734    0.423
        49 -11.6180    236.0684    227.5095   7.3023310207e+01  -7.3824816303e+00    0.6234732    0.4757708   8.26  0.004160023    1.146    0.128
        50  -8.9787    136.7355    217.5359   9.1844087178e+01   9.1710278655e+00    0.2599722    0.1297123  29.72  0.001073514    1.993    0.498
        51  -8.9534    180.2519    215.1868   8.1797937375e+01   2.6047381732e+00    0.2884471    0.1869769   8.69  0.001154097    1.790    0.441
        52  -9.3784    171.3970    214.1890   8.3524978955e+01   4.2012938120e+00    0.3750969    0.2358049 -12.98  0.001697886    2.118    0.528
        53  -9.1962    159.6149    217.3646   8.6653771914e+01   5.4984821892e+00    0.3626418    0.2141399  15.42  0.001459829    2.104    0.525
        54  -8.3913    101.1048    215.0765   9.9796942983e+01   1.5329209448e+01    0.1799753    0.1735814  19.92            0    1.120    0.107
        55  -8.3921    186.0254    213.9536   8.0361642782e+01   1.9199948947e+00    0.2601121    0.1604548   7.74 0.0008426805    2.011    0.503
        56  -8.4264    189.5358    212.5326   7.9374941747e+01   1.6260809871e+00    0.1389046    0.1163718  -0.74 0.0004442058    1.066    0.062
        57  -8.8982    165.7103    213.9706   8.4730005322e+01   5.1616360253e+00    0.2569554    0.1809706   4.25  0.001289929    1.631    0.387
        58  -9.0028    144.2344    213.8385   8.9531390849e+01   8.6994587662e+00     0.270629    0.1746834   8.48  0.001074779    2.078    0.519
        59 -10.3470    217.7019    209.5867   7.3221253440e+01  -2.1085107262e+00    0.4956009    0.3106146 -15.25  0.002546021    1.661    0.398
        60 -10.2094    226.6371    205.0082   7.0698612897e+01  -2.6330475368e+00    0.5265941    0.2604126  19.13  0.002226402    2.610    0.617
        61 -11.5886    243.1261    199.0739   6.6648081207e+01  -3.9584806051e+00    0.7678742    0.2650221 -30.40  0.002968295    3.131    0.681
        62 -12.7248    245.5190    190.1564   6.4561154515e+01  -2.8589040289e+00     2.387753     1.824172  82.99   0.01172929    3.417    0.707
        63  -8.7859    155.0448    211.9514   8.6758848322e+01   7.2994690540e+00    0.2257494    0.1626981  -1.03 0.0009257726    1.666    0.400
        64  -9.2052    210.8011    210.5000   7.4719642011e+01  -1.2538041749e+00    0.3250567    0.1831245  10.32  0.001475957    2.304    0.566
        65  -8.7601    200.5461    209.3259   7.6538356343e+01   4.9034475503e-01    0.1736884      0.11564 -24.77  0.000631255    1.462    0.316
        66  -8.9987    186.9591    209.0547   7.9284413276e+01   2.6608394381e+00     0.226531    0.1522875  -2.60  0.001058364    1.744    0.427
        67  -8.8575    177.2019    208.5586   8.1270202322e+01   4.3218554460e+00    0.2683123     0.187818   6.85 0.0008655488    1.586    0.369
        68  -8.8656    161.9457    208.3293   8.4580766089e+01   6.8742626657e+00    0.3036041    0.2014061  13.15  0.001225768    1.748    0.428
        69  -9.2273    206.7623    205.8173   7.4649193839e+01   1.5316908790e-01     0.300741    0.1973559  -1.30  0.001077419    1.733    0.423
        70 -10.0717    124.0057    205.9929   9.2991368637e+01   1.3682948588e+01    0.2007543    0.1889175  30.98            0    1.012    0.012
        71  -8.3320    183.2369    205.5359   7.9427613044e+01   3.9091855861e+00    0.1858996    0.1229312  17.91 0.0005001749    1.589    0.371
        72 -12.5357    249.3141    233.0830   7.1652575548e+01  -9.7757943132e+00     1.590325    0.3912722 -34.76  0.006238524    3.715    0.731
        73  -9.2394    217.8726    202.6460   7.1900114086e+01  -9.6994576037e-01    0.2906618    0.1696575 -17.74 0.0008315671    1.916    0.478
        74  -8.5938    223.1245    199.8060   7.0375789261e+01  -1.2635486643e+00    0.3319222    0.2647447  34.58  0.001617899    1.432    0.301
        75 -10.0060    231.3185    192.1584   6.7419143094e+01  -1.1760649056e+00    0.3585766    0.1956492 -26.46  0.001187709    1.768    0.434
        76  -9.9449    229.8827    198.3075   6.8848770608e+01  -1.9927504333e+00    0.3969285    0.2341613 -10.75  0.001473481    2.034    0.508
        77  -8.7198    226.5308    196.4538   6.9109676676e+01  -1.1983775801e+00    0.2310534    0.1590761 -31.60 0.0005607565    1.281    0.219
        78  -9.0184    198.1758    201.6540   7.5593774322e+01   2.2250081347e+00    0.2730328    0.1815138  -1.44  0.001344273    1.765    0.433
        79  -7.8011    179.6514    201.7022   7.9486415299e+01   5.2226415989e+00    0.1473239    0.1027694  -2.13 0.0005049174    1.682    0.406
        80  -8.7655    210.5087    198.5561   7.2546722725e+01   8.4832323109e-01    0.2371283    0.1592388  -4.84 0.0008831664    1.658    0.397
        81  -8.9754    193.2972    207.9246   7.7759348170e+01   1.8637743402e+00    0.2561637    0.1830138  15.39   0.00109943    1.381    0.276
        82  -9.2479    139.0050    199.0323   8.8240784619e+01   1.2674318511e+01    0.2089157    0.1953592  31.35            0    1.039    0.037
        83  -9.6583    132.9795    198.9887   8.9674162642e+01   1.3712004280e+01     0.206486    0.1943922  21.20            0    1.019    0.019
        84  -8.8743    215.1850    196.2803   7.1207186969e+01   5.2865184539e-01    0.2363395     0.154894 -25.21 0.0009881853    1.429    0.300
        85  -8.6023    202.8238    194.7237   7.3333310455e+01   2.7420610191e+00    0.2244865    0.1559882   5.71 0.0009996913    1.592    0.372
        86  -8.8528    219.7236    193.1307   6.9739400111e+01   3.8419506327e-01    0.2377582      0.14865 -21.36 0.0008557363    1.603    0.376
        87  -9.9321    223.9944    189.7573   6.8290420108e+01   3.1982894880e-01    0.4360752    0.2759105 -41.62  0.002313219    1.527    0.345
        88  -8.8094    220.3120    186.3422   6.8308216061e+01   1.4800316615e+00     0.242753    0.1169028 -34.25 0.0009782289    1.918    0.479
        89  -8.3139    209.4452    192.8174   7.1652387710e+01   2.0328205309e+00    0.1949069    0.1142255 -26.81 0.0008503994    1.715    0.417
        90  -8.9291    215.2010    188.7631   6.9749062858e+01   1.8501905908e+00    0.3503326    0.1251626 -35.33  0.001242255    2.779    0.640
        91  -8.0091    210.6752    187.6376   7.0400689197e+01   2.7701542532e+00    0.1479704   0.09737228  -8.56 0.0007041016    1.788    0.441
        92  -8.5421    218.0338    181.9524   6.7867736328e+01   2.6182571490e+00    0.2221583     0.145808 -13.94 0.0008481259    1.695    0.410
        93  -8.6336    218.8008    176.7879   6.6689916653e+01   3.4242731111e+00    0.3750951    0.1685957 -38.66  0.001619415    2.000    0.500
        94  -8.0190     33.5393    182.4061   1.1241408569e+02   3.1997983738e+01    0.1313561    0.1149324  87.39 8.066188e-05    1.023    0.023
        95  -8.6939    210.9908    180.3037   6.8880842462e+01   4.0569519510e+00    0.2884088    0.1600479 -25.46  0.001000174    1.978    0.495
        96  -8.5978    215.4363    173.8726   6.6730278254e+01   4.5054123775e+00    0.3669092    0.1208698 -38.50    0.0013172    2.811    0.644
        97  -9.0057    218.6255    167.9248   6.4916918211e+01   5.0665845390e+00      0.31899    0.2112928 -50.82  0.001343529    1.673    0.402
        98  -8.7074    212.5986    162.7476   6.4964363091e+01   7.0543808367e+00     0.277115     0.123078 -37.69  0.001128803    2.067    0.516
        99  -8.7538    221.3388    160.9326   6.2973541681e+01   5.8928414379e+00    0.3011559    0.1482768 -48.00  0.001058805    2.091    0.522
       100 -11.6413    238.5098    217.8707   7.0889859907e+01  -6.2603257082e+00    0.7644818    0.3519111 -26.99  0.003721816    2.111    0.526
       101  -9.5469    223.2338    146.3624   5.9565137306e+01   8.2425657261e+00    0.3841616    0.2768748 -27.46   0.00204684    1.316    0.240
       102  -8.4555    222.0000    155.9732   6.1817407307e+01   6.6904692003e+00    0.2768262    0.1493479 -46.23  0.001078035    1.780    0.438
       103  -9.0392    221.2649    151.9898   6.1107224954e+01   7.5511475233e+00    0.2911649    0.2462835 -33.60  0.001039937    1.044    0.042
       104  -8.6376    215.9826    155.7431   6.2856064643e+01   7.7778318184e+00    0.2620234    0.1610839 -48.61  0.001247264    1.648    0.393
       105  -8.3387    205.6267    153.7968   6.4382882555e+01   1.0005629520e+01    0.2075402    0.1254077 -47.66 0.0009465934    1.637    0.389
       106  -8.4060    211.6083    151.7009   6.2799086972e+01   9.3197000821e+00    0.1997552    0.1237546 -47.04 0.0005798009    1.568    0.362
       107  -9.1205    215.6028    149.1055   6.1506330334e+01   9.0905176159e+00    0.3447846    0.1900208 -54.86  0.001454777    2.256    0.557
       108  -8.2589    162.6463    150.3241   7.2743644818e+01   1.9035692711e+01    0.1574146     0.125246  87.36 0.0007047046    1.761    0.432
       109  -9.5995    176.8969    148.0984   6.9015413171e+01   1.6665926636e+01    0.3619203    0.2131807 -44.50 0.0006047025    1.626    0.385
       110  -9.4391    208.0822    144.3994   6.1865670619e+01   1.1364246429e+01    0.2948159    0.2032869 -47.16  0.001212773    1.394    0.283
       111  -8.6024    200.2884    145.0527   6.3495625631e+01   1.2711088783e+01    0.2166028    0.1765338 -41.77 0.0008516334    1.143    0.125
       112  -9.2693    155.6235    143.8072   7.2909655130e+01   2.1899591979e+01    0.2261824    0.1447642 -55.10 0.0006678433    1.696    0.411
       113  -9.7937    182.0329    142.0076   6.6516287909e+01   1.6911711621e+01    0.2372172    0.2243118 -51.95 0.0009046419    1.100    0.091
       114  -9.4707    224.2050    139.5435   5.7937580200e+01   9.3209894192e+00    0.3788984    0.1950619 -41.94  0.001039495    1.699    0.411
       115  -8.1980    203.3450    140.6794   6.1932220645e+01   1.2981735740e+01    0.1454498    0.1144882 -76.07 0.0007049664    1.729    0.422
       116 -10.4033    173.3848    138.3895   6.7546244410e+01   1.9429895941e+01    0.3552847    0.2816733  77.03  0.001527539    1.681    0.405
       117 -10.5448    168.7503    133.5312   6.7425713897e+01   2.1424694323e+01     0.553382    0.2096872 -52.00  0.001708412    3.213    0.689
       118  -8.6707    152.4681    139.4860   7.2658244775e+01   2.3514221895e+01     0.155924    0.1515067 -38.01 0.0001636836    1.025    0.024
       119 -10.9358    207.7599    137.0854   6.0303403100e+01   1.2830226551e+01    0.5100082    0.3546788  77.57  0.002277973    2.382    0.580
       120 -10.9638    192.4709    129.1699   6.1401823496e+01   1.7402260764e+01    0.3858052    0.2744623 -52.34  0.001856912    1.426    0.299
       121 -10.5737    198.8194    137.0502   6.1980719610e+01   1.4571358133e+01     0.379553    0.2474663 -37.42  0.001179093    1.424    0.298
       122 -10.6403    196.1385    107.0774   5.5465632693e+01   2.0908489306e+01    0.3104143    0.2024138 -45.06  0.001204048    1.420    0.296
       123 -12.9899    195.3153    114.1384   5.7307040393e+01   1.9746367476e+01     1.252321     0.598471  60.09  0.004721349    2.763    0.638
       124  -9.8302    192.5162    136.9673   6.3198904368e+01   1.5836831752e+01    0.2241668    0.2095208  36.04  0.000849904    1.148    0.129
       125 -10.9358    179.3935    132.3623   6.4824283355e+01   1.9449479161e+01    0.4163439    0.2954543 -58.11  0.001685984    1.579    0.367
       126 -10.9886    161.7633    134.2562   6.9196065748e+01   2.2733512527e+01    0.6517881    0.3193744 -61.40  0.001988786    3.626    0.724
       127 -10.1139    187.4606    134.8445   6.3728583622e+01   1.7283548633e+01     0.309161    0.2080029 -60.03  0.001372161    1.790    0.441
       128 -10.3611    185.8389    128.7275   6.2623834208e+01   1.8855377724e+01    0.3895873    0.2538745 -60.86  0.001650234    1.898    0.473
       129 -10.9311    171.6747    128.8249   6.5643550038e+01   2.1804982193e+01    0.4263647    0.2766239 -55.59  0.001380521    1.698    0.411
       130 -10.5094    169.5298    124.0066   6.4940533318e+01   2.3271937080e+01    0.3094966    0.1918792 -44.82  0.001334508    1.549    0.355
       131 -10.5820    165.1275    126.8317   6.6619357955e+01   2.3618730309e+01    0.4955222    0.1847647 -50.35   0.00155778    3.006    0.667
       132 -11.3785    180.2633    123.7669   6.2583770158e+01   2.1030297532e+01    0.4055602    0.3658878 -65.36  0.001870082    1.173    0.147
       133 -11.0598    188.2281    123.2956   6.0853226016e+01   1.9447061752e+01    0.3377331      0.26262 -44.21  0.001306527    1.204    0.170
       134  -9.1374    160.3064    124.3337   6.7107781834e+01   2.5186338051e+01    0.1593895    0.1236784  -4.47 0.0007040017    1.667    0.400
       135 -10.8072    194.6704    121.2001   5.9104302130e+01   1.8517723756e+01    0.4002973    0.2416318 -47.22  0.001524706    1.576    0.365
       136 -10.7359    174.1955    119.4488   6.2805344262e+01   2.3209779784e+01    0.3053607    0.2461972  -9.65  0.001353697    1.501    0.334
       137 -11.3521    199.6199    125.5986   5.9199865904e+01   1.6649595190e+01      0.71795    0.2921149 -43.48  0.002702252    2.253    0.556
       138 -10.8350    202.3384    120.5993   5.7538521302e+01   1.7058910824e+01    0.4543531    0.3402084 -62.79  0.002145327    1.510    0.338
       139 -10.0241    157.2697    119.0076   6.6476902689e+01   2.6982340573e+01    0.2276812    0.2095823 -41.52 0.0009018491    1.054    0.051
       140  -9.6121    152.4830    125.9741   6.9369532127e+01   2.6510685061e+01     0.246527    0.1518864 -43.89  0.001028292    1.578    0.366
       141 -10.6360    176.9079    109.3828   5.9730801435e+01   2.4640706050e+01     0.310856    0.2216011 -33.89  0.001459483    1.420    0.296
       142  -9.0492    168.3133    110.3229   6.1776541001e+01   2.6353204575e+01    0.1545807    0.1223413   1.80 0.0007040282    1.658    0.397
       143  -8.8856    155.3177    109.3114   6.4431264556e+01   2.9451477943e+01    0.1567886    0.1241105   3.03 0.0004745267    1.642    0.391
       144 -10.5191    190.0268    108.0370   5.6823400421e+01   2.2038565720e+01    0.2317555     0.217154 -47.60 0.0006892583    1.010    0.010
       145 -10.3808    205.7761    103.9110   5.3036360328e+01   1.9457080169e+01    0.3458398    0.1693296 -45.84  0.001231045    1.882    0.469
       146  -9.1949    129.9779    106.9684   7.0145453835e+01   3.5529535402e+01    0.2276195    0.2232948  24.38  0.001203117    1.027    0.027
       147 -10.9793    184.0996    102.3130   5.6535290020e+01   2.4420169716e+01    0.4494717    0.2491086  31.24  0.001674229    2.850    0.649
       148 -10.7522    201.1576    108.8687   5.4998706677e+01   1.9513226761e+01    0.4054095     0.201419 -35.03  0.001392446    2.021    0.505
       149  -9.6503    176.3683    101.3255   5.7800414441e+01   2.6328346751e+01    0.2319511    0.1833261   5.60 0.0007845769    1.709    0.415
       150  -9.6873    160.4986     99.4756   6.0656561935e+01   3.0273478533e+01    0.3194558     0.148524 -40.26  0.001097359    2.115    0.527
       151 -10.2603    209.2280     98.7507   5.1261858890e+01   1.9660736868e+01     0.256359    0.1944498 -41.83  0.001199595    1.203    0.168
       152  -9.1494    167.5089     98.9838   5.9015362932e+01   2.8777253835e+01    0.2395901    0.1466083 -39.09 0.0007607681    1.606    0.377
       153 -10.6770    203.1439     96.3373   5.1684371866e+01   2.1373361584e+01    0.3568771    0.2009957 -34.06  0.001488812    1.798    0.444
       154 -10.2890    195.7211     96.1006   5.2883873000e+01   2.3016867457e+01    0.2685137    0.1998486 -23.48  0.001330531    1.561    0.359
       155  -9.7787     87.9538     96.0074   7.9641049492e+01   4.6356621356e+01     0.217146    0.2070011 -18.20  0.001186268    1.016    0.015
       156  -9.4132    183.6807     94.8579   5.4742426184e+01   2.5904648021e+01     0.235352    0.1898023 -18.75   0.00118744    1.460    0.315
       157 -14.3371    247.9183    134.4141   5.3117150135e+01   6.1527983927e+00     7.704131     2.815854 -43.75   0.03202308    2.319    0.569
       158  -8.6270    164.3418     93.2945   5.8179086547e+01   3.0590247390e+01    0.1518949    0.1200306  14.63 0.0003064219    1.659    0.397
       159  -9.0538    188.4673     91.8202   5.3105132380e+01   2.5387041353e+01    0.2619328    0.1886461  16.35 0.0009625789    2.165    0.538
       160  -8.7053    177.9624     92.0107   5.5098892729e+01   2.7717484756e+01    0.2316788    0.1862583   5.89  0.001129595    1.675    0.403
       161  -9.8987    210.1828     90.0728   4.9086335983e+01   2.0971697307e+01    0.2079659    0.1891582 -19.03 0.0008259635    1.265    0.210
       162  -9.7527     88.5139    249.6582   1.0671290938e+02   1.0027223792e+01    0.3610516    0.2205836  25.15  0.001932045    1.776    0.437
       163  -9.8058     74.1956    250.4679   1.0977633688e+02   1.1804297476e+01    0.5140404    0.1225461  36.64  0.001943613    3.210    0.689
       164  -8.7209    128.0956     91.1580   6.6200545766e+01   3.9256268632e+01    0.2127648    0.1973406  11.46            0    1.124    0.110
       165  -9.8560    226.3206     86.5782   4.5966187101e+01   1.8232936900e+01    0.2698195    0.2132599  -2.77 0.0007794556    1.853    0.460
       166 -10.7071    230.3940     82.1654   4.4458917352e+01   1.8134906521e+01    0.3257198    0.2290322  13.98  0.001539476    2.756    0.637
       167  -7.6984     10.2207     85.9975   1.0619778136e+02   5.7995383735e+01    0.1595585    0.0889087 -62.92            0    1.499    0.333
       168 -11.3611    230.4485    234.7463   7.5284849932e+01  -7.7280316009e+00    0.5799481    0.3889935 -35.28  0.003608566    1.523    0.344
       169  -8.5972    206.5765     83.2598   4.8034901235e+01   2.2895680603e+01    0.1886425    0.1293566 -30.19 0.0005597664    1.576    0.366
       170 -11.4782    248.8203    202.1693   6.6249261940e+01  -5.1957969878e+00    0.8612918    0.3652162 -22.77  0.003527964    3.066    0.674
       171 -12.9499    180.3574    241.1135   8.6090732577e+01  -1.8895288226e+00     3.236904     1.633224   1.07   0.01056323    5.120    0.805
       172 -10.0945     63.4160    249.0942   1.1187120283e+02   1.3470968108e+01    0.5594105    0.2285842  34.02  0.002655937    2.198    0.545
       173  -9.4686     48.0170    250.2560   1.1506881303e+02   1.5140312749e+01    0.3948021    0.1496792  28.77  0.001741927    2.938    0.660
       174 -14.5251    154.0820    245.4003   9.2218148088e+01   1.2515516446e+00     5.409051     2.137425  33.03    0.0235053    2.214    0.548
       175 -12.2222    247.0333    225.8126   7.0793857595e+01  -8.4871121116e+00     1.149274    0.4532411 -24.37  0.004963903    2.964    0.663
       176  -8.2487    167.6562     75.6885   5.2769023313e+01   3.2995962585e+01     0.148047    0.1151335  21.14 0.0007045974    1.703    0.413
       177  -8.2003    223.6344     74.7109   4.3684533681e+01   2.0686126481e+01    0.1243325    0.1044284  20.50 0.0007024412    1.702    0.413
       178 -10.5027    238.7905     70.7610   4.0998747374e+01   1.8257685433e+01    0.2319345    0.1632155 -47.13   0.00136869    1.203    0.169
       179 -12.3757    247.9609    214.8213   6.8693737955e+01  -7.0012582127e+00    0.6302959    0.3526864 -26.39  0.002381748    1.530    0.346
       180  -9.7595    248.9823     63.9717   3.8507481817e+01   1.7311751226e+01    0.2419715    0.1571139 -26.14  0.001105947    1.935    0.483
       181  -9.6867    249.3383     59.6134   3.7595179353e+01   1.7871970176e+01    0.3565136    0.1743088  59.07  0.001868207    2.316    0.568
       182  -7.9713    250.6714     54.6860   3.6484767134e+01   1.8315617009e+01    0.1056562   0.09597576  11.05 0.0007044015    1.673    0.402
       183  -9.2335    172.0412     49.9713   4.5039175544e+01   3.5969431537e+01     0.192848    0.1776996  85.73  0.001152052    1.022    0.021
       184  -8.9684      8.5859     37.2867   9.4210023227e+01   6.8422454424e+01    0.2098612    0.1166024 -16.94  0.001013467    1.727    0.421
       185  -9.8767     37.2257    249.6116   1.1714739391e+02   1.6523880077e+01    0.2833797    0.1237146  39.42  0.001366123    1.896    0.473
       186 -10.3086     35.0376    247.0000   1.1740204263e+02   1.7290686080e+01    0.3116027    0.1619091  29.18  0.001520896    2.075    0.518
       187 -10.5854      7.6383     25.6675   9.0387752631e+01   7.0552693478e+01    0.3366065    0.1613318 -14.35  0.001718857    2.292    0.564
       188 -10.2843     95.8446    244.4997   1.0460624019e+02   1.0000242729e+01    0.5491465    0.2344767  32.54  0.002465526    2.154    0.536
       189  -9.9215     82.2867    244.2091   1.0747530662e+02   1.1946897050e+01    0.4685744    0.2177207  29.01  0.002160648    2.232    0.552
       190  -9.9473      3.1248    242.8352   1.2323799633e+02   2.1408976043e+01    0.2823022    0.1451689  61.55   0.00172748    1.550    0.355
       191  -9.7773     18.1267     21.1687   8.2571411988e+01   7.0355760227e+01    0.2072981    0.1526396   1.61  0.001402481    1.143    0.125
       192 -10.6343     13.2966    239.8090   1.2118058206e+02   2.1042695289e+01    0.5656731   0.07535468  36.73  0.002203702    3.983    0.749
       193  -9.4022     70.0499    240.1060   1.0967803126e+02   1.4416704033e+01    0.3701758    0.1780401  29.84  0.001766433    2.122    0.529
       194  -9.4551     53.4434    241.1706   1.1326171096e+02   1.6311271912e+01    0.4362216    0.1386452  37.96  0.001900073    2.524    0.604
       195  -8.3839    173.9944     33.8194   4.0448774725e+01   3.7635320773e+01    0.1763303    0.1521087  81.06            0    1.045    0.043
       196  -9.4830     92.2998    235.7824   1.0439848928e+02   1.2243062808e+01    0.3648052    0.2170615  30.22  0.001875335    1.640    0.390
       197  -9.2622    222.0317     21.9819   3.2373886286e+01   2.8263982536e+01    0.1590093    0.1380563  49.80            0    1.540    0.351
