#   1 NUMBER                 Running object number                                     
#   2 MAG_AUTO               Kron-like elliptical aperture magnitude                    [mag]
#   3 X_IMAGE                Object position along x                                    [pixel]
#   4 Y_IMAGE                Object position along y                                    [pixel]
#   5 X_WORLD                Barycenter position along world x axis                     [deg]
#   6 Y_WORLD                Barycenter position along world y axis                     [deg]
#   7 A_WORLD                Profile RMS along major axis (world units)                 [deg]
#   8 B_WORLD                Profile RMS along minor axis (world units)                 [deg]
#   9 THETA_WORLD            Position angle (CCW/world-x)                               [deg]
#  10 FWHM_WORLD             FWHM assuming a gaussian core                              [deg]
#  11 ELONGATION             A_IMAGE/B_IMAGE                                           
#  12 ELLIPTICITY            1 - B_IMAGE/A_IMAGE                                       
         1 -12.6963    125.9357     40.1606   6.3407965745e+01   4.8721932433e+01    0.5486941     0.282104  45.39  0.001896613    1.848    0.459
         2 -14.7510    239.9919     23.5435   4.0670114887e+01   2.2437584415e+01     1.032259    0.6439921 -17.55   0.00334584    2.101    0.524
         3 -12.9381    230.2957      2.0319   3.6526347170e+01   2.7076250940e+01    0.5323157    0.2630861  82.30  0.002035981    1.930    0.482
         4 -14.2167    249.7832      8.8349   3.6576432223e+01   2.1967294955e+01     2.174718    0.2247932 -28.99  0.004978767   10.053    0.901
         5 -14.9747    242.0984      9.4681   3.7294398759e+01   2.3594682155e+01     1.198004    0.7699206 -56.74   0.00693549    1.354    0.262
         6 -11.8386     34.1184     13.9183   8.4634967088e+01   6.9329753602e+01    0.1724184    0.1475088 -18.48 0.0005709556    1.261    0.207
         7 -12.0471     64.7581     10.8572   6.9837281334e+01   6.5241994038e+01     0.280456    0.1980241 -15.07 0.0009158241    1.310    0.236
         8 -10.9647    161.8775     11.8270   4.6590604737e+01   4.3083847003e+01    0.1936174    0.1557212 -77.33 0.0006117555    1.315    0.240
         9 -12.2966     99.4850      8.1182   5.7592445653e+01   5.8633009228e+01    0.4342214    0.1572801  38.07    0.0016461    2.859    0.650
        10 -12.4035      3.2401      8.3876   9.8611261042e+01   7.2994757819e+01    0.2108739    0.1733435  -5.23  0.001641367    1.295    0.228
        11 -10.3339    115.3426      8.7029   5.3995898235e+01   5.4959436057e+01    0.1311578    0.1041032 -72.07 0.0005495236    1.667    0.400
        12 -12.8384     85.5364      7.3474   6.1161915278e+01   6.1676435381e+01    0.3236949    0.2812533  67.07  0.001309503    1.458    0.314
        13 -10.8400    178.4182      7.5042   4.3035571467e+01   3.9262684589e+01    0.1353096    0.1216452  83.56 7.820334e-05    1.014    0.014
        14 -11.0274     60.3102      6.3272   6.9297871468e+01   6.6523679544e+01    0.1322224   0.08076989  12.78 0.0007040187    1.661    0.398
        15 -12.2442     15.8512      4.5808   8.9552778977e+01   7.2618414923e+01    0.1876587    0.1144112 -38.03 0.0009676192    1.459    0.315
        16 -11.3723    112.9043      1.8047   5.1792574093e+01   5.6134059041e+01    0.2158421    0.1543361  39.99  0.001003263    1.233    0.189
        17 -11.0440    118.1163    235.6585   1.1005423914e+02   1.0235866217e+01    0.3722986    0.2768973 -13.60  0.002090855    2.405    0.584
        18 -17.8564    182.2827    217.5855   9.4829873098e+01   2.5405755242e+00     7.703099     5.543303 -74.38    0.0392227    2.569    0.611
        19 -12.0063     12.0191    187.4813   1.2669041514e+02   3.3509813293e+01    0.2361923    0.1644454 -53.43  0.001565817    1.840    0.456
        20 -10.9797     20.0092    167.2694   1.2353178961e+02   3.7205314927e+01    0.2553832    0.1308635  60.25 0.0008815978    1.873    0.466
        21 -10.8885     18.8152    162.6185   1.2340462256e+02   3.8361714277e+01    0.1444653    0.1206732  76.90 0.0003176112    1.123    0.109
        22 -13.3444    147.7743    232.9076   1.0393011102e+02   5.9218457277e+00    0.4771655    0.2583274  33.95  0.002466389    1.694    0.410
        23 -11.5729      1.5606    158.2277   1.2690383287e+02   4.0734098226e+01    0.1506136    0.1025226 -83.11 0.0003746684    1.131    0.116
        24 -11.2927    242.8901    157.0999   7.1550127587e+01   1.3726065127e+00    0.2012005    0.1756596  -9.82 0.0003953978    1.031    0.030
        25  99.0000    124.3953    217.4469   1.0655928081e+02   1.2465837912e+01     1.708331    0.9845782 -39.40  0.008395747    2.451    0.592
        26 -14.3612    174.4651    154.4616   8.4449052362e+01   1.5411258122e+01    0.9076034    0.3740141 -46.46  0.003020072    2.574    0.611
        27 -11.6177      7.6051    155.5970   1.2536009909e+02   4.0873641527e+01    0.1590465    0.1275132 -72.17 0.0004092383    1.222    0.182
        28 -12.2064     22.0175    151.1966   1.2161047663e+02   4.0699370733e+01    0.2438446    0.1760337  36.65  0.001296842    1.589    0.371
        29 -18.8224     75.7973    190.7051   1.1354476681e+02   2.5445916782e+01     7.401747     6.353569 -82.40   0.04733088    1.142    0.124
        30 -11.8003    180.4991    144.1462   8.0787854028e+01   1.6188811982e+01    0.2665277    0.2416782  66.37 0.0003730961    1.245    0.197
        31 -10.8819    146.5775    228.4180   1.0355813647e+02   6.8557227220e+00    0.2124231    0.1504001  47.91 0.0008251815    1.227    0.185
        32 -12.3723    167.1138    138.7684   8.2524169014e+01   2.0188724053e+01    0.2851943    0.2539369 -63.03 0.0004852001    1.239    0.193
        33 -12.2548    135.1321    230.7622   1.0613367820e+02   8.3495948344e+00    0.4097616    0.1933118  51.90  0.001935713    2.069    0.517
        34 -10.7650    134.6937    221.7734   1.0503675412e+02   9.9751622958e+00    0.1821216    0.1354107  86.50  0.001027351    1.743    0.426
        35  99.0000    140.7070    228.6740   1.0475740164e+02   7.7864348327e+00    0.2970585    0.1914091 -57.42  0.001678085    1.898    0.473
        36 -12.0373     27.4493    134.8858   1.1845872970e+02   4.4056550308e+01    0.3276689    0.1870279 -84.57  0.001024926    1.617    0.382
        37 -12.8757     29.9017    129.2032   1.1708244425e+02   4.5193917672e+01    0.3001468    0.2660221 -18.63   0.00131582    1.455    0.313
        38 -12.5522    138.8474    222.6675   1.0431800958e+02   9.1243074056e+00    0.2814091     0.254447 -52.59  0.001147523    1.311    0.237
        39 -10.6030    149.7008    225.7243   1.0256289130e+02   6.7816502952e+00    0.1637293    0.1261424  53.67 0.0002506534    1.252    0.201
        40 -10.6606    147.0089    224.0883   1.0287161989e+02   7.5094309542e+00    0.1677491    0.1416117  49.46 0.0002801928    1.087    0.080
        41 -10.3408    189.6207    118.2997   7.2539735493e+01   1.9252751532e+01      0.15959    0.1248342 -83.27 0.0007024065    1.765    0.433
        42 -12.4668    151.1260    116.8376   8.0880589092e+01   2.8398722119e+01    0.2469931    0.2205679  86.61  0.000711365    1.277    0.217
        43 -13.1372    145.4654    116.2197   8.2126335054e+01   2.9800626264e+01    0.3472538    0.2853528  60.30 0.0003661833    1.315    0.240
        44  -7.4110    136.4582    250.5399   1.0828251682e+02   4.9616546119e+00    0.1228472   0.09217507  51.77 -0.0005369777    1.151    0.132
        45 -11.1004    131.5464    222.2594   1.0573943514e+02   1.0412199619e+01    0.1391447   0.08344808  60.15 0.0006879011    1.855    0.461
        46 -13.7849    154.6620    107.6733   7.7578619037e+01   2.9533333037e+01    0.7816955     0.444656 -29.10  0.002439265    2.121    0.528
        47 -13.4680    151.0206    108.0000   7.8555687718e+01   3.0305614155e+01    0.5445846    0.2985527  45.01  0.001471268    1.838    0.456
        48 -11.6204      1.7679    105.2664   1.2202694919e+02   5.2848157051e+01    0.2270672    0.1292645 -65.60  0.001001081    1.329    0.247
        49 -11.1680    146.9660    220.1812   1.0232477615e+02   8.1844736436e+00     0.165208    0.1447779  38.03   0.00024981    1.055    0.052
        50 -11.0706    119.2840    216.2549   1.0745463498e+02   1.3527080066e+01    0.2603244    0.1076416 -50.99 0.0009650107    2.802    0.643
        51 -12.5950    129.1576    101.2847   8.2346832723e+01   3.6651774111e+01    0.2940291    0.2395992  11.34 0.0007130409    1.466    0.318
        52 -11.2130    155.0898    240.2381   1.0348959771e+02   3.5748928363e+00    0.1779906     0.136545  33.17 0.0005124084    1.131    0.116
        53 -12.2962    142.6924     96.0389   7.7299274261e+01   3.4732496711e+01     0.294581    0.2661368  76.23 0.0007951684    1.229    0.187
        54 -15.6708    111.6505    197.6057   1.0655069700e+02   1.8442600517e+01     1.441662    0.6236138 -48.99  0.006101067    2.678    0.627
        55 -10.5566    139.7773    210.4773   1.0239012200e+02   1.1146915284e+01    0.1887799    0.1164914  28.02 0.0009188892    1.800    0.444
        56 -10.9224    136.2567    206.2576   1.0250349519e+02   1.2543074987e+01    0.2073094    0.1541441  29.02 0.0008415153    1.398    0.285
        57 -11.9580    132.3874     91.8058   7.8757700894e+01   3.7960800572e+01    0.2882303     0.203812 -33.28  0.001279098    1.458    0.314
        58  -8.5506      2.7563    201.9477   1.2927727398e+02   3.1342113762e+01    0.2601091    0.1539756 -65.72  0.001735111    1.776    0.437
        59 -13.3609     30.2203     86.0783   1.0986947836e+02   5.5414326372e+01    0.5430992    0.1180319 -60.80  0.001890167    3.330    0.700
        60 -11.1200     15.0569     88.6835   1.1551995649e+02   5.5921967263e+01    0.1695707    0.1424817 -56.10 0.0009753888    1.093    0.085
        61 -12.1735     89.4747     86.2857   8.9767342246e+01   4.7782407650e+01    0.4257479    0.2423966 -42.11 0.0009461957    1.668    0.400
        62 -12.6720     53.0436     84.9733   1.0166666488e+02   5.3386296890e+01    0.2540891    0.2413047 -68.32 0.0002955363    1.146    0.127
        63 -14.8295     44.3381     82.5597   1.0413064468e+02   5.4903793192e+01     1.074938    0.3924049  39.26  0.004334663    3.237    0.691
        64 -10.4701    212.9924     80.9487   5.8434764284e+01   2.0521457371e+01    0.1770212    0.1650465 -44.81  0.000351913    1.015    0.015
        65 -11.5642      1.8152    194.1940   1.2904922017e+02   3.2998883887e+01    0.1849453    0.1230769 -83.34  0.001138079    1.246    0.198
        66 -11.6200    243.8168     84.8131   5.4774191956e+01   1.2916843035e+01    0.2043281    0.1834752 -18.19 0.0005014525    1.168    0.144
        67 -10.1766      9.4742    192.0520   1.2747185036e+02   3.2776591386e+01    0.1481253   0.08714369 -86.84 0.0008798396    1.351    0.260
        68 -14.1051     38.2174     71.1751   1.0351438803e+02   5.8080573114e+01    0.4877931    0.3939586 -19.93  0.003034896    1.278    0.218
        69 -10.6081      4.5589    178.2229   1.2759697422e+02   3.6126261765e+01    0.2471004    0.1275156 -59.04  0.001444111    2.056    0.514
        70 -13.7738     23.9814     66.1152   1.0768988692e+02   6.0412757481e+01    0.4786917    0.3776594 -26.88   0.00294489    1.258    0.205
        71 -11.0269    151.9772     64.8081   6.5547244588e+01   3.8453739874e+01    0.2398422    0.2048125  17.54 0.0006102716    1.291    0.226
        72 -11.6527     99.0461     61.5290   7.8769426055e+01   5.1090734006e+01    0.2913535    0.2051867 -54.70  0.001371664    1.709    0.415
        73 -11.4381     79.7319     61.0747   8.5052180186e+01   5.4722494926e+01    0.3081411    0.2028544  53.63  0.001450677    2.013    0.503
        74 -13.6207    249.8878     56.1704   4.7245581998e+01   1.5916829283e+01    0.6674455      0.28126 -32.75   0.00283705    2.193    0.544
        75 -14.2546    216.4771    185.5092   8.2290677546e+01   1.6038619668e+00    0.5478787     0.416307 -67.95  0.002746744    2.332    0.571
        76 -11.9222     55.8655     45.8201   8.8535002680e+01   6.1260837762e+01    0.2932411    0.2035097  17.74 0.0008091994    1.526    0.345
        77 -10.8468     64.5663     41.7594   8.3534619776e+01   6.0736424369e+01    0.1766177    0.1201274 -45.62 0.0006082261    1.560    0.359
        78 -12.1933      7.6248    187.4079   1.2755151059e+02   3.3913430284e+01    0.2494328    0.1340076  40.18  0.001559457    1.866    0.464
        79 -11.1883     40.2990     36.3047   9.1481730404e+01   6.4935553814e+01    0.2263985    0.1623774 -20.40 0.0007496228    1.233    0.189
        80 -10.5299    151.2342    247.7158   1.0518202362e+02   3.0662406516e+00    0.1081606   0.08196642  60.93 0.0003242671    1.447    0.309
        81 -11.3003    147.6106    246.6469   1.0573045278e+02   3.8004515422e+00    0.1467997    0.1088127  54.48 0.0009348283    1.298    0.229
        82 -12.2131    143.5874    247.0969   1.0654270908e+02   4.3688544076e+00    0.1643216    0.1361988  50.84 0.0006524939    1.118    0.105
        83 -10.3204    132.1989    246.6049   1.0862590364e+02   6.2344808996e+00    0.1911293    0.1361565 -85.49  0.001165221    1.924    0.480
        84 -11.0383    217.4946     37.0545   4.6330442377e+01   2.6023281392e+01    0.2116862    0.1300989 -34.97  0.001010597    1.580    0.367
        85 -10.3142      1.6980    183.3617   1.2847415941e+02   3.5264971088e+01    0.1182855    0.1022434  44.96 0.0009129957    1.449    0.310
        86 -12.3144     10.4008     15.1960   9.7548079598e+01   7.1375569303e+01    0.1896979    0.1671365 -59.68   0.00111147    1.641    0.391
        87 -10.4774    139.6270    242.5567   1.0673968849e+02   5.6998827466e+00    0.3640685    0.1905748  26.21  0.001724171    2.480    0.597
        88 -10.6838    146.4978     12.4300   4.9249095993e+01   4.6954103336e+01    0.1393599    0.1250387  62.40 0.0001022511    1.023    0.022
        89 -12.1570    144.5027    239.4675   1.0542127738e+02   5.4059005431e+00    0.2450899    0.1819638  48.11  0.001552835    1.147    0.128
        90 -10.9023     45.3251     12.3009   7.8580974531e+01   6.8113089456e+01    0.1275112   0.07979071   1.13 0.0007028984    1.635    0.388
        91  99.0000    126.6744    242.6991   1.0922052514e+02   7.7222477887e+00    0.2996515    0.1441754  42.62  0.001570913    1.650    0.394
        92  -6.5786    125.4747    237.9434   1.0889856419e+02   8.6935520374e+00    0.1983603    0.1230302 -59.09 0.0009798656    1.956    0.489
        93 -11.4499    111.9996    243.2706   1.1205666566e+02   9.8901277535e+00    0.2027953   0.08716679  40.19  0.001003982    1.913    0.477
        94 -10.9974     13.4053    181.3390   1.2600357041e+02   3.4699195609e+01    0.1090861   0.08793128  87.38 0.0002287065    1.113    0.102
        95 -10.6687    134.0233    239.9359   1.0749242331e+02   7.0106583685e+00    0.3114708    0.1432536  33.67  0.001330225    2.142    0.533
        96 -11.2974    129.5999    239.1919   1.0825243534e+02   7.8345443133e+00     0.126088   0.08749332  48.98 0.0005132384    1.184    0.155
        97 -12.0267    130.5960    235.2662   1.0758668506e+02   8.3261266651e+00     0.318749    0.2101554 -87.70  0.001726665    2.263    0.558
        98 -10.5578      3.4924    173.9603   1.2754592509e+02   3.7131289882e+01    0.2023283    0.1559734  44.74  0.001319687    1.454    0.312
