#   1 NUMBER                 Running object number                                     
#   2 MAG_AUTO               Kron-like elliptical aperture magnitude                    [mag]
#   3 X_IMAGE                Object position along x                                    [pixel]
#   4 Y_IMAGE                Object position along y                                    [pixel]
#   5 X_WORLD                Barycenter position along world x axis                     [deg]
#   6 Y_WORLD                Barycenter position along world y axis                     [deg]
#   7 A_WORLD                Profile RMS along major axis (world units)                 [deg]
#   8 B_WORLD                Profile RMS along minor axis (world units)                 [deg]
#   9 THETA_WORLD            Position angle (CCW/world-x)                               [deg]
#  10 FWHM_WORLD             FWHM assuming a gaussian core                              [deg]
#  11 ELONGATION             A_IMAGE/B_IMAGE                                           
#  12 ELLIPTICITY            1 - B_IMAGE/A_IMAGE                                       
         1 -11.9350     20.1135     26.1605   1.0208005952e+02   6.7143391817e+01    0.6532765    0.4550038 -56.31  0.003706742    1.382    0.277
         2 -11.8360      4.1848     26.9629   1.0895704589e+02   6.8012623407e+01    0.7668379    0.3494138 -59.39  0.003068844    1.722    0.419
         3 -12.1316     29.1186     20.2609   9.6159822434e+01   6.7434310930e+01    0.9456996     0.443475 -42.63  0.005346367    1.640    0.390
         4 -11.7880     23.1213     14.1751   9.6327322565e+01   6.8987288853e+01     1.368585    0.2330104 -41.26  0.004836278    4.464    0.776
         5 -12.1756      2.9875      7.2702   1.0286897172e+02   7.1582877977e+01    0.4325451    0.1688072 -41.05  0.001306454    1.810    0.448
         6 -12.6608     16.2083      9.4894   9.7524254235e+01   7.0320705150e+01     1.040176    0.3219955 -46.08  0.005162835    2.364    0.577
         7 -12.8092     36.9139      5.1404   8.6276120011e+01   6.9024372385e+01      1.05202    0.6815119 -34.60  0.005681317    1.322    0.244
         8 -12.0429      9.2851     17.4535   1.0371667532e+02   6.9447235320e+01    0.7149718    0.3258753  31.84  0.004231283    2.879    0.653
         9 -11.2221     10.8438     10.2667   1.0032657781e+02   7.0582310228e+01    0.3006844    0.1679834 -32.70 0.0003705815    1.421    0.296
        10 -12.0810     12.1657     38.9073   1.0910951179e+02   6.5282503028e+01    0.6166139    0.5861261 -68.03  0.002413626    1.322    0.244
        11 -10.2488     11.0206      5.9036   9.8460854442e+01   7.1289669341e+01    0.2561039    0.1417802 -40.94  0.000349773    1.315    0.240
        12 -10.6698     31.4336      5.4617   8.8822905198e+01   6.9572246568e+01    0.2426942     0.185846 -10.17  0.001759923    1.132    0.117
        13 -11.5900     66.7690     22.2434   8.2276035394e+01   6.2588595128e+01    0.3568466    0.2855287 -26.97  0.001890466    1.122    0.108
        14 -10.7376     92.7548     17.3047   7.1670367982e+01   5.8866832504e+01    0.3579402    0.2498983 -38.93  0.001517235    1.553    0.356
        15  -9.7214     47.3582     18.4183   8.7938395868e+01   6.5803507528e+01    0.3102213    0.1664234 -22.04 0.0006815648    1.981    0.495
        16 -10.8111     64.4581      5.0039   7.5338909028e+01   6.5328221453e+01    0.2211659     0.186668  14.74 0.0004559049    1.165    0.142
        17  -9.8932     50.5047     13.4587   8.4531247326e+01   6.6168921357e+01    0.2095868    0.1593272 -20.11 0.0003955002    1.053    0.050
        18 -11.6092     53.1113      5.0588   7.9596794615e+01   6.6995306048e+01    0.5859955    0.4196379  -1.52  0.002258714    1.260    0.206
        19  -9.8350     59.4879      3.0760   7.6213901448e+01   6.6327466360e+01     0.246015    0.1452569 -24.91 0.0007324921    1.470    0.320
        20 -10.2382     62.8018      1.3623   7.4165523314e+01   6.6027191669e+01    0.2243425     0.132232  33.34 0.0002569911    1.669    0.401
        21  -9.5122     56.4140     15.8044   8.3295303881e+01   6.5036415134e+01    0.3313543    0.1282235 -40.30  0.001519831    2.360    0.576
        22 -11.7840    232.5084     20.6867   4.6937760880e+01   2.4244111147e+01    0.4728359    0.4171115  -0.45  0.002716395    1.317    0.241
        23 -10.4750     73.3502     13.5040   7.6179534189e+01   6.2809141135e+01    0.2781452    0.1697156  11.17  0.001108907    1.950    0.487
        24 -12.0389     73.5493      5.3988   7.2388668217e+01   6.3800158245e+01    0.6221576    0.4536982  20.43  0.003838162    1.275    0.216
        25 -11.2057     95.0756      4.7816   6.5542000502e+01   5.9897601149e+01    0.3253525    0.3132209  64.25  0.002141813    1.340    0.254
        26 -10.0368     57.6508     10.1000   8.0245355644e+01   6.5678697715e+01    0.1751784     0.130579 -16.36 0.0006374234    1.105    0.095
        27 -10.6044     84.0903      7.1214   6.9810779385e+01   6.1738681991e+01    0.4810524    0.2313803 -15.26  0.002180689    2.288    0.563
        28  -9.9756     61.8095      8.8777   7.8130823026e+01   6.5236526291e+01    0.1931129    0.1380274  -3.08 0.0006061609    1.287    0.223
        29 -10.4272    223.3237      3.6115   4.3340404594e+01   2.8434240759e+01    0.3173622    0.1808014  28.46  0.001350415    2.617    0.618
        30  -8.4259     89.3503      1.3043   6.5586879062e+01   6.1384093849e+01    0.1389824   0.08360671  21.78  0.000704105    1.702    0.412
        31  -8.3814    100.3202     11.3000   6.6938496944e+01   5.8118307608e+01    0.1403316   0.09102429  19.86  0.000702375    1.623    0.384
        32 -13.6539    197.4770    195.4974   9.4961987676e+01   5.3460678301e+00     2.257823     1.408825 -20.03  0.009791151    2.205    0.547
        33 -13.6167    177.2337    230.4601   1.0382385806e+02   4.1105964425e+00     1.771261    0.9993697  42.47   0.01049414    1.403    0.287
        34 -12.4478    204.6527    231.7067   9.9396290143e+01  -6.5769603901e-01    0.3662858    0.2653903  32.71 0.0004526777    1.139    0.122
        35 -12.3344    185.6319    235.2174   1.0305004173e+02   2.0932518400e+00     0.821947    0.4616863  19.52  0.001861121    3.094    0.677
        36 -12.7632    195.2640    224.1161   9.9874791378e+01   1.8595623154e+00     2.264041    0.3203005  47.40   0.00589999    7.120    0.860
        37 -12.3865    184.0655    219.9865   1.0119768124e+02   4.3363103382e+00     1.425584    0.3321273  40.60  0.004845189    4.095    0.756
        38 -12.7718    140.4579    246.4378   1.1181541401e+02   7.9603735339e+00    0.7660643    0.5150415   9.04  0.003818233    4.147    0.759
        39 -13.5115    207.8506    245.0296   1.0073450895e+02  -2.6845606343e+00    0.9866304    0.5840839  44.32  0.003897269    1.321    0.243
        40 -12.5589    192.0134    214.2970   9.8969742386e+01   3.7112898127e+00    0.7991291    0.4893058  66.77  0.003504582    2.554    0.609
        41 -12.9117    231.9751    148.4361   7.9502807039e+01   5.5469196547e+00     2.453996     1.390955  -5.95  0.009825907    2.783    0.641
        42 -12.8377    154.1468    246.5498   1.0961892704e+02   5.7872767346e+00      1.21855    0.5573426  41.86  0.006886124    1.769    0.435
        43 -12.3072    159.3087    235.6013   1.0749519079e+02   6.4115925209e+00    0.5744492    0.4548322 -43.55  0.002913977    1.666    0.400
        44 -15.1306    247.4497     73.2563   5.8835515988e+01   1.3570086350e+01     10.29674     2.297163 -30.28   0.02904228    4.229    0.764
        45 -12.5429    235.8743    226.5545   9.3481693483e+01  -5.2247604006e+00    0.3978059    0.2894789  16.56 0.0004556837    1.238    0.192
        46 -13.6066    225.7453    198.4169   9.0479546790e+01  -2.2412140039e-01     2.445143     1.033491  25.73  0.008602072    4.198    0.762
        47 -14.4152    245.0787    132.5638   7.3702709755e+01   5.2182415510e+00     4.661066      1.32012 -28.74    0.0143184    4.051    0.753
        48 -13.0243    225.6097    240.0927   9.7187799661e+01  -4.9966324740e+00    0.8610761    0.5339013 -27.64  0.005696785    1.974    0.493
        49 -12.9283    229.5556    230.9593   9.5191305513e+01  -4.6716475914e+00    0.7056531    0.3671915 -37.64  0.002098887    2.437    0.590
        50 -12.4592    238.4007    217.2547   9.1568984369e+01  -4.6322748530e+00    0.4454292    0.3132966   3.86 0.0006657967    1.462    0.316
        51 -13.5445    234.2153    174.4768   8.4532186738e+01   1.3778462060e+00     1.711527    0.8360109 -37.07  0.008082954    2.208    0.547
        52 -13.2972    248.1051    174.9508   8.2262381319e+01  -1.2563006171e+00     1.384865    0.5189653 -28.33  0.005764143    2.863    0.651
        53 -13.6879    247.2723    158.9684   7.9136831110e+01   1.0192672083e+00     2.442081    0.8118314 -22.29  0.006978415    5.632    0.822
        54 -12.9276    225.4139    189.5231   8.8934254581e+01   9.9190036268e-01     1.454614    0.6167443  24.73  0.004542367    5.159    0.806
        55 -14.2071    220.4242    183.3797   8.8669181368e+01   2.7545489063e+00     1.654018     1.283384   3.31  0.009802043    1.357    0.263
        56 -12.0747    233.8260    210.3647   9.1174842505e+01  -3.0869060283e+00    0.3966363    0.2586746  16.70 0.0004433082    1.557    0.358
        57 -13.9728    244.0145    240.4718   9.4322729760e+01  -7.9008063814e+00     1.177092    0.8027823 -11.55  0.008337816    1.616    0.381
        58 -13.1005    220.1375    221.7476   9.5317487107e+01  -2.0918262901e+00    0.7969733    0.6070584  51.71  0.004309126    1.432    0.302
        59 -12.8302    227.8587    218.0036   9.3433696552e+01  -2.9599116820e+00    0.5070965     0.409296 -31.58  0.002772968    1.522    0.343
        60 -14.2178    240.4913    202.6725   8.8733899492e+01  -3.3253255610e+00     1.656849    0.8461761 -11.12  0.007674736    2.904    0.656
        61 -13.0890    248.6380    202.4490   8.7347809608e+01  -4.6796905589e+00    0.8967113    0.4275411  -9.44  0.003800068    3.508    0.715
        62 -12.5946    247.5916    224.1995   9.1215435592e+01  -6.8538120910e+00    0.4383922    0.2968023  15.43 0.0005184308    1.333    0.250
        63 -13.1323    248.0899    214.1462   8.9468764075e+01  -5.8809787051e+00    0.5424183    0.3243778 -10.30  0.001502153    1.895    0.472
        64 -10.0263    184.6193    250.0130   1.0511407153e+02   4.8376898267e-01    0.3610368    0.1731686  45.92  0.001268683    1.565    0.361
        65 -12.7813    191.6085    244.4818   1.0328729573e+02  -2.4760891443e-03     0.303201    0.2290932  31.05  0.000305842    1.200    0.167
        66  -9.9421    186.5442    245.4781   1.0423689782e+02   7.0233400290e-01    0.1865845    0.1526491  53.73 7.726673e-05    1.230    0.187
        67  -9.8442    101.4661    250.6110   1.1835728676e+02   1.3193888732e+01    0.1961554   0.07759285  46.14 0.0001515874    1.938    0.484
        68 -10.4148     87.6086    249.6976   1.2040423562e+02   1.5250017983e+01    0.2133859    0.1519502  48.89 0.0006290779    1.346    0.257
        69 -10.9348     93.2132    244.4825   1.1913123557e+02   1.5258792623e+01    0.2649476     0.170524  41.63 0.0006602252    1.618    0.382
        70 -10.0719     72.8262    250.4476   1.2267899148e+02   1.7094070722e+01    0.2112996    0.1005932  44.65 0.0009157699    1.812    0.448
        71 -10.7582     61.4496    248.6956   1.2424375746e+02   1.8794452106e+01     0.202651    0.1854142  58.51 0.0007340699    1.668    0.400
        72 -10.8512     46.9276    250.3334   1.2644121323e+02   2.0285052453e+01    0.2194132    0.1139524  42.13  0.001218648    1.963    0.491
        73 -10.2960     16.2600    248.9913   1.3063193062e+02   2.3821614806e+01    0.1827201    0.1617883  68.83 0.0008928055    1.713    0.416
        74  -8.9005      1.6731    250.4373   1.3261985085e+02   2.5026221276e+01    0.1021032   0.06967418  53.60 0.0009271593    1.484    0.326
        75  -9.7435    108.3306    233.0710   1.1569861334e+02   1.4828686629e+01    0.1908975    0.1484441  49.43 0.0004861104    1.256    0.204
        76  -8.8237     64.9663    233.7110   1.2270567850e+02   2.0710442481e+01    0.1467453   0.09988615  60.92 0.0004372085    1.116    0.104
        77 -10.4392     35.5436    230.7876   1.2701025295e+02   2.4674705017e+01    0.2495321    0.1929113 -52.62  0.001391098    2.289    0.563
        78 -10.6376    145.5210    230.9135   1.0925263662e+02   9.3305170833e+00    0.2283279    0.1833105  41.88 0.0004520948    1.218    0.179
        79 -10.4631    123.3568    230.7888   1.1297272309e+02   1.2890772036e+01    0.2459465    0.1917912  32.84 0.0005892645    1.597    0.374
        80 -10.5094    100.3306    230.4993   1.1677145359e+02   1.6410838614e+01    0.1967444    0.1761202  62.95 0.0005831318    1.324    0.245
        81 -10.0981     84.9823    231.4875   1.1936072136e+02   1.8426384329e+01    0.1854654    0.1532505  68.05 0.0005541346    1.202    0.168
        82 -11.1994     54.7742    230.9108   1.2409305131e+02   2.2429771448e+01    0.2363919    0.1725694  44.93 0.0007351737    1.583    0.368
        83  -9.4115      9.8610    231.4543   1.3078021490e+02   2.7220032265e+01    0.1523138    0.1166557  50.70 0.0007745877    1.595    0.373
        84 -10.0856    133.7958    230.3769   1.1117211362e+02   1.1304756167e+01    0.2052141    0.1748221  40.14 0.0005512289    1.319    0.242
        85  -8.9244    130.1776    228.8056   1.1160846859e+02   1.2118655367e+01    0.1471229    0.1203361  41.48 0.0004384775    1.311    0.237
        86  -9.5409     44.6662    229.3765   1.2554803026e+02   2.3878216412e+01    0.1624081    0.1480586 -84.18 0.0006400261    1.643    0.392
        87 -10.6288    113.2403    228.0530   1.1438540495e+02   1.4874797237e+01    0.2244947    0.1774074  63.31 0.0004059225    1.043    0.041
        88  -9.4255    106.9716    228.0396   1.1543418576e+02   1.5822750104e+01     0.166563    0.1343909  58.46 0.0004267147    1.139    0.122
        89  -9.7125    109.8030    224.0200   1.1455290555e+02   1.6040989814e+01    0.2169062    0.1643291  50.57 0.0005050842    1.205    0.170
        90  -9.8987     79.0333    228.2964   1.2005714372e+02   1.9756269327e+01    0.1719609    0.1456525  79.92 0.0003702324    1.262    0.207
        91  -9.1514     29.8033    228.8286   1.2775837180e+02   2.5621984308e+01    0.1377976    0.1080283  77.93 0.0007696021    1.268    0.211
        92 -10.0086    152.8367    227.6544   1.0761448943e+02   8.5951943218e+00      0.25868    0.2060811  21.32 0.0004248281    1.621    0.383
        93 -10.0170    155.3225    223.2893   1.0663593192e+02   8.8120566075e+00    0.2142876    0.1603915  45.02 0.0004108467    1.120    0.108
        94  -9.9025     92.7957    227.7637   1.1776193474e+02   1.7935799852e+01    0.1786725    0.1591957  61.13 0.0005215424    1.350    0.259
        95  -9.9695     19.7915    227.1833   1.2915332051e+02   2.6938184463e+01    0.1705447    0.1337852  86.09 0.0007732844    1.343    0.256
        96  -9.7226      1.5133    227.2092   1.3178409578e+02   2.8698057993e+01    0.1446742   0.08754689  84.87 0.0003927473    1.200    0.167
        97 -10.0099      8.0171    225.1968   1.3077347130e+02   2.8422898336e+01    0.2664113    0.1618448  35.49  0.001440061    2.257    0.557
        98  -9.9927    143.8924    226.0734   1.0895366570e+02   1.0308202613e+01    0.2319174    0.1516714  40.08 0.0003922152    1.413    0.292
        99  -9.5662    138.9820    227.0284   1.0990797323e+02   1.0969615765e+01    0.1747947    0.1404175  49.23 0.0003623796    1.117    0.105
       100 -10.2119     67.8675    226.8798   1.2174320384e+02   2.1462089980e+01    0.2026322    0.1373553  51.60 0.0004527876    1.323    0.244
       101  -9.6039    120.6808    224.6899   1.1277118567e+02   1.4256119657e+01    0.1779571    0.1500774  47.88 0.0006637402    1.260    0.207
       102 -10.0174    129.4723    223.7811   1.1116306363e+02   1.3004302754e+01    0.2132077    0.1630946  38.67 0.0004294205    1.396    0.284
       103  -9.4621    104.3526    223.8655   1.1546099585e+02   1.6886133379e+01    0.1951065    0.1386384  48.04  0.000569394    1.287    0.223
       104  -8.7228     89.5142    224.5609   1.1801559794e+02   1.8926084231e+01    0.1451438   0.09519508  40.97 0.0005926178    1.632    0.387
       105  -8.9470     92.4212    221.6647   1.1726234410e+02   1.8994006632e+01    0.1291453    0.1000333 -67.84 0.0009281447    1.504    0.335
       106  -9.3655    135.6739    222.9058   1.0999153630e+02   1.2136054658e+01    0.1899152    0.1370751  42.91 0.0004974465    1.282    0.220
       107 -10.0800     97.7926    221.9688   1.1638439704e+02   1.8166267905e+01    0.1811453    0.1595638  68.56 0.0004624179    1.250    0.200
       108  -9.1172     82.3735    222.9218   1.1905539866e+02   2.0193643543e+01    0.1442705    0.1148157  83.70 0.0006780802    1.173    0.148
       109 -10.5554     49.7319    222.2779   1.2429965436e+02   2.4478264134e+01    0.2086281    0.1575046  67.75 0.0004474158    1.143    0.125
       110  -9.9092     47.3253    217.7406   1.2437333468e+02   2.5540111891e+01    0.1917715     0.119523 -88.70 0.0006717961    1.358    0.264
       111 -10.6387    148.5260    220.5190   1.0746436280e+02   1.0369547172e+01    0.2215515     0.206191  30.17 0.0002433883    1.301    0.231
       112  -9.2696    114.9241    221.6647   1.1343071263e+02   1.5636483064e+01    0.1623526    0.1510384  84.06 0.0005443327    1.300    0.231
       113  -9.4237     74.1731    222.1304   1.2034236625e+02   2.1434738664e+01    0.1482739    0.1246769  70.70 0.0003505957    1.239    0.193
       114 -10.0789     39.8986    221.0111   1.2576319288e+02   2.5828976666e+01    0.1905334     0.185841  31.85 0.0008682078    1.870    0.465
       115  -9.4379     28.6967    221.8760   1.2754303222e+02   2.6905060495e+01    0.1470071     0.114003  62.05  0.000578824    1.321    0.243
       116  -9.7242     15.5895    221.2710   1.2948415911e+02   2.8347432903e+01     0.164092    0.1365018 -86.17 0.0008243058    1.511    0.338
       117  -9.6890    140.6814    220.1531   1.0878899348e+02   1.1736651526e+01     0.203248    0.1578482  42.55 0.0003627394    1.230    0.187
       118  -8.6798    124.5432    220.9991   1.1169747807e+02   1.4231428920e+01    0.1469715    0.1119938 -68.05  0.000470196    1.502    0.334
       119  -8.9094     68.0812    221.0101   1.2125126632e+02   2.2423134205e+01    0.1330507    0.1263096 -82.20 0.0004201953    1.597    0.374
       120  -9.6229     59.4174    220.5551   1.2262670985e+02   2.3598508372e+01    0.1776124    0.1436351  74.30 0.0005453923    1.200    0.166
       121 -12.7031    207.9868    201.9185   9.4177259563e+01   2.5186361654e+00     1.043492     0.527715 -20.27  0.004544439    3.261    0.693
       122  -8.9558    154.4209    218.6683   1.0619257846e+02   9.6489558275e+00    0.1643277    0.1302836  26.18 0.0007436458    1.496    0.332
       123 -10.2870    158.9883    217.6324   1.0525150153e+02   9.0207150924e+00    0.2200252    0.1771064  35.60 0.0003784718    1.248    0.199
       124  -9.0572    128.8138    218.8917   1.1071130986e+02   1.3881299038e+01     0.165848    0.1397952  48.01 0.0004531902    1.206    0.171
       125  -9.4664    109.1362    219.1227   1.1415698408e+02   1.6942348173e+01    0.1594926    0.1386582  52.32  0.000422864    1.280    0.219
       126  -8.4790     88.4336    219.5579   1.1773857570e+02   1.9915468080e+01    0.1109588   0.08695977  67.19 0.0001012883    1.062    0.058
       127  -9.0142    135.9425    217.8968   1.0934270902e+02   1.2873316998e+01    0.1707903    0.1406456  40.83 0.0003368593    1.275    0.216
       128  -8.6934    104.2078    218.5443   1.1494660131e+02   1.7784998815e+01    0.1436328   0.09713025  41.66 0.0004599012    1.514    0.340
       129  -8.6754     95.4301    217.7388   1.1637405702e+02   1.9219280839e+01    0.1312448    0.1023521 -65.38 0.0006044941    1.514    0.340
       130 -10.2923      7.9859    216.1401   1.3037156627e+02   2.9949074611e+01    0.2172199     0.167338 -60.87   0.00165138    1.986    0.496
       131  -9.6077    119.8593    216.6741   1.1202257802e+02   1.5675904111e+01    0.1642442    0.1513128  81.09 0.0003904337    1.241    0.194
       132  -8.7281     76.9286    217.1720   1.1946360745e+02   2.1912463909e+01     0.133625    0.1151519  65.23 0.0004194225    1.290    0.225
       133  -8.9032     21.7010    216.8397   1.2833519406e+02   2.8491481523e+01    0.1403934    0.1006586 -77.42 0.0008518282    1.480    0.324
       134 -10.5186    179.8494    215.3808   1.0126283076e+02   5.7085537967e+00    0.2355439    0.1796257  32.02 0.0003040716    1.251    0.201
       135  -9.0602    150.9845    215.4672   1.0637681609e+02   1.0721691916e+01     0.167309    0.1461882  57.98 0.0001244862    1.085    0.078
       136  -9.6810     83.0343    215.3733   1.1826865947e+02   2.1387408584e+01    0.1795799    0.1591993  85.66 0.0006305304    1.307    0.235
       137  -8.7060     72.2341    216.5962   1.2020181133e+02   2.2638654286e+01    0.1350318   0.09302457  43.92 0.0004480169    1.540    0.351
       138 -10.1663     31.0133    214.3447   1.2674706051e+02   2.7954227278e+01    0.1942121     0.158624 -72.84 0.0006944114    1.592    0.372
       139 -10.9317    171.1169    213.6219   1.0254888813e+02   7.4982992664e+00    0.2525594    0.2241359  63.74 0.0004143814    1.179    0.152
       140  -9.9692    165.7481    213.8573   1.0353532940e+02   8.4068092370e+00    0.2144205    0.1723108  29.76 0.0004436107    1.316    0.240
       141  -8.8837    167.5585    207.9622   1.0236223271e+02   8.9697612074e+00    0.2059143    0.1515463 -70.14 0.0008184667    1.817    0.450
       142  -9.9963    143.3745    214.4001   1.0758928603e+02   1.2182363889e+01    0.2183363    0.1789298  35.77 0.0004833828    1.323    0.244
       143  -8.8864    124.0998    215.3251   1.1112084556e+02   1.5219078783e+01    0.1669547    0.1233009  55.85 0.0004942829    1.090    0.083
       144  -8.6847    107.0010    215.4905   1.1414181057e+02   1.7873915291e+01     0.169449   0.09597186  47.12 0.0004164902    1.498    0.332
       145  -8.5403     90.5532    215.5033   1.1699341876e+02   2.0304748701e+01    0.1130009   0.08941717  67.99 0.0001348394    1.056    0.053
       146  -9.6520    131.9404    213.5269   1.0951461043e+02   1.4233619802e+01    0.1906742    0.1701118  32.54 0.0004168461    1.382    0.276
       147  -9.9076    154.6490    212.2776   1.0529487942e+02   1.0581389877e+01     0.210803     0.178636  38.97   0.00038717    1.189    0.159
       148  -8.2558    138.2633    213.6777   1.0840708138e+02   1.3157518356e+01    0.1178118    0.0821503  73.33 0.0002202395    1.557    0.358
       149  -9.1001    117.4368    212.6226   1.1198599333e+02   1.6732186034e+01    0.1709427    0.1293515  35.35 0.0006001393    1.561    0.359
       150  -8.8116    111.1773    213.0847   1.1314649088e+02   1.7637094456e+01    0.1523531    0.1300434 -32.07 0.0005110715    1.868    0.465
       151  -8.4893    102.5753    213.4573   1.1469982373e+02   1.8889286099e+01    0.1158523   0.09202605  66.29 7.202447e-05    1.025    0.024
       152  -9.5215     96.8739    212.3142   1.1557912218e+02   1.9935353195e+01    0.1805167    0.1537098 -78.17 0.0004754987    1.315    0.240
       153  -9.6069     63.1312    212.9040   1.2142119121e+02   2.4461677992e+01    0.1711257    0.1438715  55.74 0.0006821777    1.380    0.275
       154  -9.6666     51.2970    212.8367   1.2338057711e+02   2.5928327575e+01    0.1498331    0.1416886  -1.41  0.001193329    1.978    0.494
       155  -9.1640     40.9810    212.7800   1.2505781044e+02   2.7134637300e+01    0.1410916    0.1188267  78.98 0.0006206082    1.322    0.243
       156  -8.8965     74.2970    212.5096   1.1950051619e+02   2.3077397810e+01    0.1306133   0.09664499  44.83 0.0008535545    1.479    0.324
       157  -9.8622     17.7248    210.9479   1.2863163594e+02   2.9911403556e+01    0.1926396    0.1520762 -58.20   0.00112291    1.966    0.491
       158  -9.0566    125.0736    210.9350   1.1042436498e+02   1.5786292749e+01    0.1609368    0.1413922  21.66 0.0004161596    1.574    0.365
       159  -9.7759     25.3774    210.4230   1.2740355763e+02   2.9232875134e+01    0.1697293    0.1434227 -82.61 0.0007417055    1.489    0.328
       160  -9.0976    149.2310    210.1611   1.0597961307e+02   1.1850049136e+01    0.1703879    0.1465828  42.65 0.0003775748    1.167    0.143
       161  -9.1593    106.8042    210.0130   1.1358099694e+02   1.8837166544e+01    0.1571272    0.1441672  62.67 0.0004506713    1.279    0.218
       162 -10.6061    177.0101    208.3185   1.0071594640e+02   7.2259757095e+00    0.2450117    0.1879341  35.51 0.0002944395    1.197    0.165
       163 -10.6555    161.3175    208.5096   1.0356811135e+02   9.9942989389e+00    0.2202309    0.1903318  37.64 0.0003129183    1.162    0.139
       164  -8.9752     93.4797    208.9093   1.1582581340e+02   2.1027272806e+01    0.1524708    0.1051145 -69.51 0.0005721544    1.522    0.343
       165  -9.2010     78.3448    208.5307   1.1844247199e+02   2.3234422256e+01    0.1629093    0.1426261  55.14 0.0004887981    1.371    0.270
       166  -9.1870    146.0817    207.6543   1.0620896743e+02   1.2794488880e+01    0.1776838     0.169182 -44.90 0.0004198215    1.323    0.244
       167  -9.8878    149.6347    204.9703   1.0519035936e+02   1.2609753273e+01    0.2937593    0.2237734 -42.52  0.001729762    1.643    0.391
       168  -8.6726    134.8498    208.0954   1.0830636533e+02   1.4638522550e+01    0.1487539    0.1370074  37.26 0.0004583009    1.299    0.230
       169  -8.9550     72.8085    207.6405   1.1932204988e+02   2.4140352050e+01    0.1498563    0.1225074  50.58 0.0004943319    1.377    0.274
       170  -9.5363    113.9839    206.9160   1.1194024676e+02   1.8251243280e+01    0.3232866    0.1777644  35.26  0.001692075    2.172    0.540
       171 -10.3495     46.7084    206.3195   1.2366197607e+02   2.7630885629e+01    0.1873814    0.1634089  63.00 0.0004157639    1.410    0.291
       172  -9.0649     31.9028    206.7838   1.2613523222e+02   2.9195548259e+01    0.1423824    0.1171378  87.77 0.0006461749    1.317    0.241
       173 -10.3883    186.8683    201.0441   9.7802747904e+01   6.5020828501e+00    0.2226804    0.1821101  37.45 0.0003487545    1.061    0.057
       174  -9.3956    171.3339    206.0505   1.0139600705e+02   8.5827191661e+00    0.2082876    0.1518289  46.43 0.0004811452    1.143    0.125
       175 -10.4043    124.4885    205.8675   1.0990677229e+02   1.6735966146e+01    0.2669487    0.1655778  41.77            0    1.530    0.346
       176  -9.6389    120.1574    206.0315   1.1071528530e+02   1.7414405120e+01    0.1985894    0.1465292  53.66 0.0005015464    1.137    0.121
       177  -8.5917     66.1547    206.6192   1.2038192858e+02   2.5195613808e+01    0.1364988    0.0966678  40.36 0.0004049837    1.656    0.396
       178  -9.1080     11.6560    206.3286   1.2933244026e+02   3.1308494219e+01    0.1099653   0.04950213  68.23 0.0007050791    1.748    0.428
       179  -9.5705    156.5326    204.9867   1.0393114334e+02   1.1391845273e+01    0.2066683    0.1524172  37.86 0.0004118652    1.303    0.232
       180  -9.0723    104.0279    205.1816   1.1353983082e+02   2.0105928426e+01    0.1614744    0.1438392  58.15 0.0004399647    1.249    0.199
       181  -9.8411     86.3609    204.8345   1.1667257675e+02   2.2778545520e+01    0.1893641    0.1594523  55.83 0.0004447549    1.268    0.212
       182 -10.1871    139.6178    202.7829   1.0672857425e+02   1.4710231077e+01    0.2465301    0.2178271 -87.96 0.0009420345    1.206    0.171
       183  -9.3219    109.8503    202.9141   1.1222034613e+02   1.9603038507e+01    0.2023474    0.1793354  -5.92  0.001105636    1.854    0.461
       184 -10.2187      6.5795    203.8763   1.2999900309e+02   3.2212121781e+01    0.1879823    0.1399963  35.47 0.0005483958    1.929    0.482
       185  -9.7944    179.1431    202.2007   9.9387626943e+01   7.7458162011e+00    0.2030654    0.1718807  37.79  0.000367238    1.070    0.066
       186  -9.9210     55.9802    201.9476   1.2174393956e+02   2.7322544162e+01    0.1786782     0.159387  89.85 0.0004867066    1.383    0.277
       187  -9.8169     20.9433    202.2635   1.2763309843e+02   3.1136268868e+01    0.1734853    0.1160891 -82.08 0.0004454538    1.312    0.238
       188  -9.3077    173.1303    202.0424   1.0045797186e+02   8.8662483078e+00    0.1870755     0.160003  43.74 0.0004160345    1.031    0.030
       189 -10.6268    165.1785    199.9426   1.0159471256e+02   1.0639167317e+01    0.2631031    0.2199136  29.76  0.000537682    1.263    0.208
       190  -8.9931    162.3020    197.3255   1.0172677739e+02   1.1580603452e+01    0.1809735    0.1239158 -49.28 0.0002997754    1.708    0.414
       191  -9.4584    144.5684    200.5345   1.0550001518e+02   1.4226002494e+01    0.2136546    0.1753506  51.62 0.0005391344    1.055    0.052
       192  -9.9427    131.2331    200.2115   1.0793412135e+02   1.6579991559e+01    0.1968364    0.1721473  60.81 0.0004274515    1.077    0.071
       193 -10.3062     98.1959    200.2965   1.1405130365e+02   2.1865503629e+01    0.2145955    0.1709225  81.66  0.000417281    1.113    0.101
       194  -9.9261     69.4581    200.1953   1.1922884798e+02   2.5937579005e+01    0.1788608    0.1519931  63.49 0.0004416366    1.256    0.204
       195  -9.9801    183.6023    205.4644   9.9094459218e+01   6.4535799243e+00    0.2306143    0.1848256  25.07 0.0005663692    1.285    0.222
       196  -8.9687    155.0245    200.3072   1.0352740036e+02   1.2411875209e+01    0.1781716    0.1368241  48.57 0.0003202287    1.104    0.094
       197  -9.1016     41.3125    199.5621   1.2407381709e+02   2.9478952819e+01    0.1518773    0.1090199 -65.66 0.0007679198    1.620    0.383
       198  -8.9672     80.6560    199.0248   1.1710840122e+02   2.4639656540e+01    0.1528405    0.1232445  86.61 0.0004321808    1.123    0.109
       199  -8.6790     74.9831    198.9534   1.1812396453e+02   2.5430823008e+01     0.137196    0.1060736  73.05 0.0003861054    1.008    0.008
       200  -8.9399    103.8862    198.1457   1.1275568597e+02   2.1387317138e+01      0.14531    0.1332894  60.39 0.0003195215    1.266    0.210
       201  -9.2214    149.0943    196.5106   1.0407404135e+02   1.4099304607e+01    0.1769668    0.1579942  58.84 0.0004692824    1.057    0.054
       202  -8.7285      7.1968    197.6136   1.2958363089e+02   3.3276658187e+01    0.1092128   0.08824829  48.44 0.0003919885    1.585    0.369
       203  -9.8839    176.2588    195.3606   9.8823677524e+01   9.3213565403e+00    0.2020636    0.1963793  42.69 0.0002923296    1.137    0.121
       204  -9.5308    169.8424    195.8112   1.0008680443e+02   1.0439306928e+01     0.247089    0.1601439  48.31 0.0006991115    1.328    0.247
       205  -8.4240    156.9997    196.2711   1.0255570670e+02   1.2716363469e+01    0.1594511   0.09799992  46.54 0.0003442208    1.392    0.282
       206  -9.1315    140.6297    195.5878   1.0553305068e+02   1.5755200889e+01    0.1638055    0.1405438  23.19 0.0004617111    1.461    0.316
       207  -9.0591    124.9000    196.3298   1.0860071449e+02   1.8325655460e+01    0.1745892    0.1338158  49.51 0.0004756361    1.178    0.151
       208  -9.1487     88.9702    195.8431   1.1525371040e+02   2.4047263799e+01    0.1611092    0.1493036  77.20 0.0005217411    1.297    0.229
       209  -9.0153     60.8585    195.8823   1.2036630731e+02   2.7843970447e+01    0.1539011    0.1326254  87.73 0.0004534819    1.261    0.207
       210 -10.4791    184.1721    194.3392   9.7194318727e+01   8.0027795901e+00     0.292514    0.1968146  41.06  0.001203699    1.286    0.223
       211  -8.3785     31.3576    195.3181   1.2546291663e+02   3.1345059916e+01   0.09239515   0.07627144 -58.40 0.0007044689    1.756    0.431
       212  -9.2757     16.8869    194.9056   1.2785943412e+02   3.2871471355e+01    0.1432883    0.1110747 -85.90 0.0004544553    1.288    0.224
       213  -9.7252    132.9358    193.3425   1.0667120513e+02   1.7486799104e+01    0.2012321    0.1791779 -71.31   0.00044816    1.238    0.192
       214  -9.2827    112.7077    193.5537   1.1053983012e+02   2.0830722724e+01    0.2347705    0.1630283 -74.24  0.001288767    1.518    0.341
       215  -8.5837     54.4730    194.4818   1.2138023599e+02   2.8893334492e+01     0.111196   0.08606939  78.99 0.0004999379    1.053    0.051
       216  -9.2865     36.0906    193.1210   1.2449508009e+02   3.1251513641e+01    0.1479098    0.1225356 -83.93 0.0005016297    1.327    0.247
       217  -8.2974    157.4910    192.4487   1.0187510065e+02   1.3260315124e+01    0.1298641    0.1117929  47.80 0.0001191921    1.051    0.049
       218  -8.8447    152.0594    192.2667   1.0287663922e+02   1.4281562209e+01    0.1754209     0.146575  53.55 0.0003276112    1.028    0.027
       219  -9.4299     26.7842    191.8932   1.2600708493e+02   3.2455852819e+01    0.1487672    0.1164693 -84.75  0.000585579    1.271    0.214
       220  -9.4978    146.0881    191.0334   1.0382659256e+02   1.5571457140e+01    0.1912694    0.1681019  58.39 0.0004003998    1.028    0.027
       221  -9.1653     49.1388    198.1714   1.2262226829e+02   2.8838685036e+01    0.1495874    0.1294075 -86.17 0.0006611111    1.354    0.262
       222  -8.1388     49.3300    191.3435   1.2202907103e+02   3.0098553607e+01   0.09845316    0.0816443 -53.68 0.0007050894    1.750    0.429
       223  -9.9188     14.6148    190.3931   1.2796724975e+02   3.3920189295e+01    0.1783022    0.1264879 -54.20 0.0007579398    2.066    0.516
       224  -8.8280      9.3859    190.7924   1.2885892537e+02   3.4325322939e+01    0.1323412    0.0716553 -74.08 0.0004139389    1.600    0.375
       225  -9.2230    139.9232    189.7988   1.0482295936e+02   1.6888497087e+01     0.184253     0.163181  38.38 0.0004856062    1.233    0.189
       226  -8.3264     96.6821    190.6338   1.1321581159e+02   2.3878513986e+01     0.108854   0.09719043 -24.44 0.0007038845    1.779    0.438
       227  -9.3648     63.9666    190.0170   1.1926115413e+02   2.8561463975e+01    0.1648293    0.1377331  84.16 0.0004536127    1.155    0.134
       228  -9.7472    172.7304    188.9804   9.8434244555e+01   1.0994783956e+01    0.2155944    0.1676512  43.27 0.0004197766    1.126    0.112
       229  -9.9479    161.9809    190.1644   1.0066301881e+02   1.2812937162e+01    0.1971419    0.1895954 -29.06 0.0003502271    1.227    0.185
       230  -9.8678    178.8380    187.5525   9.7042558958e+01   1.0066979234e+01    0.2630232    0.2153002 -83.94  0.001130298    1.599    0.375
       231  -9.5728    134.2912    187.1418   1.0551702217e+02   1.8357358003e+01    0.2768302    0.2112246 -83.87  0.001325561    1.460    0.315
       232  -8.7950    134.4751    183.4203   1.0492522881e+02   1.9000782816e+01    0.1851195    0.1270375 -56.37 9.633826e-05    1.596    0.373
       233  -8.7790     89.9177    188.3283   1.1422901439e+02   2.5323677402e+01    0.1598297    0.1288045  61.56 0.0003319588    1.122    0.108
       234  -8.6841      1.4027    187.8222   1.3001058879e+02   3.5569958098e+01    0.1335136   0.06901922 -73.53 0.0006443607    1.659    0.397
       235  -9.4191    157.0009    186.4997   1.0102580742e+02   1.4356652631e+01    0.2089827    0.1840943 -11.09 0.0004731077    1.459    0.315
       236  -9.2795     20.7928    186.1376   1.2664935904e+02   3.4132472570e+01    0.1691912     0.113516 -68.94 0.0004612458    1.540    0.351
       237  -9.4621    150.8715    185.5974   1.0206482484e+02   1.5646470530e+01    0.1838198     0.180786 -23.52 0.0004051304    1.216    0.178
       238  -9.2576    128.4684    185.8021   1.0645323215e+02   1.9616459099e+01    0.1805165    0.1637609  38.35 0.0004607124    1.276    0.216
       239  -8.4612      7.3210    186.3618   1.2895165555e+02   3.5331084960e+01   0.09363372    0.0656658 -62.14 0.0007042068    1.775    0.437
       240  -9.3448    173.4540    183.6449   9.7393229426e+01   1.1728672016e+01    0.2218057     0.181247  50.07 0.0004514466    1.096    0.088
       241  -9.3790    166.8061    183.7647   9.8687642669e+01   1.2977362847e+01    0.1973038      0.17723 -18.14  0.000456233    1.334    0.250
       242  -9.0672     34.4838    184.5033   1.2412788992e+02   3.3060983293e+01    0.1475453    0.1061515  27.52  0.000747583    2.118    0.528
       243  -8.7611     26.7889    184.4090   1.2548537169e+02   3.3871524797e+01    0.1192203   0.09924167  41.30 0.0005990869    1.622    0.383
       244  -8.3667    109.5968    183.7488   1.0985485977e+02   2.3161630586e+01    0.1153616   0.09779684  19.47 0.0005757028    1.705    0.414
       245  -8.4786    103.7423    183.7464   1.1099934910e+02   2.4096373700e+01    0.1006759   0.09845337  12.56 0.0001830468    1.430    0.301
       246  -8.9295    154.9756    181.9451   1.0067608329e+02   1.5523394576e+01    0.1890349     0.157344   9.95 0.0004083065    1.584    0.369
       247  -8.6556     67.1641    182.6388   1.1792984991e+02   2.9577919863e+01      0.14179    0.1055896  37.42 0.0004415848    1.654    0.395
       248  -8.6012      9.2970    182.2981   1.2838094398e+02   3.5920085039e+01   0.09025877   0.06743111 -67.23 0.0003687757    1.572    0.364
       249  -9.4440    197.5998    180.8487   9.2341383703e+01   7.5032135604e+00    0.2121985    0.1632576  33.38 0.0004660444    1.189    0.159
       250  -9.7968    183.7352    180.7719   9.4930556102e+01   1.0212349314e+01    0.2130556    0.1825184  21.18 0.0004677698    1.218    0.179
       251  -8.9025     54.8683    180.3164   1.2002409269e+02   3.1574166299e+01    0.1976446    0.1251938 -51.52  0.001197167    2.096    0.523
       252  -8.5467     46.6009    181.2101   1.2165062102e+02   3.2368502029e+01     0.146178   0.08700734 -66.27 0.0005143356    1.620    0.383
       253  -9.5580    176.8347    178.9654   9.5925514243e+01   1.1850270995e+01    0.2457953    0.1956924  27.99 0.0004347726    1.307    0.235
       254  -9.6236    173.4181    179.5192   9.6681547736e+01   1.2421262126e+01    0.5867611    0.1989759  34.45  0.001597842    5.684    0.824
       255  -8.8175    160.1642    179.7521   9.9295959228e+01   1.4927236055e+01     0.171051     0.149442  21.70 0.0004785984    1.305    0.234
       256  -8.4480    165.4607    179.0083   9.8134851728e+01   1.4043536903e+01     0.172387    0.1343079 -46.24 0.0003023287    1.444    0.307
       257  -9.1803    145.7728    178.8607   1.0198067957e+02   1.7786044089e+01    0.1850878    0.1720324  39.56 0.0004883588    1.169    0.145
       258  -8.7957     34.8322    179.2341   1.2364898577e+02   3.4045966807e+01    0.1334846    0.1119193 -79.22 0.0004101433    1.331    0.249
       259  -8.5824     95.4304    182.5098   1.1246476033e+02   2.5619964008e+01     0.119572    0.1058901  77.96 0.0001040532    1.127    0.112
       260 -10.3077    134.3880    177.2247   1.0398617462e+02   2.0161988383e+01    0.2498538     0.208822  76.37 0.0005853369    1.164    0.141
       261  -8.9023     26.2258    177.8030   1.2510236192e+02   3.5202655978e+01    0.1369239    0.1076025 -74.10 0.0006954364    1.365    0.268
       262 -10.1862    190.5760    176.7260   9.2895381240e+01   9.5229774418e+00    0.2907895    0.2092375  42.66 0.0003197208    1.238    0.192
       263  -9.3749    169.6023    176.3144   9.6854592899e+01   1.3705429210e+01    0.2036314    0.1668074 -29.26 0.0005923561    1.444    0.307
       264  -8.7261     11.3041    177.3189   1.2772609080e+02   3.6691135816e+01   0.09384602   0.06806739 -63.78 0.0003416635    1.629    0.386
       265  -9.4783      6.7604    177.1886   1.2851051131e+02   3.7110580057e+01    0.1317134    0.1000714 -76.38 0.0006984334    1.366    0.268
       266  -9.4616    150.0510    175.2624   1.0053335498e+02   1.7641216168e+01    0.2043063    0.1948066 -80.30 0.0004197301    1.129    0.114
       267  -9.7784    197.8335    174.7737   9.1161232795e+01   8.3993956068e+00    0.2216728    0.1909891  24.91 0.0005074178    1.108    0.097
       268  -8.7068    181.4925    161.5192   9.1734034362e+01   1.3884169002e+01      0.18861    0.1372174 -27.32 0.0006449763    1.609    0.379
       269  -9.9747    182.4917    174.0088   9.3934724046e+01   1.1562487510e+01    0.3245596    0.2489676  11.46  0.001036373    1.626    0.385
       270  -9.7377    187.6767    171.0149   9.2373934459e+01   1.1025308607e+01    0.2517668    0.1987513  29.82 0.0003935346    1.254    0.203
       271  -9.7837    183.9297    169.6696   9.2840839233e+01   1.1999635355e+01    0.2383288      0.20172 -46.44 0.0004949609    1.318    0.241
       272 -11.1425    175.9823    171.9120   9.4809381523e+01   1.3205623592e+01    0.5223106    0.4355645  33.69  0.003031348    1.170    0.145
       273 -10.2900    179.0034    166.4853   9.3193705697e+01   1.3531992297e+01    0.3105976    0.2652052  11.46 0.0003329657    1.327    0.246
       274  -8.9127    139.9241    175.0306   1.0252362937e+02   1.9566922557e+01    0.1860946    0.1606837   7.95 0.0004204279    1.569    0.363
       275 -10.0439    161.3885    173.7223   9.8011271580e+01   1.5752068371e+01    0.2393091    0.2020803  35.54 0.0004018537    1.193    0.162
       276  -8.9234     20.1691    179.5742   1.2631374532e+02   3.5445656325e+01    0.1146514    0.1009914  37.77 0.0006482375    1.665    0.399
       277  -9.4504    128.9802    172.6221   1.0434962629e+02   2.2000094333e+01    0.1869576    0.1774125 -69.99 0.0004052137    1.184    0.155
       278  -9.3604     24.1595    172.2729   1.2506126285e+02   3.6487711885e+01    0.1697233    0.1457527 -65.84 0.0008314003    1.511    0.338
       279  -9.2538      2.7188    173.0087   1.2896461710e+02   3.8247881240e+01    0.1490851   0.09908165  88.24 0.0005563137    1.071    0.066
       280 -10.0642    193.0210    171.3369   9.1413729873e+01   9.9035492949e+00    0.2298113    0.2006294 -27.65 0.0002883862    1.251    0.201
       281  -9.4987      8.5063    171.9036   1.2787423338e+02   3.7978260258e+01    0.1552781   0.07750216 -79.79 0.0005904558    1.538    0.350
       282  -8.2969    107.3354    171.3129   1.0857222929e+02   2.5947913336e+01    0.1173107    0.1045363  -9.34 0.0007045704    1.686    0.407
       283  -8.1017    102.5022    171.4957   1.0958673406e+02   2.6689169157e+01    0.1257446    0.1121141  77.33 -3.78622e-07    1.082    0.076
       284  -8.8239     89.5897    171.5495   1.1222406110e+02   2.8664426664e+01     0.123364    0.1049424  82.24 0.0001895228    1.036    0.035
       285  -9.6129    201.0340    169.6018   8.9562594432e+01   8.5756529735e+00    0.3056915    0.2396809 -24.76 0.0006363902    1.397    0.284
       286 -10.1451    205.0532    167.1136   8.8318126196e+01   8.1593690012e+00    0.2295736     0.199366   7.27  0.000355572    1.172    0.147
       287  -9.1968    197.4296    168.4658   9.0019767888e+01   9.4809382196e+00     0.223069    0.1927588 -15.40 0.0005884526    1.251    0.201
       288 -10.1531    199.7310    162.8479   8.8464460259e+01   9.9202652152e+00    0.3812636    0.2417568 -31.97 0.0007485035    1.734    0.423
       289  -8.2334     44.6209    170.6854   1.2106260559e+02   3.4682135223e+01    0.1038836   0.08299085 -47.10 0.0007026155    1.806    0.446
       290  -8.7108    158.2514    168.8432   9.7767925699e+01   1.7237316609e+01    0.1775166    0.1570166  16.30 0.0004701238    1.324    0.245
       291  -8.5687    143.4477    169.4749   1.0088074480e+02   1.9953475918e+01    0.1340131    0.1225807  58.19 0.0003078523    1.045    0.043
       292  -8.3123     94.7651    169.3308   1.1086999149e+02   2.8331684850e+01    0.1256309   0.08526085  83.17 0.0002650119    1.530    0.346
       293  -9.5440      3.7913    169.3938   1.2855640158e+02   3.8857314006e+01    0.1090345   0.09880169  38.98  0.000629381    1.650    0.394
       294 -10.3654    221.4334    160.2883   8.3914280752e+01   5.9053484145e+00    0.2725094    0.2276815  -8.87 0.0003927287    1.208    0.172
       295  -9.4499    221.9557    154.9738   8.2700532135e+01   6.6056248167e+00    0.2202345    0.1873027 -19.66 0.0003569434    1.187    0.158
       296 -10.0621    221.3067    150.7632   8.1913624328e+01   7.3869586348e+00    0.2718254    0.2206582 -16.21 0.0003440412    1.251    0.201
       297  -8.7584    134.9884    167.9086   1.0234903231e+02   2.1821079905e+01     0.189331    0.1638387  -2.86 0.0004970975    1.617    0.382
       298  -8.4583     37.3556    168.3040   1.2224388849e+02   3.5949934078e+01    0.1015215   0.08030356 -51.89 0.0007039986    1.714    0.417
       299  -9.3959      8.6923    167.6357   1.2756152099e+02   3.8793947006e+01    0.1443596    0.1032796 -60.09 0.0007944031    1.682    0.406
       300  -9.4537    169.8318    166.4738   9.5008661725e+01   1.5376495722e+01    0.2162353    0.1948295 -47.03 0.0003190171    1.216    0.177
       301  -8.6347     84.8985    167.3790   1.1263565930e+02   3.0199581693e+01    0.1491482    0.1154928  35.42 0.0003369303    1.583    0.368
       302  -8.6168     24.6763    167.6963   1.2460763563e+02   3.7345898026e+01   0.09838549   0.07446316 -58.24 0.0004559174    1.638    0.390
       303  -8.8003    150.2343    166.8107   9.9029830240e+01   1.9163896792e+01    0.1745878    0.1581824  11.45 0.0003602396    1.334    0.250
       304  -8.7817    127.8649    165.9210   1.0349266325e+02   2.3499675283e+01     0.181084    0.1747714  31.97 0.0002903812    1.240    0.194
       305 -11.2274    218.6507    165.6700   8.5524910447e+01   5.6548058050e+00    0.2941459    0.2378617  -0.23 0.0009011759    1.285    0.222
       306  -8.5521     44.8161    165.3618   1.2051067138e+02   3.5739895941e+01    0.1312652    0.1079014  33.45 0.0004042608    1.652    0.395
       307 -10.0261    191.9251    163.0276   8.9996010511e+01   1.1489027075e+01    0.2547151    0.1997621 -26.49 0.0005356628    1.411    0.291
       308  -9.4481    184.8174    163.5511   9.1481906794e+01   1.2854565348e+01    0.2208356    0.1965316 -27.68 0.0005191664    1.222    0.182
       309  -8.8717    159.5500    163.2415   9.6476046415e+01   1.8007726268e+01    0.1738893    0.1349067 -31.27 0.0003554163    1.544    0.353
       310  -9.6008    120.2746    163.1646   1.0462821825e+02   2.5390623242e+01    0.1995754    0.1734487  44.78 0.0005015986    1.223    0.182
       311  -8.2639     80.6494    163.6766   1.1302847608e+02   3.1569644154e+01    0.1148376   0.09764113 -32.58 0.0007048466    1.751    0.429
       312  -8.7820     17.3148    163.3583   1.2565814823e+02   3.8892780987e+01    0.1025882   0.06939673 -57.53 0.0007043774    1.749    0.428
       313 -10.8321    213.0801    160.3108   8.5444016986e+01   7.5950242339e+00    0.3085961    0.2386744 -33.48 0.0003868751    1.368    0.269
       314  -8.9528    172.5706    162.2981   9.3662767288e+01   1.5566830830e+01    0.1696515    0.1364902 -28.37 0.0003261093    1.433    0.302
       315 -10.7385      9.4949    160.9846   1.2695593569e+02   4.0039630808e+01    0.3204208    0.1125115  52.75   0.00158924    2.611    0.617
       316  -8.3255    146.7264    161.2897   9.8757196959e+01   2.0883654072e+01    0.1342966    0.1032422  81.21 0.0001644351    1.514    0.339
       317 -10.5918    205.4688    159.3170   8.6656931618e+01   9.3120018074e+00    0.2726623    0.2246934  29.95 0.0004079118    1.142    0.124
       318  -9.3631    163.4274    160.0988   9.5088088840e+01   1.7812527252e+01    0.2218073    0.1795295  37.08 0.0003924808    1.230    0.187
       319  -8.7424    153.0270    160.0298   9.7215567610e+01   1.9895674733e+01    0.2003312    0.1672895   7.53 0.0004129489    1.570    0.363
       320  -8.6137     31.3496    160.2998   1.2269179314e+02   3.8189687047e+01    0.1022974   0.07809135 -52.85 0.0007037288    1.689    0.408
       321  -8.9643    183.7977    158.1553   9.0604087684e+01   1.3993315143e+01    0.2819822    0.1870075 -53.63  0.001361768    1.791    0.442
       322 -11.0519     18.2974    155.1659   1.2481914064e+02   4.0458912422e+01    0.2528318    0.1705052  78.09  0.001810605    1.204    0.169
       323 -11.3393     24.7052    155.7516   1.2360192873e+02   3.9759459914e+01    0.2845952    0.1982397  71.06  0.001157978    1.242    0.195
       324  -8.7825    191.8244    157.8042   8.8957224717e+01   1.2387386721e+01    0.1849747    0.1663602  75.39 0.0006752018    1.281    0.219
       325  -9.2288    168.0931    157.5147   9.3631778488e+01   1.7341116405e+01    0.1997435    0.1913597 -46.09 0.0005231894    1.124    0.111
       326  -9.0918    158.8607    158.1640   9.5653773917e+01   1.9088610388e+01    0.2002046    0.1815564  73.87 0.0003564536    1.115    0.104
       327  -8.1313     55.3007    158.3356   1.1764160962e+02   3.5986172681e+01    0.1108674   0.08518344 -49.74 0.0007035041    1.658    0.397
       328  -9.9358    176.7755    156.7292   9.1716437026e+01   1.5698462064e+01    0.2276769     0.220411 -29.77 0.0003879897    1.109    0.098
       329 -10.1933    197.1846    154.7447   8.7283386439e+01   1.1783909246e+01    0.2745844    0.2318675 -15.53 0.0005308616    1.278    0.218
       330  -8.7064    128.2193    155.7504   1.0167364819e+02   2.5459074515e+01    0.1670267    0.1588711  -6.43 0.0003282741    1.315    0.239
       331  -8.7186     99.1023    156.0829   1.0802015926e+02   3.0378828247e+01    0.1512666    0.1335267  77.87 0.0004861977    1.039    0.037
       332  -9.8850    216.0974    154.3553   8.3636701740e+01   7.9050521280e+00    0.2334686    0.1964796 -20.22 0.0003258156    1.213    0.176
       333  -8.1468    154.7191    155.3082   9.5963051415e+01   2.0457247553e+01    0.1385008    0.1077699  85.02 0.0002044613    1.561    0.359
       334  -8.5413    113.5718    155.1568   1.0473458410e+02   2.8179845877e+01    0.1722193    0.1229898 -47.71 0.0005008611    1.558    0.358
       335  -9.5416      5.0462    154.9839   1.2737258456e+02   4.1595895105e+01    0.1554607    0.1034969 -59.51  0.000772236    1.678    0.404
       336  -8.9663    211.5668    154.0132   8.4401894150e+01   8.8981543585e+00    0.2451611     0.135945 -40.24 0.0003498724    1.922    0.480
       337  -9.1028    211.8462    150.1895   8.3529037569e+01   9.4518226500e+00    0.2320786    0.1737998 -10.69 0.0003163915    1.511    0.338
       338 -10.1178    214.9273    146.8227   8.2222307318e+01   9.3429573741e+00    0.2516348    0.2255883  -4.78 0.0003932629    1.101    0.092
       339  -9.3398    187.6949    153.3969   8.8854531917e+01   1.4007005625e+01    0.2627127    0.1745292 -34.69 0.0007055828    1.635    0.388
       340  -9.6738    206.1249    152.4344   8.5086113832e+01   1.0290042461e+01    0.2394608    0.1886536  -7.60 0.0003646947    1.423    0.297
       341 -10.0045    166.7561    152.5499   9.2912947741e+01   1.8531097110e+01     0.385734    0.2929556  14.66  0.001914747    1.742    0.426
       342  -8.4220    171.2961    152.2870   9.1925683159e+01   1.7639311819e+01    0.1387953    0.1108774  13.26 0.0002513336    1.549    0.354
       343 -10.2601    144.9850    151.2199   9.7231501497e+01   2.3179757046e+01    0.2669506    0.2372855 -83.95 0.0003415401    1.161    0.138
       344  -9.5062    143.3311    147.2548   9.6812155613e+01   2.4291534282e+01      0.23843     0.192999 -39.83 0.0007172679    1.372    0.271
       345  -8.9626    157.2023    150.8256   9.4557942200e+01   2.0813916460e+01    0.1870428    0.1675229   8.37 0.0004466719    1.317    0.241
       346  -8.7755    151.8607    151.1416   9.5750175835e+01   2.1830999625e+01    0.1822474       0.1664  11.04 0.0003617044    1.283    0.221
       347  -8.6683    107.8986    151.3548   1.0533546320e+02   2.9932250734e+01    0.1714467    0.1233602  35.09 0.0004219183    1.614    0.380
       348  -8.7767    202.5200    149.8823   8.5223934473e+01   1.1471481226e+01    0.2004576    0.1408508 -32.03 0.0005917567    1.501    0.334
       349  -8.3885    176.3432    150.2654   9.0477020575e+01   1.6952921156e+01    0.1441356    0.1092703  19.52 0.0005105119    1.602    0.376
       350 -10.9747    133.1289    146.9905   9.8988300261e+01   2.6319506286e+01    0.5667171      0.34024 -66.07  0.002063476    2.000    0.500
       351 -10.8020    132.1809    140.2550   9.7878519457e+01   2.7882473756e+01    0.4616629    0.2907203 -66.84  0.001807124    1.878    0.467
       352 -10.2546      5.8310    149.3990   1.2681481761e+02   4.2659274783e+01    0.1134831    0.1051797   8.59 0.0009197332    1.720    0.419
       353 -10.3632      2.7853    146.6997   1.2721368540e+02   4.3436337233e+01    0.1584085    0.1403484 -14.27  0.001143556    1.862    0.463
       354  -9.5146    197.0676    148.1708   8.5905428101e+01   1.2920024475e+01    0.2248743    0.1985434 -21.01  0.000278528    1.182    0.154
       355  -9.3172     53.8061    149.3898   1.1690486351e+02   3.8048344266e+01    0.1835757    0.1555299 -57.38  0.001261853    1.392    0.282
       356  -9.8915     51.0010    147.2464   1.1725108516e+02   3.8828450635e+01    0.2224714     0.114518  47.93  0.001016837    1.948    0.487
       357  -9.5957    182.0304    147.9930   8.8845225071e+01   1.6159821439e+01    0.2110857    0.1976471  23.04 0.0003103489    1.071    0.066
       358  -8.6471    192.5267    152.5355   8.7723687864e+01   1.3137840496e+01    0.1429815    0.1319831  30.93 0.0001973284    1.018    0.018
       359  -9.2899    161.9261    147.3193   9.2849039536e+01   2.0514855463e+01    0.2445233    0.2058694 -33.12 0.0002590752    1.315    0.239
       360  -8.8467    121.9613    148.3285   1.0170076090e+02   2.8114089937e+01    0.1852364    0.1602873  50.84 0.0003737215    1.156    0.135
       361  -9.4368     41.5360    148.5060   1.1942608292e+02   3.9599662570e+01    0.1182219   0.09176762 -88.96 0.0001679868    1.007    0.007
       362  -9.8464    190.8080    146.3566   8.6739499048e+01   1.4573371444e+01    0.2834051    0.2270906  30.92  0.001054703    1.253    0.202
       363  -8.9026    150.0056    146.9680   9.5313639853e+01   2.3018959529e+01    0.2079054    0.1733376   5.56 0.0003279079    1.580    0.367
       364 -10.4354    223.5170    144.8040   8.0207390755e+01   7.8528130137e+00    0.2866567    0.2285967   4.20 0.0004982869    1.317    0.241
       365  -9.2171    176.2400    144.3586   8.9244711824e+01   1.8055140149e+01    0.2270968    0.1907459 -23.31 0.0004468796    1.327    0.246
       366  -9.7496    208.3718    143.1082   8.2625734560e+01   1.1346512129e+01    0.2542681    0.2117424  19.70  0.000453325    1.218    0.179
       367  -9.9129     27.7593    144.4010   1.2191169321e+02   4.1831927828e+01    0.2374455   0.07379873  43.04  0.001147534    3.071    0.674
       368  -8.9819    218.6726    143.0160   8.0689339905e+01   9.1577531087e+00    0.1958407    0.1671129 -14.80 0.0004357882    1.173    0.147
       369  -9.3259    200.2361    143.0787   8.4174512112e+01   1.3107190134e+01    0.2078994    0.1834023   5.23 0.0003300135    1.175    0.149
       370  -9.1800    171.8096    142.9852   8.9864179380e+01   1.9255581324e+01    0.2101335    0.1902634  10.64 0.0004208092    1.214    0.176
       371  -8.5688    120.2207    143.0215   1.0110494954e+02   2.9534035115e+01    0.1684467    0.1099016 -55.06 0.0002322463    1.527    0.345
       372  -8.5671    194.4602    141.7760   8.5011686568e+01   1.4584499955e+01    0.1912415     0.140348 -20.63  0.000695276    1.561    0.359
       373 -10.1011    138.9504    141.0702   9.6533229154e+01   2.6400839348e+01    0.2879847    0.2181358  34.07 0.0003946229    1.469    0.319
       374  -9.3871     73.7383    142.4428   1.1156074159e+02   3.7029888053e+01    0.1518707    0.1252582  28.17  0.000659303    1.591    0.371
       375  -9.2242    213.9951    140.6497   8.1020957179e+01   1.0540016960e+01    0.2289244    0.1870264  -9.75 0.0004954479    1.286    0.222
       376  -9.3480    155.6168    140.7507   9.2817755813e+01   2.3094086461e+01    0.2341013    0.2135663   3.76 0.0005230752    1.272    0.214
       377  -8.5930    147.5359    141.4756   9.4725758826e+01   2.4606282748e+01    0.1413218    0.1368726  41.46 0.0001589022    1.091    0.083
       378  -8.6502     17.6481    141.6916   1.2377786006e+02   4.3292895602e+01    0.1055702   0.07203024 -52.88 0.0003679546    1.716    0.417
       379 -10.1404      4.5104    141.4904   1.2647148868e+02   4.4369643532e+01    0.1889882    0.1118125  10.78 0.0007935984    3.149    0.682
       380  -8.8844    203.5158    139.9057   8.2832298407e+01   1.2934651417e+01     0.203818     0.143125 -33.23 0.0004545427    1.472    0.321
       381  -9.1190     13.2932    140.3519   1.2456741775e+02   4.3928927743e+01    0.1073131   0.06729192 -57.04 0.0007030708    1.679    0.405
       382  -9.6611    224.4574    138.4299   7.8607090018e+01   8.6534139103e+00    0.2395352    0.2106268   0.68 0.0005427446    1.101    0.092
       383  -8.8805    186.8673    138.8533   8.5869883759e+01   1.6758195841e+01    0.2135087    0.1896818  10.28 0.0003704154    1.200    0.167
       384  -9.3678    166.3046    138.3679   9.0015352703e+01   2.1304702236e+01    0.2291162    0.2103072  13.50 0.0003680658    1.192    0.161
       385  -8.3663    109.3483    138.3391   1.0270403809e+02   3.2443438231e+01    0.1347576    0.1102481 -16.42 0.0007046317    1.788    0.441
       386 -11.4197     69.0232    136.0856   1.1168609564e+02   3.9041290425e+01    0.4087679    0.2714002 -88.42  0.001925767    1.531    0.347
       387  -9.2013    218.0016    131.9334   7.8282817264e+01   1.1091580805e+01    0.3843177    0.2080865  24.47  0.001416697    2.830    0.647
       388  -8.9102    152.0173    137.3501   9.2873812109e+01   2.4511962121e+01    0.2032583    0.1746088  50.39  0.000377185    1.126    0.112
       389  -9.8709    146.9135    136.7055   9.3859108258e+01   2.5690033110e+01     0.223501     0.195382 -32.91 0.0003218865    1.272    0.214
       390 -10.6114      5.8995    136.6666   1.2579366026e+02   4.5259941802e+01    0.1901384     0.114087 -71.29  0.001279253    1.324    0.245
       391  -9.9687    208.3138    135.7585   8.0973093727e+01   1.2585021430e+01    0.2484039    0.2231358  15.75 0.0003601364    1.092    0.084
       392  -9.6397    137.2214    136.2635   9.5929546470e+01   2.7725362946e+01    0.2936339    0.2302945 -16.03  0.001456758    1.791    0.442
       393  -9.2009    198.4538    134.3401   8.2542516613e+01   1.5003973282e+01    0.2596046    0.2300168 -48.54 0.0007042081    1.222    0.182
       394 -10.0450    192.9250    134.6171   8.3695373957e+01   1.6180833011e+01    0.2568811    0.2120132 -31.55 0.0003512712    1.252    0.201
       395  -9.1173    172.1816    135.1016   8.8047812687e+01   2.0658774567e+01    0.2166365      0.19612   3.59 0.0003877412    1.222    0.182
       396  -8.7580      1.3116    135.3206   1.2663921449e+02   4.5865147265e+01     0.103026   0.06455552 -58.06 0.0003302698    1.649    0.394
       397  -9.2007    188.0254    133.4541   8.4408102085e+01   1.7475860863e+01    0.2725676    0.2035159 -16.45 0.0005831358    1.600    0.375
       398  -9.5309    163.5890    133.3839   8.9488428474e+01   2.2848241521e+01    0.2589889    0.2364792   2.57 0.0004816833    1.231    0.188
       399  -8.9352    155.7580    134.0588   9.1337766705e+01   2.4383996919e+01    0.1995652    0.1891833 -52.48 0.0003898725    1.085    0.078
       400  -9.8545    225.8538    131.7182   7.6814431959e+01   9.4149360904e+00    0.2931961    0.2264671   5.39 0.0004837212    1.423    0.297
       401  -8.8431    222.2259    132.0562   7.7543429376e+01   1.0148634127e+01    0.2154199     0.148043 -29.04 0.0005778786    1.459    0.315
       402  -8.7700    150.1503    133.2021   9.2383653359e+01   2.5728579033e+01    0.1939662    0.1679875  87.44 0.0003952553    1.257    0.205
       403  -8.2849    120.2863    133.2899   9.9192011883e+01   3.1576754668e+01    0.1305861    0.1129419 -12.70 0.0002984793    1.536    0.349
       404  -9.8471    136.4522    130.1938   9.4812896990e+01   2.9132081023e+01    0.3634646    0.2351635 -48.91  0.001065415    1.553    0.356
       405 -10.1438    134.7329    124.8235   9.4027220443e+01   3.0592894760e+01    0.4575851    0.1929182 -45.46  0.001732469    2.397    0.583
       406 -11.0295    134.6130    120.2137   9.3008716658e+01   3.1580658675e+01    0.5033384    0.3775158  67.65   0.00206412    1.507    0.336
       407 -10.8423    134.0827    107.8828   9.0177877025e+01   3.4265433596e+01     0.631178    0.2499311 -49.11  0.001848185    2.550    0.608
       408 -11.4059     15.2856    131.9989   1.2336519131e+02   4.5518494426e+01    0.3771035    0.1394478  32.04  0.002005281    3.148    0.682
       409  -8.8752    114.4843    130.9838   1.0008344840e+02   3.3120477209e+01    0.2001732    0.1319962 -52.38 0.0004370092    1.483    0.326
       410  -8.2452    198.2681    130.3631   8.1653008730e+01   1.5740145758e+01    0.1513305    0.1142129   4.95 0.0002961104    1.650    0.394
       411 -10.2094    179.4411    129.7421   8.5302250451e+01   2.0066321477e+01    0.2595685    0.2348038  22.48 0.0004030159    1.146    0.127
       412  -9.7659    160.9320    129.5500   8.9194197946e+01   2.4169491547e+01     0.391415    0.2236912 -40.31  0.001670034    1.832    0.454
       413  -9.5501    158.6917    126.2880   8.8932765467e+01   2.5296628313e+01     0.202806    0.1786804  10.42 0.0003066733    1.317    0.241
       414  -8.9154    125.8815    129.8773   9.7186554675e+01   3.1255033203e+01    0.1949734    0.1621898 -88.67 0.0003894276    1.283    0.221
       415  -9.7254    218.8885    136.1392   7.9093055799e+01   1.0215437610e+01    0.2943458    0.2685586 -24.98  0.001447757    1.115    0.103
       416  -9.4258    154.8459    127.9628   9.0168246385e+01   2.5789619442e+01    0.2646039    0.2014182 -38.21  0.001137447    1.386    0.279
       417  -9.9707    151.9544    124.3682   8.9984370074e+01   2.7126883521e+01     0.287957    0.2188252 -46.33 0.0007160667    1.332    0.249
       418  -8.3831    131.2994    129.3213   9.5810410295e+01   3.0329258993e+01    0.1395596    0.1163131  -7.94 0.0003582145    1.624    0.384
       419 -10.3227    220.9319    126.5617   7.6485993042e+01   1.1321093594e+01    0.3883493    0.2363117 -22.58 0.0005187846    1.814    0.449
       420  -9.9119      6.8529    132.3800   1.2522421097e+02   4.6079570466e+01     0.116858    0.1056029  -9.05 0.0007315343    1.717    0.418
       421  -9.2110    192.5027    127.0361   8.2005823023e+01   1.7627422209e+01    0.2126306    0.1967666  30.45 0.0004623618    1.054    0.051
       422  -9.1766    186.6246    127.1153   8.3208636447e+01   1.8940495911e+01    0.2047208    0.1824669 -27.91 0.0003906953    1.154    0.133
       423  -9.2106    171.8668    126.9889   8.6246771133e+01   2.2270329096e+01    0.2280927    0.1982785  11.98 0.0005024445    1.302    0.232
       424  -8.7084    165.4397    126.7583   8.7570086147e+01   2.3733750874e+01    0.1975831    0.1449282 -29.33 0.0005287972    1.538    0.350
       425  -8.8783    121.4021    126.7749   9.7581450788e+01   3.2757567525e+01    0.2136763    0.1778126  -6.48 0.0005078219    1.666    0.400
       426  -9.4648    124.3827    124.7038   9.6430984510e+01   3.2636932909e+01    0.3522704    0.2002877 -63.48  0.001493725    2.074    0.518
       427  -8.9275    200.0384    124.9351   8.0017913495e+01   1.6291675813e+01    0.2240923    0.1734654   9.62  0.000318241    1.541    0.351
       428  -8.3475     62.3100    125.3312   1.1160680189e+02   4.2258143953e+01    0.1236372   0.08998144 -41.61 0.0003839702    1.670    0.401
       429  -9.4974      6.4927    128.4432   1.2494984783e+02   4.6926887589e+01    0.1095297   0.08049102 -80.66 0.0002247321    1.057    0.054
       430 -10.2206      5.2863    124.3759   1.2484130707e+02   4.7863007699e+01    0.1985428   0.09441373 -67.00 0.0005840051    1.607    0.378
       431  -8.5495    217.6385    124.2181   7.6525334750e+01   1.2438246436e+01    0.1977084    0.1358536 -20.68 0.0003032992    1.569    0.363
       432  -9.3691    179.7663    122.1230   8.3422538234e+01   2.1415884408e+01    0.3287809    0.2153843 -23.10  0.001204157    1.883    0.469
       433  -8.7266    108.1165    123.8181   1.0014328236e+02   3.5791335170e+01    0.1742427    0.1617203 -26.09  0.000256536    1.281    0.219
       434  -8.6604    170.1443    122.8174   8.5623575252e+01   2.3453458204e+01    0.1997961    0.1755996   5.98 0.0003451177    1.293    0.226
       435  -8.8356    146.4997    123.4926   9.1014617863e+01   2.8457733410e+01    0.1450402    0.1436951  54.96 -8.275454e-05    1.050    0.048
       436  -9.8126      2.6694    121.4124   1.2515001306e+02   4.8660600451e+01    0.2918139    0.1283953 -44.49  0.001491375    3.169    0.684
       437 -11.7571      7.3982    114.1116   1.2334119458e+02   4.9883651463e+01    0.4661873     0.258307 -67.04  0.003031231    1.380    0.276
       438  -9.4970    187.9329    120.9995   8.1470043332e+01   1.9759747644e+01    0.2230871    0.2098238  14.97 0.0002994405    1.073    0.068
       439 -10.4981    134.0000    113.5961   9.1596604329e+01   3.3089438536e+01    0.4680239    0.2050432 -44.39  0.001379372    2.276    0.561
       440  -9.8052     17.9533    121.4844   1.2166922062e+02   4.7541374807e+01     0.140634    0.1095427  41.37 0.0005811022    1.567    0.362
       441  -9.1329    231.4418    119.7059   7.2990618720e+01   1.0095074603e+01    0.1999597    0.1358713 -17.32 0.0009357744    1.580    0.367
       442  -9.2498    202.8553    119.3632   7.8118762401e+01   1.6620558354e+01    0.2385048    0.2262884 -81.48 0.0004292395    1.185    0.156
       443  -9.3170     12.5302    120.4930   1.2281700329e+02   4.8166007793e+01    0.1128164     0.083631 -77.41 0.0001279133    1.052    0.050
       444  -9.0129    220.1545    119.1415   7.4842411170e+01   1.2707833548e+01    0.1937145    0.1694925 -52.00 0.0003839199    1.275    0.216
       445  -9.2631    194.0214    118.9479   7.9744047395e+01   1.8730276090e+01     0.221243    0.2094922   3.78 0.0003186873    1.058    0.054
       446  -8.7759    184.1827    117.8002   8.1449275352e+01   2.1209255056e+01    0.2044229    0.1746668   2.30 0.0003631522    1.323    0.244
       447  -9.0367    174.0168    117.6635   8.3541844621e+01   2.3565677092e+01    0.2144564    0.1915693  41.44 0.0005040339    1.108    0.097
       448  -8.3677    166.6568    118.7206   8.5384492217e+01   2.5026516759e+01     0.152902    0.1187736  15.61  0.000391902    1.630    0.386
       449  -9.7996    157.1263    117.9834   8.7306880753e+01   2.7287345657e+01    0.2216441    0.2189768 -85.05 0.0004474743    1.011    0.011
       450  -9.8800    158.0040    113.7349   8.6065090524e+01   2.7938372776e+01    0.3584994    0.2215312 -21.90  0.001409895    2.356    0.576
       451  -8.2632    209.3082    117.2973   7.6383947413e+01   1.5491206295e+01    0.1527536    0.1142964  15.09 0.0003702306    1.592    0.372
       452  -8.9751     66.6297    116.6692   1.0908095224e+02   4.3636809207e+01    0.2462683    0.1712198  14.15  0.001311094    2.249    0.555
       453  -9.2065    147.5167    116.0044   8.9007056301e+01   2.9769277977e+01    0.2244493    0.1462695 -44.84 0.0005982482    1.535    0.349
       454  -9.3434     16.2961    115.6568   1.2140026493e+02   4.8917451809e+01    0.1847592    0.1228695 -26.17 0.0009148769    2.401    0.584
       455  -8.2876    199.5453    115.4652   7.7793939584e+01   1.8068869170e+01    0.1521162    0.1429182  12.65 0.0001138704    1.058    0.055
       456  -8.8670    163.1773    114.7765   8.5173917687e+01   2.6577249271e+01    0.2031202    0.1774788   3.55 0.0003993239    1.324    0.245
       457  -9.4887     21.1891    114.6650   1.2010525222e+02   4.8750704144e+01    0.2204005    0.1017829 -53.05 0.0008499749    2.050    0.512
       458 -10.1164    212.5051    120.4635   7.6563538176e+01   1.4222993172e+01    0.2723418    0.2343652   9.18 0.0001333086    1.211    0.174
       459  -8.3015    212.2755    114.3128   7.5091576776e+01   1.5313267217e+01    0.1504995     0.114511  10.35 0.0002652839    1.560    0.359
       460  -9.4469    203.1643    113.5134   7.6606703184e+01   1.7567351558e+01    0.2867353    0.2126135 -40.30 0.0005190182    1.363    0.266
       461  -8.9262    181.4328    114.4404   8.1179470030e+01   2.2468075566e+01    0.1514024    0.1451977  16.03  0.000123168    1.051    0.048
       462  -9.2769    153.3798    113.8742   8.7143619508e+01   2.8930774564e+01    0.2063866    0.1421813 -32.10 0.0004054353    1.612    0.380
       463  -9.1257    129.7556    114.1989   9.2759058077e+01   3.3817198954e+01    0.1979967    0.1757478 -11.05 0.0008254334    1.351    0.260
       464  -8.9499    219.5408    113.0980   7.3466588344e+01   1.3842179878e+01    0.2165314    0.1430445 -32.38 0.0003321455    1.488    0.328
       465  -9.7315    194.0751    111.6082   7.7896801856e+01   2.0032871503e+01    0.3933759    0.2744608  22.49  0.001601309    1.801    0.445
       466  -9.7365    185.6961    112.9510   7.9924936340e+01   2.1752052560e+01    0.2639864    0.2207152  55.01 0.0003169343    1.212    0.175
       467  -9.8040    121.8191    112.9887   9.4404184786e+01   3.5624687221e+01    0.2342759    0.1620682 -75.97 0.0005613554    1.860    0.462
       468  -8.9926    114.1940    112.7716   9.6239513945e+01   3.7100779406e+01    0.1891642    0.1672869 -23.19 0.0004703945    1.328    0.247
       469  -8.2482     41.3231    113.3258   1.1493710069e+02   4.7244067485e+01    0.1208613    0.0802554 -44.88 0.0007048264    1.688    0.408
       470  -9.1842    223.7553    110.1928   7.1996157702e+01   1.3350774890e+01    0.3808944    0.1948628 -18.82  0.001157176    2.645    0.622
       471  -8.7834    208.4519    111.5143   7.5102256681e+01   1.6677556875e+01    0.1516295    0.1424762   7.64 4.971518e-05    1.048    0.046
       472  -9.8675     17.1430    110.2300   1.2054940565e+02   5.0019724941e+01    0.2547988    0.1180472 -51.52  0.001408965    2.096    0.523
       473  -9.1492    168.1939    109.8278   8.2825049212e+01   2.6400291562e+01    0.2070365    0.1800389   0.21 0.0004359871    1.316    0.240
       474  -8.9298    143.9825    110.0426   8.8359814550e+01   3.1742123483e+01    0.1777062    0.1718178  64.06 0.0003195746    1.036    0.035
       475  -8.6307    118.3433    109.2862   9.4389689044e+01   3.7077792351e+01    0.1413701    0.1159839  -3.97 0.0003615788    1.644    0.392
       476  -8.6250     66.5443    109.5229   1.0779662125e+02   4.5236231438e+01    0.1299198    0.1106395 -64.93  0.000154195    1.050    0.047
       477  -9.0952      1.8768    109.0722   1.2412622526e+02   5.1305680146e+01    0.1720584   0.09758627 -52.78  0.001118058    1.738    0.425
       478  -8.5216    218.6230    108.1986   7.2404533175e+01   1.4863459309e+01    0.2055115    0.1398631 -20.59 0.0003137896    1.583    0.368
       479  -9.0587    176.5807    108.2810   8.0627001117e+01   2.4751322853e+01    0.2059275    0.1486131 -26.17 0.0004402049    1.526    0.345
       480  -8.7742    155.4334    108.4369   8.5308300917e+01   2.9563945916e+01    0.1487154    0.1468567 -83.13 0.0002253666    1.009    0.009
       481 -10.5413    123.0784    107.6562   9.2817994575e+01   3.6517155390e+01    0.3650661    0.2582288  47.54  0.001393268    1.459    0.315
       482  -8.6947     36.7366    108.3580   1.1535308481e+02   4.8779334296e+01    0.1373608    0.1164284   4.49 0.0009368467    1.663    0.399
       483  -8.5670    201.4161    107.4966   7.5413906360e+01   1.9027849304e+01    0.1512575    0.1450912  -1.20 0.0003118308    1.025    0.025
       484  -9.0496    190.0310    107.0610   7.7537563331e+01   2.1806072067e+01    0.2255889    0.2214089   0.60 0.0004464745    1.008    0.008
       485  -8.7029    182.9633    106.9565   7.8949937379e+01   2.3498388369e+01    0.1830597    0.1752848 -27.18 0.0003389885    1.047    0.045
       486  -8.7464     29.4111    106.7655   1.1700028560e+02   4.9785938679e+01    0.1773479   0.08106924 -58.74 0.0009444547    1.746    0.427
       487  -9.2926    160.8710    105.8787   8.3421916134e+01   2.8843307267e+01    0.2250517    0.2032324   2.81 0.0003025411    1.230    0.187
       488  -9.2692    113.0067    105.7033   9.4876578194e+01   3.8842238994e+01    0.1950807     0.189173  75.61 0.0004460045    1.067    0.063
       489 -10.8166     11.6194    105.7475   1.2137321730e+02   5.1378935895e+01    0.2856359    0.1703216  35.66  0.001881264    2.047    0.511
       490  -9.8381    165.9531    104.5988   8.1960052311e+01   2.7925840760e+01    0.3916996    0.2620498  78.50  0.001569846    2.272    0.560
       491  -8.2194     71.3227    105.3026   1.0571073732e+02   4.5551391385e+01    0.1285706    0.0960874 -33.09 0.0005460441    1.634    0.388
       492  -9.5713    218.8029    103.4210   7.1158959927e+01   1.5610634168e+01    0.2888579     0.196087 -11.04 0.0006944608    1.790    0.441
       493  -9.0777    205.4877    103.2634   7.3547258959e+01   1.8793393125e+01    0.2675067    0.1506434 -29.51 0.0005705919    1.849    0.459
       494  -9.3244     65.7329    103.7410   1.0689427374e+02   4.6623366862e+01    0.2605201    0.1807329   7.53   0.00122751    2.327    0.570
       495  -9.2058    190.0614    102.3736   7.6306199877e+01   2.2644655258e+01    0.2646078    0.2083243 -20.89 0.0005327643    1.365    0.268
       496 -10.1006    119.5458    101.8192   9.2257064983e+01   3.8440189720e+01    0.3361644    0.2499216 -37.74 0.0009150801    1.392    0.282
       497  -9.9260     18.3036    101.1335   1.1907877808e+02   5.1895470878e+01    0.3630676    0.1421116 -54.71  0.001887672    2.121    0.528
       498 -10.6298      6.0308    102.4865   1.2238475913e+02   5.2442697266e+01    0.2196502    0.1071333 -61.16 0.0006237363    1.589    0.371
       499  -8.7196    195.1943    101.7227   7.5118134707e+01   2.1528830084e+01    0.2045843    0.1744718   5.20 0.0005581345    1.300    0.231
       500  -8.7780    185.2412    100.9917   7.6914373457e+01   2.4050643000e+01    0.2011653    0.1297247 -36.60 0.0005069714    1.550    0.355
       501  -9.4110    129.8463    100.1997   8.9258137194e+01   3.6733992375e+01    0.3037579    0.2143828   0.81  0.001268318    2.381    0.580
       502  -8.6493    140.8789    100.3736   8.6611865903e+01   3.4381938710e+01    0.2096099    0.1391927  35.91 0.0004484502    1.685    0.407
       503  -8.8898     24.5124     99.5009   1.1721697103e+02   5.1773763695e+01    0.1644662    0.1139044  -3.35  0.001018441    2.275    0.561
       504 -10.5883      7.2783     97.0818   1.2141276579e+02   5.3515275710e+01    0.2702565    0.1293906 -41.88  0.001316718    2.513    0.602
       505  -9.2113    225.4281     97.9922   6.8617032849e+01   1.4937834070e+01    0.3673272    0.2036286 -31.02 0.0006913234    1.760    0.432
       506 -10.1183    229.0856     94.7536   6.7170629759e+01   1.4596070152e+01    0.3479973    0.2495045  28.71   0.00115997    1.590    0.371
       507  -9.8072    220.6538     96.8428   6.9139532978e+01   1.6252420379e+01     0.318246     0.206239  45.06 0.0004545174    1.573    0.364
       508  -8.3574    167.2854     98.3416   8.0000129666e+01   2.8815675445e+01    0.1566923    0.1224889   5.49 0.0004941245    1.639    0.390
       509  -9.3075     90.0478     97.8434   9.9031981130e+01   4.4476683365e+01    0.2088788    0.1750774 -87.75 0.0006288796    1.305    0.234
       510  -8.7742    121.9955     96.7012   9.0317838830e+01   3.9041316275e+01    0.1971258    0.1907498  47.31 0.0004446262    1.083    0.077
       511  -9.0373    203.2882     95.9838   7.2045114629e+01   2.0573814186e+01     0.217918    0.1888587 -26.38 0.0003848454    1.148    0.129
       512  -8.6606    195.0424     95.0318   7.3364016312e+01   2.2745594688e+01    0.1859134    0.1775206 -23.35 0.0005621832    1.037    0.036
       513  -8.3418    135.7056     95.6617   8.6609663137e+01   3.6447306638e+01    0.1511322    0.1197915  -4.01 0.0004069727    1.651    0.394
       514  -8.6238    183.5624     94.2014   7.5426260278e+01   2.5689157077e+01    0.2130052    0.1501564 -20.41 0.0005564636    1.626    0.385
       515  -8.6155     94.3720     94.2604   9.6990016318e+01   4.4560327202e+01    0.1350397    0.1081438 -10.12  0.000493535    1.654    0.395
       516  -8.7520     21.4678     94.4877   1.1728395437e+02   5.3096801757e+01    0.1181935    0.0882777 -63.82 0.0008079096    1.095    0.087
       517  -8.4741    220.2216     92.9801   6.8206576087e+01   1.6984446792e+01    0.1973726    0.1202738 -32.66 0.0003001052    1.591    0.371
       518  -8.4218    207.2889     93.3125   7.0591036661e+01   2.0055938327e+01    0.1549651    0.1182818  14.09 0.0004611022    1.584    0.369
       519 -10.2054      2.3440     90.0335   1.2182369233e+02   5.5304634758e+01    0.2421231    0.1453571  73.51  0.001546953    1.858    0.462
       520  -9.9032    225.1534     91.8870   6.7083457315e+01   1.5982440611e+01    0.2243694    0.2004273 -50.91 0.0005372706    1.173    0.147
       521  -8.8709    164.8009     92.1718   7.8853721629e+01   3.0573424371e+01    0.2104044    0.1806244  -1.86 0.0003650743    1.326    0.246
       522  -8.4624    188.3072     91.2968   7.3672203626e+01   2.5051652487e+01    0.1573393    0.1206641  16.80 0.0003840868    1.589    0.371
       523  -8.2073    103.5315     91.4744   9.3796113901e+01   4.3599629814e+01    0.1423727     0.130953 -39.64 0.0001631019    1.078    0.072
       524  -8.7221    196.9474     89.9970   7.1629334591e+01   2.3155609432e+01    0.1844394    0.1734564 -27.61 0.0003275071    1.052    0.049
       525  -8.4131    121.0378     90.0158   8.8771190760e+01   4.0621616230e+01    0.1710211    0.1615783 -47.38            0    1.010    0.010
       526  -8.4973    203.4172     88.8347   7.0096437750e+01   2.1760989117e+01    0.2109131    0.1478826 -18.52 0.0005636712    1.598    0.374
       527  -9.2818    158.1938     88.4067   7.9274597873e+01   3.2844376110e+01    0.2545811    0.2052263 -24.12  0.000531716    1.324    0.245
       528  -8.6589    183.4683     88.4505   7.3856623312e+01   2.6746024876e+01    0.1531148    0.1515927   3.91 0.0001032106    1.004    0.004
       529  -9.8605    226.0146     86.7517   6.5596103650e+01   1.6593517912e+01    0.2639717    0.2082837 -28.25 0.0005653467    1.228    0.186
       530 -11.0980     10.3177     85.9241   1.1907937925e+02   5.5704879824e+01    0.2849694    0.1863229  74.89  0.001727598    1.736    0.424
       531  -8.7405    150.8796     86.2375   8.0339467399e+01   3.4957720409e+01    0.2086608    0.1789823   7.47 0.0004283354    1.339    0.253
       532 -10.0616    221.9492     84.5661   6.5690795480e+01   1.7921962950e+01    0.3322064    0.1989807  -6.21  0.001256473    2.532    0.605
       533  -8.4213    197.7338     85.6400   7.0281275299e+01   2.3709192803e+01    0.1580362    0.1201809   8.82 0.0006989212    1.639    0.390
       534  -8.3338    188.2941     85.3861   7.2032636087e+01   2.6096153054e+01    0.1642179     0.121157  10.69 0.0007015009    1.767    0.434
       535 -10.5940    217.9258     83.1467   6.5987004836e+01   1.9130416685e+01     0.533097    0.2507882  34.34  0.001759132    3.210    0.688
       536  -8.9537    206.0511     82.9337   6.8001930298e+01   2.2097523595e+01    0.2373469    0.1817511  10.65 0.0004445664    1.599    0.375
       537 -10.9283      2.6784     82.2204   1.2069146164e+02   5.6936512161e+01    0.2853779     0.187338  89.75  0.001309675    1.452    0.311
       538  -8.6373    200.4950     82.4221   6.8873158515e+01   2.3566449795e+01    0.1523395    0.1488794  15.54 8.986946e-05    1.023    0.023
       539  -8.6961    185.5176     81.4635   7.1473012635e+01   2.7470514990e+01    0.1548633    0.1506044  11.66 5.097823e-05    1.032    0.031
       540  -8.3126    210.2764     80.3647   6.6546894800e+01   2.1468729576e+01     0.158009    0.1182119  11.59 0.0004024018    1.671    0.402
       541  -8.8795    159.1523     79.8084   7.6570711995e+01   3.4229602821e+01    0.2135304    0.1815758  10.05 0.0004511932    1.336    0.252
       542  -9.0981    214.9695     78.7544   6.5298105633e+01   2.0563076902e+01     0.234282      0.19869  20.16 0.0006583915    1.296    0.228
       543  -9.7148      9.8106     79.3591   1.1822711781e+02   5.7131735252e+01     0.129513    0.1000791 -20.79  0.000604599    1.685    0.407
       544  -8.6201     23.6745     78.6954   1.1402228745e+02   5.6334196863e+01    0.1192555    0.0708054 -43.44 0.0003273706    1.644    0.392
       545  -8.1610    206.2999     77.2874   6.6394773076e+01   2.2962651692e+01    0.1541686    0.1178992  20.57  0.000262577    1.557    0.358
       546  -9.2403    183.5640     76.1847   7.0341103280e+01   2.8871243375e+01    0.3135932    0.1430892 -38.68  0.001145827    2.138    0.532
       547  -8.6945     85.3047     77.3332   9.5129650540e+01   4.9616474054e+01    0.1393238    0.1013444 -22.45 0.0003352268    1.662    0.398
       548  -8.8448    174.4437     75.7954   7.2078514143e+01   3.1218851940e+01      0.20853    0.1515841 -19.32 0.0005100746    1.541    0.351
       549  -8.7578    167.1285     75.7898   7.3624022291e+01   3.3026738689e+01    0.2165664     0.182553   9.50 0.0005828229    1.349    0.259
       550  -8.6355    211.3958     74.7770   6.4812415534e+01   2.2089221845e+01    0.2110304    0.1462156 -18.45 0.0006734125    1.594    0.373
       551 -12.6986    202.3873    213.9295   9.7109464159e+01   1.9303211394e+00    0.7626273    0.4975045 -54.97  0.004246942    2.284    0.562
       552  -8.8294    157.4257     73.7412   7.5146226180e+01   3.5750341582e+01    0.2144676    0.1489064 -22.22 0.0009307831    1.615    0.381
       553 -12.5475    210.7447    213.7281   9.5637785600e+01   4.9053880074e-01     1.081286     0.304419 -40.41  0.004293522    4.306    0.768
       554  -9.0611    206.4612     72.4988   6.5026409359e+01   2.3695049945e+01    0.2266892    0.1817426  17.80 0.0006359678    1.448    0.310
       555  -9.6408    203.7994     70.1554   6.4828433153e+01   2.4743941901e+01    0.2863263     0.204146 -55.09 0.0002946098    1.567    0.362
       556  -8.6720    140.3468     71.8909   7.8584759086e+01   4.0081097159e+01    0.2128755    0.1389228 -25.68 0.0003948231    1.702    0.412
       557  -9.3345     11.3017     71.3259   1.1644708734e+02   5.8737995419e+01    0.1175093   0.06341903 -46.97 0.0007030586    1.639    0.390
       558 -11.3204      1.8979     68.3039   1.1882486531e+02   5.9893459672e+01       0.4676    0.1409666 -66.42  0.001278313    2.280    0.561
       559 -10.0035     92.4555     69.5454   9.0784430698e+01   5.0060960248e+01    0.2783327    0.2771036  -6.35 0.0008675039    1.114    0.103
       560  -8.7996    214.1575     68.7868   6.2686614259e+01   2.2337284872e+01    0.2055691    0.1764463  13.01 0.0005445051    1.297    0.229
       561  -9.5023    170.8544     68.2681   7.0571761652e+01   3.3414795954e+01    0.2777477    0.2235917 -20.09 0.0003695481    1.312    0.238
       562  -8.7406    163.3858     68.9117   7.2355971935e+01   3.5157012043e+01    0.2180666    0.1472275 -19.10 0.0006357084    1.722    0.419
       563  -8.4095    116.3082     69.3309   8.3972741034e+01   4.5708549466e+01    0.1490501    0.1134967  -2.96 0.0003679062    1.665    0.399
       564 -12.0619    166.7024    250.4498   1.0803944886e+02   3.2940561132e+00    0.3924059    0.1617046  43.16 0.0003292935    1.843    0.457
       565  -8.8818    150.7325     77.0751   7.7685707940e+01   3.6725870590e+01    0.2104963    0.1950667 -22.03 0.0003379752    1.081    0.075
       566 -12.4320    176.7994    243.8002   1.0561208117e+02   2.4865061548e+00    0.5256594    0.2675956  39.58 0.0004593565    1.597    0.374
       567  -8.8571    138.9626     65.0159   7.6763670867e+01   4.1652184940e+01    0.2368998    0.1811029   6.49 0.0005416818    1.626    0.385
       568  -9.8318     68.6150     63.8635   9.6398953550e+01   5.4819519558e+01    0.2633365    0.2229232 -48.15 0.0009024198    1.064    0.060
       569  -8.6747    152.5439     64.5274   7.3401867892e+01   3.8556881039e+01    0.1539289    0.1458103   7.51  0.000235162    1.063    0.059
       570  -8.7006    146.1840     63.8405   7.4656294742e+01   4.0188766851e+01    0.2150361    0.1777349  12.66 0.0006578979    1.364    0.267
       571  -8.3994    220.2552     63.3635   6.0209477015e+01   2.1629184116e+01    0.1515218    0.1153656  11.76 0.0002597767    1.626    0.385
       572  -8.8373    208.3869     62.6948   6.1924766106e+01   2.4741101540e+01    0.2016582    0.1461318 -18.17 0.0005673995    1.502    0.334
       573  -8.5222    197.3858     62.7789   6.3830671803e+01   2.7550812885e+01    0.2059889    0.1477761 -16.72 0.0003305638    1.557    0.358
       574  -9.1431    217.0209     61.3023   6.0141753094e+01   2.2753999695e+01    0.2030932    0.1927904  57.16  0.000345199    1.075    0.070
       575  -8.9032    122.1117     61.0771   7.9774804781e+01   4.6063642076e+01    0.2138511    0.1864286   2.39 0.0003038108    1.214    0.176
       576 -11.2185    124.2364    246.7735   1.1444628480e+02   1.0407710762e+01    0.2729097    0.1837763  53.76 0.0004637915    1.101    0.092
       577  -9.8047    120.0035    248.5062   1.1528167094e+02   1.0798735932e+01    0.1953545    0.1525524  65.53 0.0005478229    1.110    0.099
       578  -9.8579     12.6079     27.4419   1.0561047725e+02   6.7431145603e+01     0.272736    0.1826883 -48.57 0.0007594497    1.114    0.102
       579  -9.7711    108.3113    248.9605   1.1715659429e+02   1.2452519195e+01    0.1681438    0.1287328  40.80  0.000516969    1.500    0.333
       580  -8.9921     23.8356    249.3620   1.2961842946e+02   2.2985019052e+01    0.1139324    0.0740216  45.71 0.0005215931    1.687    0.407
       581 -10.1423      8.5990    248.3233   1.3163205334e+02   2.4683983342e+01    0.1609414    0.1232373  71.72 0.0004010648    1.354    0.262
       582 -11.8132      2.4040     53.6663   1.1603994556e+02   6.2877937289e+01    0.7589344    0.2826886 -74.31  0.003577349    2.812    0.644
       583 -12.8039      9.8062     48.6685   1.1239720258e+02   6.3492814878e+01     1.015848    0.6677588 -57.63  0.005597172    1.121    0.108
       584 -10.5203     31.8185    247.1156   1.2840806070e+02   2.2478313198e+01    0.1967289    0.1732416  47.73 0.0006052517    1.832    0.454
       585 -10.8743    133.0645    245.2994   1.1288719831e+02   9.2652488145e+00    0.2262916    0.1778654  44.23  0.000379179    1.257    0.205
       586 -10.4783      1.9723     45.8019   1.1456297230e+02   6.4480488720e+01    0.2425506    0.1345235 -54.18 0.0004289022    1.279    0.218
       587 -10.7232      4.8453     41.4586   1.1252020868e+02   6.5196476382e+01    0.2369574    0.1608578 -56.77 0.0003318297    1.081    0.075
       588 -10.7696    113.5495    244.1585   1.1590014330e+02   1.2382833749e+01    0.2163308    0.2026675  56.52 0.0006122276    1.427    0.299
       589  -9.4144     75.7665    246.3732   1.2195386027e+02   1.7328549572e+01    0.1580513    0.1060554  66.68 0.0004547452    1.078    0.072
       590  -8.8737    157.7556     59.2331   7.0553523766e+01   3.8190958084e+01    0.2087846    0.1742425  15.12 0.0004164641    1.327    0.246
       591  -8.5992     48.1760     59.5992   1.0186088593e+02   5.8153111555e+01    0.1500719    0.1147729  -1.69 0.0004421609    1.608    0.378
       592 -10.8393     80.2802    244.2516   1.2111146958e+02   1.7056844754e+01     0.296855    0.1605112  45.73 0.0004871931    1.600    0.375
       593  -9.1083    164.9204     57.8237   6.8569556221e+01   3.6642477391e+01     0.236606    0.2032813  15.93 0.0005377987    1.261    0.207
       594  -9.2509    146.8988     56.6261   7.2153754352e+01   4.1257468869e+01    0.2507065    0.2035847 -15.64 0.0004166051    1.296    0.229
       595  -8.4436     38.6441     56.6939   1.0429708664e+02   5.9699107755e+01     0.126471   0.07707117 -32.02 0.0007041246    1.720    0.419
       596 -10.9102     78.8244     52.8787   8.9697319069e+01   5.5507114304e+01    0.3998266    0.3583955  71.53  0.002449007    1.461    0.315
       597 -10.5939    224.3859     52.7622   5.6669443269e+01   2.2136124126e+01    0.2983289     0.213898  26.61  0.001004795    1.734    0.423
       598  -8.6993     34.6964     54.2876   1.0501482043e+02   6.0547370328e+01    0.1081254     0.087767 -87.24 0.0002388691    1.564    0.361
       599 -10.1453     41.3827    244.5226   1.2691582517e+02   2.1818245809e+01     0.186991    0.1447891  51.65 0.0007824478    1.521    0.342
       600  -8.6971     31.4118     58.2203   1.0715782249e+02   6.0029385409e+01    0.1615508   0.09678246 -64.42 0.0005834727    1.510    0.338
       601  -8.4540    131.6878     52.7012   7.4502832879e+01   4.5444493980e+01    0.1513536    0.1130729  13.50 0.0002709235    1.603    0.376
       602  -8.8195    163.4451     51.0589   6.6708438987e+01   3.8089907353e+01    0.2304222    0.1502107 -28.05 0.0006528624    1.564    0.361
       603 -10.8449    221.2018     48.7956   5.6028396380e+01   2.3502163402e+01    0.3204362    0.1819949  69.47 0.0007489685    1.905    0.475
       604 -12.3658    233.7332    244.3716   9.6515798729e+01  -6.6965129136e+00    0.5082818    0.2894664  -9.94  0.003069411    2.365    0.577
       605  -9.3535     37.6740     40.6553   9.9953269080e+01   6.2951864309e+01      0.20057    0.1489136  23.43 0.0008087392    1.611    0.379
       606 -12.7169    216.4341    230.3867   9.7252537579e+01  -2.4631116350e+00    0.4565962    0.3547339 -17.59 0.0005043903    1.515    0.340
       607  -8.4884     65.6891     38.6979   8.9130763862e+01   6.0025714957e+01    0.1299986   0.08933016 -14.21 0.0004195978    1.608    0.378
       608  -9.4189     24.0684     38.2001   1.0434444212e+02   6.4597065620e+01    0.1714235    0.1211571 -36.52 0.0003336105    1.195    0.163
       609  -8.6905     29.4908     37.4822   1.0204259957e+02   6.4294147403e+01    0.1193458   0.09026872 -40.54 0.0008101787    1.029    0.028
       610  -8.8136    189.7449     35.6882   5.6976957275e+01   3.3483462173e+01    0.2469599    0.1044608 -39.30 0.0009030662    2.334    0.572
       611 -10.9612    104.5857    241.4664   1.1708260879e+02   1.4095857388e+01    0.2335461    0.2209634  39.23 0.0007037024    1.577    0.366
       612  -9.4813     25.8929     34.0318   1.0234408862e+02   6.5242304720e+01    0.1733565    0.1321655 -40.38 0.0003502493    1.014    0.014
       613  -9.6825     30.2703     31.1578   9.9663077189e+01   6.5404079915e+01     0.199811    0.1513679 -37.93 0.0007323924    1.012    0.011
       614  -9.2183     16.8471     31.4768   1.0513716579e+02   6.6398060614e+01    0.1844472    0.1146966 -39.10 0.0006102088    1.280    0.219
       615 -10.7395     66.4894     28.9334   8.5119024435e+01   6.1574009766e+01    0.2134496    0.1818427  17.23 0.0006686107    1.233    0.189
       616  -8.7720     60.3244     28.3375   8.7092763953e+01   6.2537561372e+01    0.1317821   0.08556808 -12.20 0.0007051217    1.720    0.419
       617  -9.4464    101.5103    238.5571   1.1731441734e+02   1.4982251911e+01    0.1795961    0.1290987  54.35  0.000617555    1.141    0.124
       618  -9.9952     78.5676     21.9646   7.8111354745e+01   6.0762783813e+01    0.3261086    0.2247905 -39.00  0.001315821    1.479    0.324
       619 -10.6077     51.0093    240.2503   1.2526112888e+02   2.1372750010e+01    0.3203016    0.1613642  58.91  0.001972464    1.447    0.309
       620 -10.7704     25.2455    239.6673   1.2897320039e+02   2.4348274181e+01    0.2318288    0.1756375 -65.30  0.001049412    1.952    0.488
       621 -10.6512    125.2179    239.9878   1.1361762310e+02   1.1230924699e+01    0.2310629    0.1857458  53.33 0.0004379742    1.143    0.125
       622  -9.9571    129.6496    235.1301   1.1238499840e+02   1.1255103882e+01    0.2086035    0.1615179  36.99 0.0004817393    1.446    0.309
       623 -10.9551     68.4865    240.0884   1.2261492441e+02   1.9243824126e+01    0.2048603    0.1611554  57.76 0.0004491169    1.304    0.233
       624  -9.6883     35.3379    240.2868   1.2755954263e+02   2.3162086060e+01    0.1563366    0.1413409  77.83 0.0007004464    1.646    0.392
       625 -10.6382    134.9944    238.8419   1.1189892706e+02   9.8762219491e+00    0.2139049    0.1735805  50.95 0.0004275638    1.138    0.121
       626  -8.7878    127.3036     17.3681   6.2648618327e+01   5.1533758113e+01    0.1529641   0.09851378  21.75 0.0007034334    1.745    0.427
       627 -10.7084    139.5447    234.6939   1.1069111847e+02   9.7503394378e+00    0.2211168    0.1835325  39.92 0.0004837629    1.294    0.227
       628 -10.5119    117.9184    238.6159   1.1466901965e+02   1.2546118637e+01    0.2264768    0.2130249  44.93   0.00140295    1.445    0.308
       629  -8.8500    155.5342     14.4487   5.5827711336e+01   4.4968860578e+01    0.1445973    0.1322307  39.79 0.0001135439    1.029    0.029
       630  -9.8244      9.8620    239.2994   1.3110708221e+02   2.5963352094e+01    0.1730159     0.163246  53.76  0.001676017    1.955    0.488
       631 -11.0845     64.2769     13.0685   7.9160621323e+01   6.4297766597e+01    0.2862685    0.1484368  30.58  0.001467861    2.090    0.521
       632  -9.4795     61.9806    238.9828   1.2353065684e+02   2.0239696840e+01    0.1502315    0.1144545  68.23 0.0004993294    1.152    0.132
       633  -9.7470    112.3595    237.5919   1.1547369800e+02   1.3535446106e+01    0.1919975    0.1554869  52.58  0.000533535    1.220    0.180
       634  -9.9384     41.5443    236.7707   1.2645842616e+02   2.3028569366e+01    0.1736042    0.1533963 -64.81 0.0008087953    1.874    0.467
       635 -10.7491     91.0404    235.7589   1.1874798723e+02   1.6905375966e+01     0.209303    0.1838812  59.97   0.00051839    1.364    0.267
       636 -10.4236     77.8390    235.5460   1.2082698830e+02   1.8742833613e+01    0.2144263    0.1480243  59.61 0.0007117121    1.107    0.096
       637  -8.7261     79.4973     10.5140   7.2797868306e+01   6.2152914818e+01     0.130881    0.1066248   2.14 0.0001230888    1.054    0.051
       638  -9.5819      3.3064    235.5731   1.3186116697e+02   2.7180554024e+01    0.1504006    0.1271937 -68.48 0.0009841464    1.946    0.486
       639 -10.1854    153.0748    232.9881   1.0822500066e+02   7.7972616778e+00    0.1952634    0.1659276  41.89 0.0003688735    1.191    0.160
