#   1 NUMBER                 Running object number                                     
#   2 MAG_AUTO               Kron-like elliptical aperture magnitude                    [mag]
#   3 X_IMAGE                Object position along x                                    [pixel]
#   4 Y_IMAGE                Object position along y                                    [pixel]
#   5 X_WORLD                Barycenter position along world x axis                     [deg]
#   6 Y_WORLD                Barycenter position along world y axis                     [deg]
#   7 A_WORLD                Profile RMS along major axis (world units)                 [deg]
#   8 B_WORLD                Profile RMS along minor axis (world units)                 [deg]
#   9 THETA_WORLD            Position angle (CCW/world-x)                               [deg]
#  10 FWHM_WORLD             FWHM assuming a gaussian core                              [deg]
#  11 ELONGATION             A_IMAGE/B_IMAGE                                           
#  12 ELLIPTICITY            1 - B_IMAGE/A_IMAGE                                       
         1 -18.1767    236.5153     72.9772   6.0156140011e+01   1.6181506279e+01     4.343894     3.195264 -23.10   0.01301298    1.302    0.232
         2  -8.9095    210.3481     12.7663   4.6971569492e+01   3.0095113542e+01    0.2706898    0.2394251  14.70 0.0006665376    1.309    0.236
         3  -9.2011     80.2969     12.9336   7.1854510026e+01   6.2586199069e+01    0.3279455    0.1916896 -38.02   0.00105341    1.783    0.439
         4 -11.5066    246.0301      5.1066   4.1869139651e+01   2.2139180764e+01    0.9510571    0.6464496 -73.43  0.005333697    1.447    0.309
         5  -8.8574    180.3624      7.8069   4.8845929598e+01   3.8477998753e+01    0.5278051    0.2777969 -47.08  0.002273296    1.999    0.500
         6  -9.1307    231.7701      6.3798   4.3281476952e+01   2.5390931131e+01     0.326388    0.1588164 -50.56 0.0003593084    1.960    0.490
         7  -7.6966    172.4992      1.4079   4.7730959909e+01   4.1175339297e+01    0.1414371    0.1297923  76.00 0.0002578711    1.018    0.017
         8  -7.4534    139.0450      1.1814   5.2436998459e+01   5.0069739213e+01    0.1712926    0.1004391  64.87            0    1.576    0.365
         9  -8.6035    231.0228    178.5061   8.4888027323e+01   2.6335342038e+00    0.1784651    0.1484706   6.59  0.000338195    1.068    0.063
        10 -12.3324    239.7396    246.7240   9.4575393243e+01  -5.9611443807e+00     1.750834    0.4901033  37.47  0.008586619    2.651    0.623
        11 -11.8439    192.3882    248.7043   1.0237044995e+02   6.5810143427e-01    0.4978562    0.4124038  40.24   0.00396393    1.240    0.194
        12 -11.1239    168.4297    248.2437   1.0626940454e+02   4.2896706366e+00    0.3771522    0.2406512  24.01  0.002483259    1.685    0.406
        13  -9.8163    230.0823    167.7099   8.2976627096e+01   4.1818409606e+00    0.3300376     0.168279 -41.59  0.001490745    2.369    0.578
        14  -7.6892    152.3144    173.2923   9.8737648059e+01   1.7884412245e+01    0.1302824    0.1013289  14.33 0.0003079351    1.595    0.373
        15  -8.7323     85.2482    173.0261   1.1300776655e+02   2.9219179896e+01    0.1978592    0.1561951  53.21 0.0003396067    1.143    0.125
        16 -10.2601    199.2328    170.7848   8.9064275863e+01   9.4428735419e+00    0.2387717    0.2182774  28.97 0.0004018891    1.102    0.092
        17  -9.4247    246.0005    163.9821   7.9608812436e+01   1.8495806168e+00    0.1947261     0.156106  12.14 0.0003997664    1.054    0.051
        18  -8.5481    231.3295    173.2832   8.3846007463e+01   3.2405077786e+00    0.2114052    0.1405625 -13.38 0.0007329566    1.551    0.355
        19 -10.0939    123.9890    111.4427   9.2701204553e+01   3.5525204901e+01    0.5528488    0.3524981 -80.92  0.002147229    2.708    0.631
        20 -11.4983    134.0972    112.5519   9.0445580992e+01   3.3220381091e+01     1.794091    0.3626675 -46.98  0.004563163    5.149    0.806
        21 -10.4863    137.1123     99.7039   8.6430738280e+01   3.5194072507e+01    0.7315164    0.5095151  87.15   0.00303741    2.261    0.558
        22 -11.0243    113.7859    106.6850   9.4197955661e+01   3.8551007256e+01     1.126616    0.7661175 -81.39  0.004914627    2.128    0.530
        23  -9.3804    130.8897     98.2777   8.7607790576e+01   3.6830422416e+01      0.42477    0.2512417 -39.11  0.000946219    1.751    0.429
        24 -11.1931    118.8922    103.3482   9.2024506768e+01   3.8259847164e+01    0.7681183    0.6144139 -24.65  0.003869626    1.484    0.326
        25 -10.1036    126.2853    102.5799   8.9909502704e+01   3.6913576215e+01     0.458157    0.3982499  44.20  0.001321098    1.159    0.137
        26  -8.7423    201.4700    135.9955   8.1444019050e+01   1.4378359994e+01    0.2057463    0.1374633 -34.79 0.0003967154    1.532    0.347
        27 -12.1414     37.9598    145.3041   1.2058204652e+02   4.1031262427e+01    0.8293062    0.6149313 -69.93  0.005393759    1.275    0.216
        28 -10.7465    191.3788    132.4620   8.2582209928e+01   1.7097701056e+01    0.4609129    0.2738876  52.28  0.001569799    1.722    0.419
        29 -12.5060    161.8535    128.4497   8.7775837352e+01   2.4172542190e+01     1.100681     0.768713  33.20  0.005016418    1.517    0.341
        30 -11.0591    154.8000    120.2236   8.7420460584e+01   2.7264126870e+01    0.7841519    0.5127132  35.82  0.003561144    1.625    0.385
        31  -8.1465    249.5007    144.0851   7.4964176201e+01   3.7471118382e+00    0.1908974     0.156904  28.14 0.0005791731    1.175    0.149
        32 -10.6091    168.6228    121.6885   8.4728020149e+01   2.3958320347e+01    0.5155088    0.3392679  36.46  0.002260552    1.575    0.365
        33 -11.2231    166.8877    115.4139   8.3577522298e+01   2.5506330591e+01    0.8757208    0.5849408 -38.56  0.004062163    1.537    0.349
        34 -10.5577    143.2486    142.6936   9.4994822593e+01   2.5286753244e+01    0.4224913    0.3020284 -25.80  0.001151102    1.826    0.452
        35  -9.2749    163.8665    150.9911   9.2186133993e+01   1.9605758983e+01    0.2413715    0.1897226  42.84 0.0003067543    1.173    0.148
        36  -9.8182    141.4617    123.1165   9.1175521791e+01   2.9533731077e+01    0.4386531    0.2346494  54.97            0    2.039    0.510
        37  -9.0162    144.2974    148.9835   9.6012335492e+01   2.3864201236e+01    0.2576155    0.1914069  68.12  0.000901576    1.557    0.358
        38 -11.3823     66.9313    144.0029   1.1342943365e+02   3.7886743665e+01    0.6758976     0.402268  60.03  0.002838152    1.705    0.413
        39  -9.8361    132.3634    140.7421   9.7088597317e+01   2.7804355876e+01    0.7609129    0.2293673 -54.66  0.002290661    4.354    0.770
        40 -11.6259     58.8941    138.0890   1.1460710477e+02   4.0226686336e+01     0.509953    0.4076647 -74.26   0.00107763    1.146    0.127
        41  -9.7356    126.3308    106.7698   9.0960175348e+01   3.6029951219e+01      0.51758    0.2798236  47.56  0.001633655    1.851    0.460
        42 -12.8520     70.2762    134.1747   1.1116003944e+02   3.9608881643e+01     1.192823     1.090009 -60.78  0.006583603    1.213    0.175
        43  -8.9304    144.6926    132.1551   9.2449230936e+01   2.7064289133e+01    0.2223403    0.1960792 -87.66  0.001091903    1.263    0.209
        44 -10.6738    158.6971    111.8208   8.4486327436e+01   2.8019712263e+01     0.577129    0.4190491  30.60  0.002709083    1.531    0.347
        45  -8.5474    193.8481    111.1333   7.7003140211e+01   2.0146746830e+01    0.2488161    0.1974978 -47.08 0.0004818432    1.356    0.262
        46 -10.0908    189.9882    105.6134   7.6350482323e+01   2.1968718443e+01    0.6700152    0.3739757 -52.02   0.00231356    2.253    0.556
        47  -9.2522    143.6661    108.1625   8.7037716694e+01   3.2063789904e+01    0.3275704     0.217285  53.24   0.00130903    1.534    0.348
        48  -8.5746    112.8493     95.7198   9.1674523389e+01   4.1082205278e+01    0.2592649    0.2025748 -37.62  0.001095434    1.329    0.247
        49  -8.2665    124.6482     91.3235   8.7325745976e+01   3.9586131812e+01    0.1565339    0.1196835 -88.63 0.0007047964    1.755    0.430
        50  -7.8097    116.2467     90.6383   8.9379705673e+01   4.1474090567e+01    0.1490948    0.1146755 -75.57 0.0003955869    1.607    0.378
        51  -8.1983    106.7505     84.1930   9.0219089832e+01   4.4720566261e+01    0.1929209    0.1674237 -18.89 0.0003203763    1.284    0.221
        52  -8.3165    141.7955     80.8113   7.9949506132e+01   3.7844164520e+01    0.3722095    0.2034013  74.94  0.001084544    4.306    0.768
        53  -9.4295     51.2524     80.7797   1.0670434493e+02   5.4197846771e+01    0.2175652    0.1854145 -51.95 0.0002590947    1.087    0.080
        54  -9.2385    170.8191     75.2031   7.1789223505e+01   3.1815906689e+01    0.4817345      0.25351 -45.57  0.001827131    2.017    0.504
        55  -8.5189    172.9624     71.4848   7.0250135441e+01   3.1903883006e+01    0.2856982    0.1553537  62.34 0.0007865538    2.023    0.506
        56  -7.6128     88.3132     72.3534   9.2282460200e+01   5.0637081666e+01    0.1474207    0.1095158 -15.77 0.0004703818    1.732    0.423
        57  -8.9811    215.5147    142.9960   8.0413909394e+01   1.0412034752e+01    0.2089266     0.176415  32.25 0.0004796126    1.115    0.103
        58  -8.7587    138.5329     66.5084   7.6308292077e+01   4.1258586546e+01    0.3121769    0.1504846 -35.84   0.00118282    2.079    0.519
        59 -10.8579    188.8500    139.2977   8.4610907421e+01   1.6487546957e+01    0.5560358    0.3524414  43.82  0.002675168    1.489    0.329
        60  -9.1141    105.9439     62.0999   8.3608861410e+01   4.9347495020e+01    0.2845859    0.2010136  34.92  0.000729834    1.526    0.345
        61 -10.3545    240.9579    134.9029   7.4330519518e+01   6.5617262301e+00    0.5365122    0.4081265 -16.46  0.001750486    1.223    0.182
        62  -9.8219    120.7501     62.6001   7.9594017558e+01   4.6078875882e+01    0.2555421      0.23998 -21.96  0.000338721    1.049    0.046
        63  -8.3980    100.3798     63.1977   8.5638976479e+01   5.0253666725e+01    0.2027522    0.1319453 -50.71 0.0005160689    1.582    0.368
        64  -8.9159     49.9673     61.4654   1.0223269153e+02   5.8631430972e+01    0.2379324    0.1692608 -69.80  0.000598022    1.512    0.339
        65 -10.4708    135.9134    131.0888   9.4256701679e+01   2.9057792138e+01    0.8239784    0.2446172 -52.74  0.002434172    4.237    0.764
        66  -7.6324    130.0293     57.9959   7.5605302089e+01   4.4780926309e+01    0.1805851    0.1714091 -24.27 0.0003685918    1.042    0.040
        67 -10.1879    150.8622     46.0897   6.6670197188e+01   4.1588638076e+01    0.5013377    0.2913945  -3.22  0.001812552    2.790    0.642
        68  -8.9635     95.0234     52.9992   8.3779304566e+01   5.3260171215e+01    0.2178323    0.1962501 -36.31 0.0005349214    1.069    0.065
        69  -9.2086    129.9562     91.7993   8.6081342608e+01   3.8350763759e+01    0.4898963    0.2007126 -46.11 0.0005136135    2.459    0.593
        70  -9.2121    162.7819     48.2125   6.4959464407e+01   3.8196017437e+01    0.2127919    0.1757807  26.69 0.0005296913    1.313    0.238
        71  -9.0989    152.6899     52.0898   6.8310645729e+01   4.0197782382e+01    0.2227433    0.1963696 -24.35  0.001142027    1.150    0.131
        72  -9.3918    189.4144     43.3788   5.8752672598e+01   3.1907208107e+01    0.4497392      0.31749  15.52  0.001818649    1.829    0.453
        73  -8.8903    144.0564     44.4387   6.7568492630e+01   4.3568138386e+01    0.2794931    0.2107146 -38.08  0.001347885    1.342    0.255
        74  -9.1411    178.9532     43.4123   6.0465131555e+01   3.4649562252e+01    0.4016993     0.260945  42.76  0.001791455    1.625    0.385
        75  -8.9699    167.5644     40.6587   6.1568628575e+01   3.8030351689e+01    0.3347362    0.2146698  34.43  0.001439882    1.802    0.445
        76  -8.7924    189.9130     38.2507   5.7105872132e+01   3.2457540342e+01    0.2726633    0.2135902 -17.19 0.0006330037    1.361    0.265
        77  -9.7715    148.8842     33.4478   6.2658589341e+01   4.3905450610e+01    0.6746569    0.3249009 -10.30  0.002238798    3.315    0.698
        78  -8.1724    187.4897     33.9236   5.6132761604e+01   3.3651390665e+01    0.2147106    0.1483588 -20.06 0.0009993727    1.541    0.351
        79  -8.5346    164.0343     32.2786   5.9398003208e+01   4.0084765554e+01     0.206145    0.1932348  67.42 0.0003850157    1.050    0.048
        80  -8.6575     93.5046     32.2563   7.6235405846e+01   5.7152508493e+01    0.2349369    0.1899857  42.58 0.0005780967    1.263    0.208
        81  -8.5862     84.6684     21.4681   7.4398098510e+01   6.0555146815e+01    0.2302009    0.2028634 -26.23 0.0006056846    1.143    0.125
        82  -8.1625     64.3154     22.3055   8.2117938917e+01   6.4127771039e+01    0.1341901   0.09381948  -0.90  0.000619433    1.624    0.384
        83  -9.4043     74.7955     17.2056   7.5802702761e+01   6.3058648401e+01    0.2407788    0.2150325 -45.74 0.0003061554    1.350    0.259
        84  -8.7063    210.4923     16.5216   4.8023868960e+01   2.9661884013e+01    0.3128832    0.2559273 -65.99 0.0009073143    1.197    0.165
        85 -10.4113    188.9235    234.4426   1.0111091690e+02   2.7732123862e+00    0.2703631    0.2061619  70.82  0.001470574    2.076    0.518
        86  -9.5493    134.2439    234.2484   1.1055151566e+02   1.1275675222e+01    0.1964623    0.1550444  44.68 0.0002821758    1.076    0.070
        87  -8.1717    244.0410    206.3336   8.7687570758e+01  -2.6903792718e+00     0.161185    0.1162307  27.61 0.0004074041    1.131    0.116
        88  -8.5261    190.6604    191.8166   9.4416358469e+01   7.9698050953e+00    0.2701813    0.1536091 -59.32  0.001183731    3.465    0.711
        89  -8.9343    242.0054    188.4428   8.4897918265e+01  -4.0080418714e-01    0.2587034    0.2203227  76.90  0.001211348    2.169    0.539
        90  -8.5907    230.0206    183.1587   8.5920807622e+01   2.2267291238e+00    0.1811089     0.149874  20.51 0.0003340046    1.050    0.047
