#   1 NUMBER                 Running object number                                     
#   2 MAG_AUTO               Kron-like elliptical aperture magnitude                    [mag]
#   3 X_IMAGE                Object position along x                                    [pixel]
#   4 Y_IMAGE                Object position along y                                    [pixel]
#   5 X_WORLD                Barycenter position along world x axis                     [deg]
#   6 Y_WORLD                Barycenter position along world y axis                     [deg]
#   7 A_WORLD                Profile RMS along major axis (world units)                 [deg]
#   8 B_WORLD                Profile RMS along minor axis (world units)                 [deg]
#   9 THETA_WORLD            Position angle (CCW/world-x)                               [deg]
#  10 FWHM_WORLD             FWHM assuming a gaussian core                              [deg]
#  11 ELONGATION             A_IMAGE/B_IMAGE                                           
#  12 ELLIPTICITY            1 - B_IMAGE/A_IMAGE                                       
         1 -15.1023      9.4800    147.0101   1.4108952023e+02   4.2573267730e+01      8.59134     2.551521  83.57   0.03305975    4.588    0.782
         2 -13.3677    196.9093     28.5612   6.7820820762e+01   3.2280819477e+01     1.641846     1.411324   9.04  0.006903287    1.185    0.156
         3 -13.4193    212.4400      8.4442   5.9726919103e+01   3.0340161188e+01     1.255273    0.9238667  34.68  0.004616078    1.468    0.319
         4 -11.3461      3.8575      3.2290   1.1934992906e+02   7.3828839339e+01    0.4381822    0.2686537 -21.55  0.002845075    1.626    0.385
         5 -10.5693    125.4968    245.4780   1.2743996406e+02   1.2787421248e+01    0.1667233    0.1022378 -58.68  0.001216953    2.186    0.542
         6 -11.1142    248.6468    249.1785   1.0858042263e+02  -4.4856963775e+00    0.2934877    0.1759651   4.55  0.002192562    1.573    0.364
         7 -11.7569    139.3588    248.4909   1.2549360787e+02   1.0562025298e+01    0.3268983    0.2755845 -83.80  0.002802045    1.596    0.373
         8 -10.9723    124.4210    250.1551   1.2802391876e+02   1.2350576966e+01    0.4606206   0.06773197  41.85  0.001768792    4.486    0.777
         9 -10.3038     98.0662    249.5904   1.3213886217e+02   1.5776585072e+01    0.1610463    0.1302212 -39.19  0.001346686    1.992    0.498
        10 -10.4794     35.4950    250.3199   1.4168451572e+02   2.2622611985e+01    0.2780227    0.1095694  36.85  0.001864525    2.280    0.561
        11 -11.4750     29.9222    248.7043   1.4243176859e+02   2.3387804230e+01    0.2930781     0.224969  44.71  0.002744851    1.435    0.303
        12 -11.6872     35.1334    244.3304   1.4148995349e+02   2.3498967969e+01    0.3103281    0.2415641  42.73  0.002878191    1.462    0.316
        13 -11.2844     11.5808    249.3566   1.4507548769e+02   2.4982553378e+01    0.2946804    0.1462984  42.40   0.00242099    1.622    0.384
        14 -10.2279      2.4942    249.7809   1.4635234325e+02   2.5706593297e+01    0.2390352    0.1173821  44.71  0.001790639    1.544    0.352
        15 -10.5797      2.8573    246.1304   1.4620966262e+02   2.6187111676e+01    0.1740208    0.1107592  53.66  0.001064464    1.184    0.156
        16 -11.3331     20.3764    243.4730   1.4362927892e+02   2.5022942165e+01    0.3302831    0.1105801  61.76  0.001974445    2.282    0.562
        17 -12.4031     11.0590    239.6967   1.4485998890e+02   2.6402516994e+01     0.458991    0.1995245  68.64  0.003460202    1.756    0.430
        18  -9.4211    225.3404    250.3055   1.1220629940e+02  -1.4834295663e+00    0.1080813   0.05769941  20.94 0.0003707657    1.681    0.405
        19 -10.4301     21.9208    237.1491   1.4317467299e+02   2.5796964640e+01    0.1621621    0.1396455 -12.07  0.001428666    2.393    0.582
        20 -14.3364    103.6481    229.2749   1.2960780645e+02   1.7833148996e+01     7.729849          nan  43.89   0.01506244   16.793    0.940
        21 -10.2343     54.0904    229.2245   1.3780333321e+02   2.3760532727e+01    0.2216466    0.1181822  54.28 0.0009681737    1.388    0.279
        22 -10.2467     56.1334    223.7285   1.3714382161e+02   2.4376609194e+01    0.2015067    0.1768135 -41.02   0.00171218    1.866    0.464
        23  -9.9544    174.1922    222.8910   1.1688043358e+02   8.6395559868e+00     0.272197    0.2010915  55.65   0.00189727    1.536    0.349
        24 -11.7154     21.9128    126.5584   1.3671641991e+02   4.5856376519e+01    0.3929149    0.1990609  54.16  0.001040932    1.951    0.487
        25  -8.9476     91.8235    214.1314   1.3031814724e+02   2.1619821116e+01    0.2287602   0.09336658  57.13  0.001165845    2.574    0.612
        26  -8.7899    152.6680    213.0294   1.1936160460e+02   1.3159085964e+01     0.143875    0.1264586  38.56 0.0003776906    1.110    0.099
        27 -12.4156      9.8522    207.0065   1.4392758466e+02   3.1565991322e+01    0.5572052    0.3194611  31.33  0.002987157    2.033    0.508
        28 -11.5917     59.9906    199.6449   1.3483734028e+02   2.7857087694e+01     0.210029    0.1869311  87.27 0.0005153504    1.262    0.207
        29  -9.6382    194.5047    197.8872   1.0978788654e+02   8.5078615389e+00    0.4548292    0.2353922 -57.53  0.001709924    5.895    0.830
        30 -10.4092     14.3640    197.0060   1.4276348963e+02   3.2860162287e+01    0.3096549    0.1195767  51.14  0.001990382    1.934    0.483
        31 -11.8848     66.4370    191.2110   1.3296170355e+02   2.8573105657e+01    0.2153293    0.1961268  86.48 0.0004822396    1.242    0.195
        32 -11.1533      2.3597    183.1925   1.4427553914e+02   3.6258518744e+01    0.2670118    0.1281022  83.28   0.00181998    1.680    0.405
        33 -13.1766     63.4115    176.3196   1.3221899626e+02   3.1631676595e+01    0.3999129    0.2420946 -47.41  0.001682428    2.268    0.559
        34 -10.7249     76.8269    178.1861   1.2970286809e+02   2.9649261754e+01    0.2016531    0.1700991  69.33 0.0003375993    1.020    0.020
        35  -9.9880     97.6009    174.6204   1.2506515298e+02   2.7518162718e+01    0.2333381    0.1703018  67.68 0.0007528375    1.350    0.259
        36 -11.7698     84.9275    168.8129   1.2699546526e+02   3.0345394237e+01    0.6485702    0.4964496  26.20  0.004167513    1.592    0.372
        37 -12.8140     33.0787    233.8668   1.4135056633e+02   2.5222406028e+01    0.2326868    0.1940943  82.77 0.0007697343    1.346    0.257
        38 -10.0987     97.0613    152.9380   1.2225984089e+02   3.1713544877e+01     0.264321    0.2488203 -80.50 0.0007715207    1.110    0.099
        39 -12.0200     85.7522    152.0110   1.2467018655e+02   3.3508196199e+01    0.2476254    0.2191703 -49.93 0.0006113724    1.308    0.236
        40  -9.0708    100.0821    148.6661   1.2093445000e+02   3.2109669959e+01    0.1709681    0.1515094  48.23  0.000400252    1.112    0.101
        41  -8.6600    134.0000    146.4823   1.1293461437e+02   2.6971111676e+01    0.4322943   0.07627336 -48.70  0.001167606    6.048    0.835
        42 -12.1527     67.4319    143.6566   1.2776006363e+02   3.7605351599e+01    0.6090308    0.3543358  62.42   0.00295038    1.836    0.455
        43  -9.7840    109.1918    137.6236   1.1699067714e+02   3.2899380748e+01    0.3800389    0.2461868 -20.22  0.001566081    2.854    0.650
        44 -10.3803     96.2573    134.9649   1.1961028709e+02   3.5469523300e+01     0.210597    0.2007363 -22.85 0.0004302296    1.233    0.189
        45  -8.4968     79.7981    131.8918   1.2311841255e+02   3.8481406933e+01    0.1702582    0.1327192  74.90 0.0003593305    1.305    0.234
        46 -13.8938     38.0015    227.0224   1.4026287497e+02   2.5768609067e+01     0.622777    0.4291822  57.25   0.00233918    1.080    0.074
        47  -8.3082    115.2937    130.2962   1.1417909005e+02   3.3367562030e+01    0.1291199    0.1068078  -9.44 0.0002484072    1.562    0.360
        48 -10.9339     31.0039    131.4681   1.3499514139e+02   4.4041391971e+01    0.2424753    0.1733783  60.89 0.0005194352    1.323    0.244
        49  -8.8502    106.3591    124.0617   1.1514242673e+02   3.6143108861e+01    0.1760276    0.1580826 -63.40 0.0003540409    1.098    0.089
        50  -9.5454    168.1155    113.3948   9.8234960710e+01   2.6372829082e+01    0.2677741    0.2228377 -69.31  0.001020059    1.575    0.365
        51  -9.2483    203.4652    111.5186   9.0672897660e+01   1.9064625736e+01    0.1475288    0.1304074   7.57 4.024654e-05    1.024    0.023
        52  -9.6027    239.6680     93.3303   7.9972123752e+01   1.3861000706e+01    0.1390415    0.1062256 -53.75 0.0004789174    1.721    0.419
        53 -11.0662    238.0558    248.6524   1.1007865071e+02  -3.0521762999e+00    0.1895587    0.1266214   4.71  0.001484092    1.406    0.289
        54  -9.5250    157.7956     76.6026   9.0424859306e+01   3.5176066560e+01    0.2081234    0.1498305  61.24 0.0006612994    1.600    0.375
        55  -8.6423     38.4427     65.2174   1.2269029557e+02   5.8177192670e+01    0.1745028    0.1076162 -73.62 0.0005768144    1.631    0.387
        56 -11.7502      2.6220     62.6363   1.3499265245e+02   6.1226123175e+01    0.4670864    0.2004149 -81.48  0.002372344    2.103    0.525
        57 -11.8610     10.4846     53.9640   1.3065966613e+02   6.2766556411e+01    0.3925545    0.2572984  20.64  0.001556141    1.947    0.486
        58 -10.9311      2.0000     46.0122   1.3249681306e+02   6.4946512576e+01    0.4185057   0.07742271 -70.39  0.001466306    4.065    0.754
        59 -11.0560      3.7301     38.8036   1.3033212485e+02   6.6451461385e+01    0.3144887    0.1736134 -25.99  0.001856007    2.107    0.525
        60 -10.2771     80.3281    247.7806   1.3478497063e+02   1.8147103590e+01    0.2478562    0.1133812  73.21  0.001437719    3.043    0.671
        61 -11.0130     47.1090    249.1672   1.3992308299e+02   2.1614041082e+01    0.2277735    0.1519109  62.80     0.001715    1.085    0.078
        62 -10.4774      3.5991     20.7832   1.2580782149e+02   7.0311161006e+01    0.1661371   0.09252125 -71.17 0.0009577645    1.703    0.413
