#   1 NUMBER                 Running object number                                     
#   2 MAG_AUTO               Kron-like elliptical aperture magnitude                    [mag]
#   3 X_IMAGE                Object position along x                                    [pixel]
#   4 Y_IMAGE                Object position along y                                    [pixel]
#   5 X_WORLD                Barycenter position along world x axis                     [deg]
#   6 Y_WORLD                Barycenter position along world y axis                     [deg]
#   7 A_WORLD                Profile RMS along major axis (world units)                 [deg]
#   8 B_WORLD                Profile RMS along minor axis (world units)                 [deg]
#   9 THETA_WORLD            Position angle (CCW/world-x)                               [deg]
#  10 FWHM_WORLD             FWHM assuming a gaussian core                              [deg]
#  11 ELONGATION             A_IMAGE/B_IMAGE                                           
#  12 ELLIPTICITY            1 - B_IMAGE/A_IMAGE                                       
         1 -12.2104    244.4410     23.3967   6.1692402970e+00   2.6102589610e+01    0.7072924    0.4925121 -49.75  0.004380024    1.008    0.008
         2  -8.3596    102.6451      7.7401   1.3472725654e+01   5.7385608338e+01    0.1778183    0.1113524 -41.29 0.0005825903    1.622    0.384
         3  -8.7259     71.8062      7.4185   1.9397094513e+01   6.5162487262e+01    0.2002354    0.1049068  57.24 0.0006011121    1.641    0.390
         4  -8.9781    102.9308    238.5306   6.9576060731e+01   1.2217827739e+01    0.2931195    0.1385541 -43.08  0.001483867    2.338    0.572
         5  -8.1875     74.6071    250.1339   7.7230169895e+01   1.2983687460e+01    0.1523909    0.1036274 -41.85 0.0009342402    1.731    0.422
         6  -9.4233     69.1374    250.5283   7.8534078197e+01   1.3432297174e+01    0.1976812    0.1084097  25.57 0.0002930911    1.412    0.292
         7 -14.5340     55.8142    234.3170   8.0511147046e+01   1.7754066928e+01     5.570436     3.139558 -31.78   0.02802682    2.354    0.575
         8  -9.8807    106.6096    228.1841   6.7571754409e+01   1.3686577325e+01    0.1823553    0.1582522  -8.30  0.001206878    1.128    0.113
         9 -10.0048     72.3650    225.9902   7.5673422851e+01   1.7767298315e+01    0.3020388    0.2049782  30.57 0.0004915905    1.239    0.193
        10 -10.7341     97.9616    223.1517   6.9050509881e+01   1.5576288708e+01    0.4832483     0.270985 -80.03  0.002168558    3.260    0.693
        11 -10.8961     81.6326    220.8504   7.2832743816e+01   1.7816744000e+01    0.4245513    0.2246396  45.84  0.001814381    2.006    0.501
        12 -15.1592      4.8226    133.7199   8.8651244060e+01   4.6842225095e+01     16.17006     2.462751 -83.96   0.03236925    8.760    0.886
        13  -8.6132    198.5634    217.7162   4.7395225290e+01   5.6369996339e+00    0.1446532   0.09530744 -41.73 0.0009578413    1.669    0.401
        14  -9.7544     72.9535    232.7533   7.6145615332e+01   1.6374629829e+01     0.245448    0.2269828  42.21 0.0007827144    1.186    0.157
        15 -10.8613    133.8680    230.8629   6.1765402149e+01   1.0275801150e+01    0.4301679    0.2110807   7.20   0.00203889    2.346    0.574
        16 -10.0103    103.3100    204.6017   6.5446683961e+01   1.8619461582e+01    0.3587173    0.1575374  43.97 0.0008174921    2.615    0.618
        17 -16.5711      5.5006    220.1071   9.2547067738e+01   2.4992895265e+01     3.009225     2.149786  75.00  0.009914438    1.414    0.293
        18  -8.8594    210.9847    198.3413   4.2382096709e+01   7.1358409839e+00     0.153407    0.1171667  -8.75 0.0005579365    1.081    0.075
        19 -10.5050     68.2304    192.5828   7.3312633686e+01   2.5433532787e+01    0.3849156    0.2622813  71.11  0.001000768    1.860    0.462
        20  -9.6359    102.0043    194.0105   6.4328432460e+01   2.0978929776e+01    0.2221934    0.1533512 -15.71 0.0005664218    1.657    0.396
        21 -10.5325    126.6414    228.8871   6.3093947060e+01   1.1385777397e+01    0.2957919    0.1929518  29.62  0.001760197    1.406    0.289
        22 -14.0252      2.0962    209.3679   9.3101461529e+01   2.7615269596e+01    0.8533849    0.2833107 -84.54  0.003470334    3.214    0.689
        23 -10.0842    108.4646    189.8478   6.2065548606e+01   2.1022593240e+01     0.284237    0.1731016   6.18  0.001312895    1.926    0.481
        24  -8.4359    148.6678    229.3036   5.8441628996e+01   8.9658796318e+00    0.1095205   0.08741079  41.13 0.0007036617    1.657    0.397
        25  -8.8607     60.0005    185.2950   7.4859157834e+01   2.8097803815e+01    0.2487852    0.1795105  63.96 0.0008265487    1.559    0.358
        26  -9.6045     52.8246    184.9330   7.6950794153e+01   2.8983700984e+01    0.3566051    0.2200788  19.26  0.001068473    1.551    0.355
        27  -8.7785     98.5367    182.1760   6.3513338395e+01   2.3998154264e+01    0.3493811    0.1925141 -12.87  0.001297113    3.089    0.676
        28  -9.3871     62.0865    180.8160   7.3717758817e+01   2.8940823478e+01    0.4127287    0.1811355  40.82 0.0009460615    2.124    0.529
        29  -8.3635     96.5079    175.4128   6.3024956304e+01   2.5793061985e+01     0.142661    0.1305401  14.11 4.380406e-05    1.016    0.016
        30  -9.8167    104.2489    170.9771   6.0194707341e+01   2.5704780346e+01    0.2752639    0.2183663  89.55  0.001406316    1.704    0.413
        31  -9.1774     81.3203    170.9008   6.6658239856e+01   2.8920491831e+01    0.4142377    0.2393839  45.47  0.001825185    1.799    0.444
        32 -11.2326     84.3899    144.5506   6.1294176879e+01   3.4931603578e+01     1.881391    0.4229404 -56.59   0.00184744    4.224    0.763
        33 -12.2034     59.3160    134.1593   6.7828117476e+01   4.1298432861e+01     2.409577     1.013094 -69.36  0.008263881    2.760    0.638
        34 -11.1168     64.8333    154.4223   6.9272065065e+01   3.5231131411e+01    0.4703061    0.4150382 -27.93 0.0009706076    1.210    0.173
        35 -11.7547     70.3596    145.2202   6.5946465653e+01   3.6846732307e+01    0.7340775    0.5061789  71.59  0.002845578    1.868    0.465
        36 -11.0618     65.4805    145.9922   6.7709938290e+01   3.7329730005e+01    0.4273252    0.3923953  -7.36 0.0009872133    1.144    0.126
        37  -9.5174    180.4217    168.2256   4.2506898786e+01   1.5384218667e+01    0.1764548    0.1088586 -47.91 0.0009285178    1.692    0.409
        38  -8.5927    163.4265    164.2919   4.5041876947e+01   1.8417910234e+01    0.1694433    0.1180359 -49.14 0.0003643352    1.510    0.338
        39  -8.7807    185.1628    241.1337   5.3031836661e+01   3.6554873182e+00    0.2442177   0.07565273 -46.50  0.001116326    3.732    0.732
        40  -9.1534    235.8372    162.6142   3.2882165969e+01   9.5111648067e+00    0.1259093    0.1033479  45.09 0.0009565902    1.812    0.448
        41  -9.3486    127.8121    159.9612   5.2146716454e+01   2.4584137303e+01    0.2781686    0.2125287 -59.59  0.001019467    1.493    0.330
        42  -8.0440    113.5246    160.5580   5.5892333935e+01   2.6653110006e+01    0.1421635    0.1343799   4.78 8.219761e-05    1.018    0.018
        43  -9.8612     94.6369    158.9669   6.0825473625e+01   2.9879119367e+01    0.3293959    0.2524703  58.47 0.0004747068    1.530    0.346
        44  -8.2462    147.3105    242.7202   6.0447669479e+01   7.0087812142e+00     0.104741   0.08109835  34.87 0.0002370868    1.563    0.360
        45 -10.2151     44.5952    157.2718   7.6433283492e+01   3.6941568114e+01    0.6016135    0.2860372  60.45  0.002163585    2.768    0.639
        46 -10.0176     31.0619    153.7369   8.0706284006e+01   3.9280951446e+01    0.4617575    0.2572804  43.96  0.002017156    1.713    0.416
        47  -8.7706     45.3075    150.3863   7.5313686884e+01   3.8699792895e+01    0.3791551    0.1813337  56.30  0.001376213    2.572    0.611
        48  -9.9702    133.9217    146.3926   4.8006096674e+01   2.6450249160e+01    0.9768506    0.2409433 -54.18  0.002281463    6.980    0.857
        49  -8.8630     89.1256    150.2258   6.0888328720e+01   3.2809352534e+01    0.2148187    0.1942822  -1.89 0.0003101958    1.136    0.120
        50  -9.5397    108.8489    145.4092   5.4248709704e+01   3.0809315645e+01    0.2618359    0.2570085 -42.66 0.0006376253    1.064    0.060
        51  -8.0338     49.7128    143.3519   7.2771920330e+01   4.0075560600e+01    0.1614677    0.1089515  61.76 0.0002513886    1.666    0.400
        52  -9.3496     36.9277    142.5076   7.7296640220e+01   4.1754520340e+01    0.2926982    0.2205157 -75.97  0.001001002    1.351    0.260
        53  -8.9638     28.2818    142.7357   8.0523496637e+01   4.2548808997e+01    0.2659965    0.1783361  33.42 0.0008174374    1.415    0.293
        54  -9.9569     71.2947    165.2065   6.8836187834e+01   3.1645706813e+01    0.6510751     0.350638 -55.84  0.001595907    1.886    0.470
        55 -10.8795    103.8399    131.7816   5.2812642012e+01   3.4808948173e+01    0.7898477    0.4869075   6.19  0.002959485    2.770    0.639
        56  -8.8221     44.4024    130.7430   7.2801745536e+01   4.4146118145e+01    0.2975129    0.1520651 -74.63  0.001140813    2.150    0.535
        57 -11.8220     78.1796    151.1489   6.4438339841e+01   3.4213038311e+01     1.016797    0.8390361 -43.53  0.002923688    1.253    0.202
        58 -10.2654     64.5502    124.3504   6.4071910084e+01   4.3145236636e+01    0.5459567    0.3636587  61.21  0.001677846    1.817    0.450
        59 -10.5810     87.1981    132.6423   5.8049490122e+01   3.7434989599e+01    0.3169097    0.2861153 -31.17  0.000553317    1.147    0.128
        60  -8.6442    127.6755    122.3423   4.4278391187e+01   3.2596794316e+01    0.1480184    0.1162683 -89.64 0.0007050894    1.732    0.423
        61  -8.8471     97.2406    121.5828   5.2475896933e+01   3.8377825299e+01    0.2799239     0.216863  -7.52 0.0007711901    1.648    0.393
        62 -11.5672     66.6664    159.9547   6.9514427403e+01   3.3573608812e+01     1.106809    0.5845292 -12.80   0.00360092    3.691    0.729
        63  -9.8330     24.5216    116.5145   7.8747759281e+01   5.0218985525e+01    0.4391626    0.2278129  40.18 0.0008946875    1.893    0.472
        64  -8.2755    106.7880    116.1891   4.8368136764e+01   3.7864949401e+01    0.1983147    0.1713065 -20.77 0.0002558872    1.277    0.217
        65  -8.3004    139.9767    113.4799   3.9294466174e+01   3.2093254287e+01    0.1901103    0.1256212  73.04 0.0006061111    2.389    0.581
        66 -10.7908     28.2148    107.7941   7.5782846129e+01   5.2305540601e+01    0.7647591    0.2101016  38.71  0.002336921    3.375    0.704
        67 -10.9878     24.0040    104.9778   7.7243262706e+01   5.3499348875e+01    0.7808942    0.2926746  29.76  0.002820489    2.440    0.590
        68 -13.3713     44.0285    242.4410   8.3950187330e+01   1.7250702914e+01      2.46632     1.350151  67.85   0.01268543    2.267    0.559
        69  -8.8586     51.4534    104.4901   6.4962894870e+01   5.0344848107e+01    0.1515982    0.1507856  55.96 0.0002372202    1.004    0.004
        70  -8.5133     60.0352    100.2039   6.0397523318e+01   5.0151552172e+01    0.2696324     0.165803  57.49  0.001077032    2.008    0.502
        71  -9.8625    135.7795     94.0188   3.5330761274e+01   3.6710059598e+01    0.5718717    0.2920536 -57.67  0.002234509    2.473    0.596
        72 -11.7601    129.3200     91.6843   3.6160388515e+01   3.8502453647e+01    0.8360115    0.5547929 -38.96  0.002435714    1.505    0.336
        73 -11.3365    126.1048     81.7647   3.4144090567e+01   4.1074653220e+01    0.7557142    0.5103887  87.61  0.002399147    2.133    0.531
        74  -9.3624     67.3138    240.5651   7.8182780370e+01   1.5439013978e+01    0.3130901    0.1469051 -63.91  0.001587133    2.531    0.605
        75  -8.0544     57.4949     94.4408   5.9976096302e+01   5.2037130074e+01    0.1552546    0.1465608  59.38 0.0003385459    1.077    0.071
        76  -9.1508    141.2067     87.2799   3.2395571145e+01   3.6831724342e+01    0.5706356     0.123476  51.81  0.001625956    4.808    0.792
        77  -9.5615     48.1674     96.8410   6.4598718156e+01   5.2843690431e+01    0.2379372    0.2030075  62.46 0.0004931958    1.256    0.204
        78  -7.6659     71.3104     85.6829   5.1926020045e+01   5.1756841971e+01    0.1571558    0.1206817  76.10 0.0006405075    1.638    0.390
        79  -9.2136     25.5141     84.0204   7.2549345329e+01   5.9102837181e+01    0.2214536    0.1450528 -67.41 0.0004803464    1.526    0.345
        80 -11.1640    119.8782     76.8864   3.4184574617e+01   4.3352813074e+01     0.836231     0.497652  81.66  0.003137022    2.932    0.659
        81  -9.5218     24.5020     76.9231   7.1464209895e+01   6.1095434351e+01    0.2672108    0.2146362  21.02 0.0003834322    1.241    0.194
        82  -8.6466    170.4356     74.1894   2.3929586267e+01   3.3009707153e+01    0.2548659    0.1590344 -59.03    0.0013125    1.656    0.396
        83 -10.6706    193.6465     61.7696   1.8007390144e+01   3.0306076035e+01    0.2747121      0.27398 -62.97 0.0007840336    1.276    0.216
        84 -11.7808    206.1120     53.1564   1.4822354846e+01   2.9147272119e+01    0.7133245    0.5461755 -49.01  0.003252759    1.036    0.034
        85 -12.0981    215.9565     46.3022   1.2509840487e+01   2.8251707267e+01    0.5390928    0.4732907 -42.04  0.001485442    1.227    0.185
        86 -10.4097     20.2104     52.3430   6.7092551178e+01   6.7758032194e+01    0.2855762     0.230348  32.20 0.0006337852    1.242    0.195
        87  -8.8062    220.0683    246.3554   4.7921333536e+01   6.7055134379e-02    0.1381636    0.0947637  -6.01 0.0004474513    1.054    0.051
        88 -14.8113     29.2342    179.1716   8.3627915523e+01   3.2772778733e+01      5.38867     2.705135  68.60   0.02240194    2.337    0.572
        89  -8.5985     60.3830     21.1802   3.0208953532e+01   6.6368601471e+01    0.1789452    0.1274292 -45.57 0.0005523588    1.570    0.363
        90  -9.5087     93.6211    242.2318   7.2104572811e+01   1.2516533313e+01    0.2100514    0.1673798   6.66 0.0003500631    1.105    0.095
