#   1 NUMBER                 Running object number                                     
#   2 MAG_AUTO               Kron-like elliptical aperture magnitude                    [mag]
#   3 X_IMAGE                Object position along x                                    [pixel]
#   4 Y_IMAGE                Object position along y                                    [pixel]
#   5 X_WORLD                Barycenter position along world x axis                     [deg]
#   6 Y_WORLD                Barycenter position along world y axis                     [deg]
#   7 A_WORLD                Profile RMS along major axis (world units)                 [deg]
#   8 B_WORLD                Profile RMS along minor axis (world units)                 [deg]
#   9 THETA_WORLD            Position angle (CCW/world-x)                               [deg]
#  10 FWHM_WORLD             FWHM assuming a gaussian core                              [deg]
#  11 ELONGATION             A_IMAGE/B_IMAGE                                           
#  12 ELLIPTICITY            1 - B_IMAGE/A_IMAGE                                       
         1 -12.4849    212.7257     25.0693   4.1038007630e+01   2.8852844077e+01    0.9807711    0.7801064  29.87  0.005582525    1.667    0.400
         2 -12.6592    200.5952     37.4408   4.5666806713e+01   3.0263651974e+01     1.418513     1.023426  32.00  0.007184342    1.808    0.447
         3 -10.3568     13.3619     10.8961   9.0081504648e+01   7.2014405547e+01    0.1977225    0.1846764  20.06  0.001516599    1.649    0.394
         4 -10.5180    237.3421      2.3839   3.3606387082e+01   2.5708807472e+01    0.6358395    0.2376362  75.70  0.002921673    2.509    0.601
         5 -12.9928    114.9519    229.5618   1.0723196027e+02   1.1618129495e+01     2.667472    0.4723611  39.43  0.008243846    4.502    0.778
         6 -12.6601     85.4007    228.5407   1.1307814784e+02   1.6248385571e+01     2.050819     1.132444 -78.27   0.00684798    2.128    0.530
         7 -13.2478     48.2541    221.0040   1.1972589439e+02   2.2639675490e+01     2.055347     1.739509  53.93   0.01478047    1.227    0.185
         8 -13.0854     42.2228    203.4399   1.1949277519e+02   2.6976466266e+01      1.57315    0.7789876  89.85  0.001914352    2.086    0.521
         9 -12.6939     52.2909    193.1518   1.1640319894e+02   2.8010684574e+01     1.558119     0.865689 -77.35  0.006675757    1.706    0.414
        10 -12.7295     28.9903    247.9294   1.2499873050e+02   1.9753379170e+01    0.7788405    0.6124983  30.32  0.004845378    1.742    0.426
        11 -15.6068      8.8743    240.7827   1.2800782838e+02   2.3133943066e+01     14.41714     1.688897 -77.90   0.04546003    8.024    0.875
        12  -7.8058     99.5119    180.5027   1.0390929540e+02   2.4129548233e+01    0.1397889    0.1285655  70.58 0.0008105693    1.004    0.004
        13  -9.3295     42.9655    180.0520   1.1715622930e+02   3.2048661171e+01    0.1876761    0.1628045  84.60 0.0003622723    1.074    0.069
        14 -10.3618     67.5621    176.8483   1.1104108354e+02   2.9735921176e+01    0.4608153    0.2772864 -41.43  0.002195447    2.249    0.555
        15 -10.4107     72.2523    171.9559   1.0925105566e+02   3.0229805873e+01    0.3109148    0.2693784 -66.57 0.0007492693    1.162    0.139
        16 -11.5395     12.4449    189.2133   1.2452325473e+02   3.3091426911e+01    0.3955155    0.2979193  75.86 0.0003030286    1.058    0.055
        17  -9.9280    102.8874    170.7814   1.0151822365e+02   2.5784005522e+01    0.3810592    0.1762534  49.63   0.00150915    2.263    0.558
        18 -10.0578     92.6291    167.5045   1.0352515010e+02   2.8222941968e+01    0.5057178     0.183656  44.14  0.001722769    2.675    0.626
        19 -10.6923     87.4539    156.0859   1.0292810481e+02   3.1746510805e+01    0.6606231    0.4376793 -26.21  0.002203261    2.339    0.573
        20 -11.8436     68.7294    144.4225   1.0594145794e+02   3.7329054757e+01    0.8410844    0.5676785  80.85  0.002758256    1.775    0.437
        21 -10.8953     81.0145    162.5600   1.0566446269e+02   3.1183696509e+01     0.646381    0.3835862  58.54 0.0005227995    1.880    0.468
        22 -11.9383     68.9883    158.1268   1.0806533198e+02   3.3966153595e+01    0.6453224    0.5411236 -22.45  0.001353014    1.567    0.362
        23  -8.1155    158.9960    162.2460   8.6310439762e+01   1.7153496594e+01    0.2357081    0.1714441  70.86 0.0006630884    1.924    0.480
        24  -9.6564     32.3965    156.7767   1.1718945321e+02   3.8592985767e+01    0.2161545    0.1434458  87.42  0.001223223    1.390    0.281
        25 -13.5365     59.0161    246.8882   1.1968923430e+02   1.6397211349e+01     2.462175     0.779363  32.83  0.003954536    3.814    0.738
        26  -8.2102     39.4948    146.4862   1.1413294216e+02   4.0340134218e+01    0.1328286    0.1109566 -87.32 -0.0001192045    1.051    0.049
        27  -9.4553     73.2397    229.4796   1.1557520891e+02   1.7765162112e+01     0.401646    0.1356307 -61.02  0.001808711    3.087    0.676
        28 -14.2343      7.9015    203.6368   1.2631100738e+02   3.0451920439e+01     2.842057     1.021226 -87.00  0.007562975    2.549    0.608
        29  -7.8664    133.3195    142.6579   8.8255833965e+01   2.6639024797e+01    0.1598805    0.1235432  84.87 0.0003593951    1.719    0.418
        30  -9.2130    101.7836    140.5473   9.6133325302e+01   3.3105682778e+01    0.4917003    0.3076648 -23.18  0.001895943    2.671    0.626
        31 -10.6216     89.1869    140.4815   9.9580529121e+01   3.5240635977e+01    0.3001349    0.2606566 -41.21 0.0005354459    1.216    0.178
        32 -11.0860     57.3043    127.5575   1.0623867642e+02   4.2957743943e+01    0.9073786     0.355362 -70.40  0.003226414    3.004    0.667
        33  -8.8482    111.0718    130.8155   9.1451656687e+01   3.3738858380e+01    0.2865009    0.2221797  12.77  0.001336426    1.626    0.385
        34  -8.6938    105.9578    130.4728   9.2790663362e+01   3.4767881769e+01    0.3537342    0.2210238 -51.89  0.001486089    1.550    0.355
        35  -8.1001     29.3605    130.2886   1.1472968413e+02   4.5245579990e+01    0.1306393   0.08648668 -41.26 0.0007025042    1.689    0.408
        36  -9.1781     98.3471    126.8539   9.4117096225e+01   3.6995234124e+01    0.2688771    0.2346124   1.80 0.0005909486    1.343    0.255
        37 -10.7096     20.8860    124.3154   1.1632886195e+02   4.7398549642e+01    0.3160978     0.258626  73.06  0.002041207    1.265    0.209
        38  -8.5195    107.8396    119.4647   8.9656178199e+01   3.7022915206e+01    0.2274444    0.1994457 -47.31 0.0004015137    1.103    0.093
        39  -7.5555    134.3492    119.6679   8.2439611849e+01   3.1622780710e+01    0.1643864    0.1273632  88.14 0.0007048249    1.771    0.435
        40  -9.6135    178.0608    222.3940   9.3341323556e+01   2.4547599658e+00    0.3234411    0.1799829 -43.06  0.001645387    2.063    0.515
        41 -10.9741     17.9082    111.1035   1.1538181952e+02   5.0790739646e+01    0.4795882     0.145706 -69.24  0.001638704    2.668    0.625
        42  -8.5274    205.6570    110.0461   6.3952054024e+01   1.7424195502e+01    0.2217238    0.1852821 -33.36 0.0006710778    1.134    0.118
        43  -8.3558    134.6239    106.2186   7.8779686618e+01   3.4521714874e+01    0.2315986     0.147403 -34.09 0.0009530829    1.666    0.400
        44  -8.6975     93.0711    218.1597   1.1038778616e+02   1.7145548929e+01    0.2047009     0.168973 -81.81 0.0005174979    1.254    0.202
        45  -9.3198     41.6277    104.1503   1.0667244946e+02   5.0420987654e+01    0.2713434    0.2332522  11.01  0.001658234    1.370    0.270
        46  -9.1133     32.8882     99.3583   1.0862033111e+02   5.2398509651e+01    0.2332661    0.1620176 -73.85  0.001083262    1.380    0.276
        47  -8.4978     41.5095     91.9463   1.0413928228e+02   5.3330721636e+01    0.1863356     0.175649 -23.18 0.0004489141    1.150    0.131
        48  -8.1747    113.4395    207.4828   1.0468216206e+02   1.6092832438e+01    0.1351363    0.1169669  58.87 -7.763977e-05    1.049    0.047
        49  -8.6374     54.8074     65.5923   9.2141810750e+01   5.7683855390e+01    0.1826998    0.1244339  41.17 0.0009543679    1.750    0.429
        50  -9.5392     63.7626    201.7621   1.1479756011e+02   2.4678261073e+01    0.2882133    0.2049755 -60.84  0.001221663    1.507    0.336
        51 -11.6901    191.2383     44.0821   4.8772613048e+01   3.1701791477e+01    0.6556834    0.4880457  20.17  0.002270495    1.818    0.450
        52  -9.8238    120.2976    222.6461   1.0526176434e+02   1.2043177954e+01    0.4928398    0.3749975 -13.68  0.002721861    2.020    0.505
        53  -8.6023    143.2247     48.1710   5.8717842387e+01   4.3235345118e+01    0.2745968    0.1922369 -87.42 0.0008216624    2.033    0.508
        54  -8.4049     66.5326    195.3848   1.1350564758e+02   2.5694065953e+01    0.2657263    0.1615125  83.78  0.001259178    1.787    0.440
        55  -8.5652    145.6983     42.3462   5.6259874090e+01   4.3448483271e+01    0.2428485    0.2142066 -79.72  0.001016206    1.267    0.211
        56  -9.8425    168.0247    223.7827   9.5585386795e+01   3.9132665296e+00    0.3076759    0.1577212 -33.81  0.001209133    2.485    0.598
        57 -11.9663    113.1429    236.2311   1.0838553352e+02   1.0700623283e+01    0.7129537    0.3464156  37.52  0.003593434    1.802    0.445
