#   1 NUMBER                 Running object number                                     
#   2 MAG_AUTO               Kron-like elliptical aperture magnitude                    [mag]
#   3 X_IMAGE                Object position along x                                    [pixel]
#   4 Y_IMAGE                Object position along y                                    [pixel]
#   5 X_WORLD                Barycenter position along world x axis                     [deg]
#   6 Y_WORLD                Barycenter position along world y axis                     [deg]
#   7 A_WORLD                Profile RMS along major axis (world units)                 [deg]
#   8 B_WORLD                Profile RMS along minor axis (world units)                 [deg]
#   9 THETA_WORLD            Position angle (CCW/world-x)                               [deg]
#  10 FWHM_WORLD             FWHM assuming a gaussian core                              [deg]
#  11 ELONGATION             A_IMAGE/B_IMAGE                                           
#  12 ELLIPTICITY            1 - B_IMAGE/A_IMAGE                                       
         1 -12.1288     12.2970     48.6461   9.2591930579e+01   6.6169653904e+01    0.9197767    0.4148712 -63.37  0.004039413    3.007    0.667
         2 -12.9275     57.5205     34.4958   6.5698791661e+01   6.2959390817e+01    0.3905106    0.2797935  -9.23  0.000149409    1.401    0.286
         3 -10.0030     15.1235     13.8411   7.6994322457e+01   7.1751077224e+01    0.2218163      0.13707 -28.31  0.001035696    1.458    0.314
         4 -12.2085     28.1481      3.2030   6.4358258291e+01   7.1382803762e+01    0.4160051     0.213146  31.71 0.0009106298    1.613    0.380
         5 -10.7807     22.9823      7.9380   6.9566744414e+01   7.1567540062e+01    0.3314557    0.1814228  40.95 0.0009955836    2.098    0.523
         6 -11.4674     19.4458      3.3499   6.9089981439e+01   7.2555803697e+01     0.654734    0.3070669  16.02  0.003333241    2.375    0.579
         7 -11.0041     12.4907      2.2591   7.2552424361e+01   7.3528982902e+01     0.321152     0.188843  -2.55  0.002013578    1.557    0.358
         8 -11.6870     22.9427     24.2025   7.7465926773e+01   6.9397778565e+01    0.5532429    0.2212102 -30.46  0.002572875    2.547    0.607
         9 -10.8921     20.1219     16.0867   7.5233728308e+01   7.0881351663e+01    0.8289536    0.4035836  -4.50  0.003736245    3.021    0.669
        10 -11.6580    128.1600     24.7024   4.2002950909e+01   4.9244525634e+01    0.4470009    0.2662944 -29.00  0.002341239    1.919    0.479
        11 -11.6835    159.8882     22.6021   3.6329875675e+01   4.2041587932e+01    0.3462079    0.2828769  17.50    0.0016334    1.674    0.402
        12 -10.8232     59.3765     20.7197   5.9103238576e+01   6.4384158614e+01    0.3718796    0.2014275 -13.64  0.001097465    2.227    0.551
        13 -11.4136     60.3062     14.1726   5.5871821147e+01   6.4918360938e+01    0.3755624    0.2461261  59.51   0.00202987    1.889    0.471
        14 -10.6354      9.5718     15.9156   8.1292465265e+01   7.2018008364e+01    0.2903015    0.1618126 -15.84  0.001226997    1.644    0.392
        15 -11.9570      3.5483     16.6672   8.5343616066e+01   7.2429102227e+01    0.3481326    0.2354284  24.65    0.0017675    1.647    0.393
        16 -11.8603     46.8615     14.5222   6.1322911146e+01   6.7255666606e+01    0.6993741    0.4398204  37.72  0.004106099    1.376    0.273
        17 -10.6963     39.6969     11.0413   6.2805002110e+01   6.8800245940e+01    0.2287025    0.1479969  37.28  0.000526175    1.391    0.281
        18 -11.8716     40.0453     15.3621   6.4735104317e+01   6.8256576485e+01    0.3347116    0.2507431 -21.06 0.0005125302    1.377    0.274
        19 -11.9106    237.9578     17.7230   2.7622540512e+01   2.5883617805e+01    0.2801558    0.1699172 -81.11 0.0003434555    1.432    0.302
        20 -10.3640     73.5108      6.4921   4.8221548595e+01   6.3043409080e+01    0.2806781    0.2041239 -26.90  0.001773204    1.620    0.383
        21 -10.5675     76.4864     11.0408   4.9234823278e+01   6.2043450275e+01    0.3826964    0.1980812  58.88  0.001947779    1.850    0.459
        22 -11.0433     73.7688     16.8601   5.2460797402e+01   6.2043348426e+01     0.456441    0.2411833  37.37  0.002357881    1.672    0.402
        23 -10.5448     70.5844     13.7103   5.2158994080e+01   6.2987404761e+01    0.2991995     0.191758  -1.63  0.001200475    1.796    0.443
        24 -10.7842     43.7992      8.8212   5.9905036717e+01   6.8370143258e+01    0.2438005    0.1992306  20.46 0.0008743465    1.106    0.096
        25 -11.1244     32.9420     16.5744   6.8710187866e+01   6.9162065605e+01    0.5168229    0.2196114  24.14  0.002005871    2.568    0.611
        26  -9.5159    118.4528     12.5019   3.9953900474e+01   5.2682509177e+01     0.204866    0.1847131  29.84  0.001367598    1.216    0.178
        27  -9.7909    118.0045      8.6910   3.8807278916e+01   5.3113521937e+01    0.1887545    0.1795166 -10.02  0.000685305    1.256    0.204
        28 -12.3845    128.5316     11.0986   3.7757421602e+01   5.0475083338e+01     0.410941    0.2903725 -76.17  0.000480571    1.623    0.384
        29 -10.3744    157.1561     12.4627   3.4024886510e+01   4.3700824518e+01    0.2330572    0.1161781 -53.67  0.001146615    2.219    0.549
        30 -11.3597      8.9530      9.1578   7.8368787500e+01   7.3032341765e+01    0.4555129    0.2372497  22.28  0.002156501    1.707    0.414
        31  -9.7896    138.0140     10.9612   3.6233824402e+01   4.8282802516e+01    0.1982743    0.1339454 -74.55 0.0005607032    1.661    0.398
        32 -11.2710    164.3621      6.8193   3.1728383630e+01   4.2574719313e+01     0.433868    0.2009395 -27.67  0.001799832    2.540    0.606
        33 -10.1433    240.5584      9.4855   2.5950855189e+01   2.6310470425e+01    0.1116137   0.08037325 -69.48 9.490335e-05    1.026    0.026
        34 -12.5618    213.9372      5.9686   2.7080491600e+01   3.1895473109e+01    0.6594228    0.3549329 -71.01   0.00391554    1.664    0.399
        35  -9.5456    150.5225      5.5596   3.3027382245e+01   4.5858493196e+01     0.180731    0.1033954  84.36 4.552913e-05    1.651    0.394
        36 -11.1216    146.1563      7.0953   3.4002712195e+01   4.6733782000e+01    0.3219683    0.2470434  36.04 0.0009450673    1.556    0.357
        37 -11.3617    148.7059      2.0298   3.2305450667e+01   4.6573744761e+01    0.3098952    0.1731045  72.49  0.000336169    1.477    0.323
        38 -11.0563    194.5391      1.8605   2.7721128520e+01   3.6356652568e+01    0.3869194    0.1480898  79.31  0.001868106    2.350    0.574
        39 -10.8358    190.9855      7.3440   2.9211845333e+01   3.6593430086e+01    0.3982617    0.2376609 -50.04  0.002101033    1.579    0.367
        40 -10.6340    187.3785      6.1760   2.9275236743e+01   3.7492835115e+01    0.2172961    0.1533507 -64.38 0.0008912075    1.279    0.218
        41 -10.5740    155.4957      7.0908   3.2823301340e+01   4.4579226271e+01    0.3297363    0.1878207  34.05  0.001307553    2.581    0.613
        42 -12.1780    233.6102      5.8007   2.5718036783e+01   2.8021201524e+01    0.3342233    0.2106097  52.31  0.002128334    2.278    0.561
        43  -9.3185    108.7072      5.7079   3.9544771635e+01   5.5476714693e+01    0.1267991   0.07837164  40.90 0.0003128459    1.552    0.356
        44 -10.6301     98.6405      3.8409   4.0920135536e+01   5.7878740948e+01    0.2695004    0.2320588  56.32  0.001191024    1.065    0.061
        45  -9.4690     61.7440      5.1667   5.1339542114e+01   6.5484251856e+01    0.1643369    0.1101879  28.99 0.0003736195    1.282    0.220
        46 -10.8478    223.7103      3.6709   2.5958347937e+01   3.0168262032e+01    0.1804432    0.1638628  71.81 0.0006947672    1.457    0.313
        47 -10.5391    179.0360      4.0310   2.9557139862e+01   3.9532030778e+01    0.1829576    0.1455004 -86.88 0.0003849868    1.019    0.019
        48 -10.7230    119.1007      3.8917   3.7082688554e+01   5.3248179614e+01    0.3160444    0.1563076  72.55  0.001572233    1.856    0.461
        49 -10.3811     68.1813      3.5732   4.8572455836e+01   6.4354459737e+01    0.1820256    0.1516715  18.36 0.0004879727    1.163    0.140
        50 -10.8860    243.0099      3.0131   2.4656396677e+01   2.6544542840e+01    0.1707613       0.1239 -68.29 0.0008441513    1.033    0.032
        51  -9.9869    126.3778      2.7266   3.5553089041e+01   5.1665567801e+01    0.1795881    0.1494362  15.39 0.0004175786    1.480    0.324
        52 -10.2014     74.3969      2.3782   4.6247602677e+01   6.3188118563e+01    0.2258368    0.1730399  75.63 0.0008352125    1.603    0.376
        53 -11.0601    202.7507      3.4898   2.7415994517e+01   3.4459286257e+01    0.3167814    0.2346122  59.00  0.002160535    1.562    0.360
        54 -10.5106     89.8640      6.8903   4.4028523798e+01   5.9567763455e+01     0.394035    0.1422804  51.71 0.0007973182    2.092    0.522
        55  -9.3155      2.9536      1.2121   7.8029360743e+01   7.4663128248e+01    0.1378493   0.07268914  21.58 0.0008541507    1.655    0.396
        56 -10.7437     34.0517    173.9791   1.0867029081e+02   3.3750426474e+01    0.2216601    0.1790206 -76.71 0.0003252077    1.112    0.101
        57 -11.6566     88.9731    249.4530   1.0360611977e+02   9.0508629877e+00    0.3544432    0.2540157  32.69 0.0008604397    1.252    0.201
        58 -10.1840     72.4832    250.2488   1.0731727603e+02   1.1092076650e+01    0.2251819    0.1618894  10.28 0.0008186922    1.806    0.446
        59 -13.0969     19.1169    237.2608   1.1768597761e+02   2.0068790289e+01     1.738306    0.4674921  55.96  0.006355756    3.920    0.745
        60 -11.7445      5.0456    235.7911   1.2046847710e+02   2.1743564862e+01    0.3796453    0.3205772  47.45  0.002487598    1.247    0.198
        61 -13.2163      6.6437    245.0086   1.2062317881e+02   1.9649753781e+01    0.9066092    0.5963914  39.17  0.004858812    1.437    0.304
        62 -12.5656     22.3675    249.1019   1.1774569621e+02   1.7236502737e+01    0.8071238    0.2544068  32.21  0.003637073    2.794    0.642
        63 -11.2423     17.2386    247.3806   1.1866688480e+02   1.8119524381e+01    0.2989836    0.1882627  48.54 0.0009599308    1.320    0.242
        64 -10.8332     18.1105    173.0824   1.1291363267e+02   3.5475438238e+01    0.3542383    0.2146128  61.90  0.001772188    1.721    0.419
        65 -12.8757     50.0718    161.6752   1.0245048855e+02   3.5231225650e+01    0.5277321    0.3762262  73.50 0.0007529962    1.594    0.373
        66 -11.2359     35.6391    161.9326   1.0673435787e+02   3.6747273169e+01    0.4332203    0.3269639 -10.53  0.001465392    1.685    0.407
        67  -9.2710    177.2789    168.6933   6.9391623345e+01   1.2171754153e+01    0.1399613    0.1204227 -81.15 0.0002213947    1.554    0.357
        68  -9.7354      4.6595    168.7154   1.1609340711e+02   3.7644973401e+01    0.1306312   0.08675542 -46.12  0.000681298    1.634    0.388
        69 -11.9994     44.2459    162.6709   1.0431448111e+02   3.5635539671e+01    0.6398835    0.3511422  41.35  0.002872701    1.889    0.471
        70 -12.0826     36.6424    166.4713   1.0702868266e+02   3.5448660340e+01    0.7537565    0.4878059  87.53    0.0032035    1.646    0.392
        71  -9.2587    111.7036    164.3429   8.4941652682e+01   2.5276685056e+01    0.1603028     0.124904  77.88 0.0004907646    1.665    0.400
        72  -9.0694     99.2851    164.6673   8.8509800419e+01   2.7335526794e+01    0.1580695    0.1223181  76.28 0.0003000232    1.619    0.382
        73  -9.0945    200.5294    162.5005   6.3213062015e+01   9.3108746879e+00    0.1443336     0.129186 -33.07 0.0008092124    1.061    0.057
        74 -12.8420     21.0715    157.4696   1.1042346342e+02   3.9274906890e+01    0.6688319    0.4619622   8.99 0.0009173988    1.798    0.444
        75  -9.6638    216.3030    155.0424   5.8673798822e+01   8.0602899349e+00     0.197037    0.1561761 -38.21 0.0003060763    1.099    0.090
        76 -10.3986     10.6962    153.1652   1.1295065356e+02   4.1206373795e+01    0.2975114    0.1845297  30.30   0.00116337    1.794    0.443
        77 -10.0938    177.2827    150.8930   6.5515767718e+01   1.5971032712e+01    0.2654184    0.2194525  77.61  0.001305658    1.621    0.383
        78 -10.3665    207.0469    146.6670   5.8588878639e+01   1.1286261784e+01    0.1908113    0.1820611  -3.04 0.0006059677    1.122    0.108
        79  -9.2359     41.0256    146.0266   1.0282357400e+02   4.0407296902e+01    0.1666338    0.1558571 -64.69            0    1.038    0.036
        80  -9.6266     19.3707    146.2284   1.0957667837e+02   4.2360351970e+01    0.1984545    0.1172982 -83.47 0.0004863424    1.657    0.396
        81  -9.9370     10.2217    144.9934   1.1219903493e+02   4.3360285184e+01    0.4036949    0.2110467   9.63  0.001892309    2.445    0.591
        82  -9.7525    220.3751    143.8276   5.5611840686e+01   9.4877428587e+00    0.1994103    0.1146744 -33.92 0.0006788915    1.620    0.383
        83 -10.6107     59.0404    139.9702   9.6009595209e+01   3.9892333690e+01    0.4816746    0.2719952  60.19 -0.000156228    2.573    0.611
        84 -10.8777      9.0978    136.7921   1.1159023240e+02   4.5562181617e+01    0.2648803    0.1579018 -66.83 0.0003885703    1.378    0.274
        85 -10.4567      2.4840    136.7028   1.1362714936e+02   4.5989449462e+01    0.3341076    0.1027709 -70.57  0.001288281    2.523    0.604
        86  -9.3124    143.5662    137.4671   7.0350637947e+01   2.5689950012e+01    0.1574639    0.1519391 -39.94 0.0001510862    1.028    0.027
        87 -10.3403     17.3349    137.1480   1.0904103457e+02   4.4894294042e+01    0.2055877    0.1787123 -25.22  0.000412353    1.278    0.218
        88  -9.8148     20.8301    134.8582   1.0760796842e+02   4.5224367128e+01    0.2079197    0.1572094 -69.57 0.0006986648    1.153    0.133
        89  -9.5403    122.7742    135.0176   7.5311203964e+01   3.0460675962e+01     0.216884    0.1303294 -48.88 0.0005158861    1.632    0.387
        90  -9.9358    249.2777    134.0440   4.9126867922e+01   6.5055341380e+00    0.1853532    0.1388315 -40.96 0.0004767749    1.069    0.064
        91  -9.7237     79.9426    132.9657   8.7786853654e+01   3.8710646711e+01    0.1856745    0.1801832  -7.95 0.0005859159    1.050    0.047
        92 -11.7712     55.3784    132.5879   9.5792206764e+01   4.2306092905e+01    0.6389112    0.2928189  22.90  0.002440749    2.505    0.601
        93 -11.2844     36.3801    130.3905   1.0176876317e+02   4.5017489822e+01    0.5258108    0.2680371 -40.69  0.002056846    2.026    0.507
        94 -11.0049     73.9990    129.1832   8.8882635617e+01   4.0607368933e+01    0.3401796    0.3125077 -48.47 0.0008400587    1.034    0.033
        95 -11.4077     24.1254    125.9984   1.0518905971e+02   4.7271269590e+01    0.2814223    0.2215908  20.65 0.0007733453    1.443    0.307
        96 -11.1162     10.6380    123.0353   1.0931297421e+02   4.9012264377e+01    0.2733218    0.2613675  69.46 0.0009392907    1.196    0.164
        97 -11.0254     17.3061    125.7610   1.0745895533e+02   4.7857905485e+01    0.3114494    0.2143357 -12.73  0.001192544    1.730    0.422
        98 -10.3740     13.6712    125.7019   1.0866938361e+02   4.8127767419e+01    0.2232425    0.1398638 -53.56 0.0006024842    1.358    0.264
        99  -9.7232    220.1593    124.1787   5.1473802493e+01   1.3182700908e+01    0.1891102     0.148673 -60.07 0.0004533093    1.311    0.237
       100  -9.3494    243.7073    122.6895   4.7646953343e+01   9.3551494417e+00     0.123604    0.0939805 -17.38 0.0003423293    1.588    0.370
       101  -9.8335      1.4317    118.9463   1.1186659438e+02   5.0578010747e+01    0.2003239    0.1084336 -70.37 0.0003595751    1.520    0.342
       102 -10.1353     72.7283    117.6912   8.6644161563e+01   4.3720744411e+01    0.2913591    0.1864607 -78.83 0.0007326179    2.353    0.575
       103  -9.4908    179.2049    116.1950   5.7031217055e+01   2.2809780136e+01    0.2052326    0.1732987 -73.23 0.0007041964    1.318    0.241
       104  -9.8567     85.8334    116.1956   8.1866716294e+01   4.1957946288e+01    0.2192685    0.1764587 -24.12 0.0005288512    1.312    0.238
       105 -11.0301     16.5580    115.2486   1.0609406986e+02   5.0610492095e+01    0.3903472    0.2097398 -29.29  0.001252085    2.091    0.522
       106  -9.7635    214.0417    115.3164   5.0536200889e+01   1.5951656532e+01    0.1815961    0.1746923 -64.47 0.0004608755    1.111    0.100
       107 -11.1012    249.4561    112.4058   4.4832932060e+01   1.0151917365e+01    0.2504804    0.1851386 -56.83  0.000633858    1.253    0.202
       108 -10.2492     94.9936    112.2292   7.7856168388e+01   4.1280782261e+01    0.2801044     0.226939 -44.74 0.0009845556    1.202    0.168
       109  -9.9289     23.2827    117.6362   1.0410589971e+02   4.9498349319e+01     0.178725    0.1280516  -6.75 0.0006433678    1.613    0.380
       110 -11.6945     36.9188    110.1082   9.7737640974e+01   5.0192917416e+01    0.4405506     0.312564  72.00  0.001725552    1.954    0.488
       111 -11.3331     55.1284    109.9767   9.1013557705e+01   4.8138600324e+01    0.3036368    0.2649418  -4.91  0.000495506    1.179    0.152
       112  -9.8360     55.6939    106.3114   8.9927764308e+01   4.8971230505e+01    0.2135789    0.1606713 -28.80 0.0004127756    1.329    0.248
       113 -11.9361     14.0270    109.1830   1.0600892690e+02   5.2316252970e+01    0.5187941    0.2992024  -2.46  0.002541993    2.106    0.525
       114 -10.5481      1.3178    108.3329   1.1047413867e+02   5.3248427180e+01    0.4114339    0.1775977 -73.89   0.00178429    2.071    0.517
       115 -10.1863      2.4794    105.4459   1.0963416252e+02   5.3909210349e+01    0.1949512    0.1474779 -74.69 6.791739e-05    1.225    0.183
       116  -9.4169     99.5294    107.4203   7.5119470150e+01   4.1551307578e+01    0.1527608    0.1507803  -1.02 0.0003069295    1.054    0.051
       117 -11.2823     23.5430    106.2052   1.0194771153e+02   5.2374338074e+01    0.3588964    0.2747322 -82.09  0.001565596    1.440    0.306
       118 -11.0892    120.1784    101.0513   6.7178212976e+01   3.8775873614e+01    0.6850802    0.3095981 -29.60  0.002058914    3.630    0.725
       119 -10.7961     51.9680    103.6872   9.0670396812e+01   5.0091642797e+01    0.2629754    0.1784408 -40.74 0.0007748919    1.363    0.266
       120 -10.2840     37.7347    104.0151   9.6123500679e+01   5.1632067936e+01    0.2111117    0.1708535 -48.99 0.0006329752    1.091    0.083
       121 -10.3103     77.7082    102.3626   8.0981730818e+01   4.6644071511e+01    0.2282472    0.1831155  73.52 0.0006354254    1.721    0.419
       122  -9.7186     25.6843    102.2760   1.0036063282e+02   5.3177608833e+01    0.1290403    0.1042029  64.49 0.0002331861    1.566    0.362
       123 -11.1412     19.3080    100.9778   1.0255413852e+02   5.3995262909e+01    0.2825451    0.1885093 -19.87 0.0002382236    1.601    0.375
       124  -9.7580     24.0306     99.2373   1.0037865095e+02   5.4060862772e+01     0.218572    0.1675157  14.89 0.0004917588    1.440    0.306
       125 -11.4163    143.2744     98.5857   6.0455216691e+01   3.4227845348e+01     0.538534    0.4179049  71.35  0.002554101    1.524    0.344
       126 -11.5679     62.8581     98.6291   8.5313224022e+01   4.9833286155e+01    0.5053022    0.3116794  17.75  0.002245868    1.839    0.456
       127 -10.5173     51.0509     99.0153   8.9855803002e+01   5.1337439357e+01    0.2869169    0.1943176 -32.59 0.0007100806    1.454    0.312
       128  -9.6416     54.9846     98.5547   8.8243218690e+01   5.0941269762e+01    0.2060724    0.1425808  23.52 0.0003114797    1.515    0.340
       129 -11.7947     14.5688     97.3382   1.0369439497e+02   5.5216642205e+01    0.3866467    0.2410272 -62.97  0.002036089    1.394    0.282
       130 -11.8954     10.9415     90.7123   1.0385738837e+02   5.7045876374e+01    0.3565412     0.312614  35.57 0.0009948228    1.390    0.281
       131 -12.7277    166.7000     84.6917   5.1623310015e+01   3.1558437964e+01     1.069566    0.7121807  33.91  0.004873396    1.928    0.481
       132 -11.8621    157.4102     83.0024   5.3050101037e+01   3.3982480527e+01    0.7775068    0.5185654  31.95  0.003486423    1.936    0.483
       133 -10.5444     37.3458     94.8769   9.4163702291e+01   5.3896801828e+01    0.2408012    0.2315039  35.38 0.0006932351    1.224    0.183
       134 -11.0775     64.3035     93.7182   8.3431791876e+01   5.0763010224e+01    0.6645006     0.169497  35.28  0.002015477    3.835    0.739
       135 -11.3062     57.7123     90.0441   8.4903272044e+01   5.2554334561e+01    0.5237704    0.3293731   6.67  0.002010519    1.955    0.488
       136 -12.4537    158.1468     89.8689   5.4730193121e+01   3.2558894138e+01    0.3789492    0.3157926 -49.11  0.001677747    1.182    0.154
       137  -9.3296    113.4321     93.5026   6.6954134832e+01   4.1798216143e+01     0.154349    0.1456042  -0.93 0.0001199508    1.060    0.057
       138  -9.8664    127.4992     92.5013   6.2756366038e+01   3.8961219539e+01    0.1508853    0.1495797  30.04 -0.0001978134    1.013    0.013
       139  -9.2582     46.5302     92.4976   8.9933988984e+01   5.3437191506e+01    0.1429287    0.1288911 -31.97 3.773125e-05    1.038    0.036
       140 -10.7817     25.5175     91.3587   9.8085994966e+01   5.5844066801e+01     0.252623    0.2111072 -46.39  0.001495251    1.050    0.047
       141 -11.7057     22.1436     87.4886   9.8588884854e+01   5.7035197468e+01    0.4895974    0.2418773 -49.36  0.001827975    1.648    0.393
       142 -10.8413      5.0323     98.0889   1.0751755243e+02   5.5591136431e+01    0.2209772    0.1709643 -15.20 0.0008375432    1.380    0.276
       143 -10.5055     96.6478     89.3314   7.0854071499e+01   4.6097181012e+01    0.3049864    0.1883615  36.95  0.001182496    1.616    0.381
       144 -10.0915     83.1226     88.7975   7.5208569820e+01   4.8758020890e+01    0.2094609    0.2059871  -1.61 0.0005654198    1.111    0.100
       145 -11.0152     78.6333     87.4933   7.6390547547e+01   4.9832231459e+01    0.3024484    0.2656193 -81.37  0.001581029    1.487    0.328
       146 -11.1512     63.7922     83.0777   8.0532716659e+01   5.3211914970e+01    0.6450072    0.1961298  37.22  0.002147434    3.298    0.697
       147 -11.5763      4.2298     84.0233   1.0530491674e+02   5.8998167744e+01    0.6318607    0.2095888 -60.32  0.002694148    2.241    0.554
       148 -10.0452      7.6694     82.6979   1.0360026400e+02   5.9127093114e+01    0.3748112    0.1304053 -48.28  0.001353373    2.136    0.532
       149  -9.1783    250.3074     95.6981   4.1441755852e+01   1.2748604762e+01    0.1262944   0.08135544 -63.91 0.0003229833    1.600    0.375
       150  -9.6479    120.8671     86.8300   6.2900370749e+01   4.1545523350e+01    0.2009292    0.1826844 -82.04  0.000938467    1.257    0.204
       151 -10.1424    116.1974     84.0019   6.3357112536e+01   4.3116008848e+01    0.2884383    0.1840505  33.48  0.001254007    1.698    0.411
       152 -10.3213     46.6357     87.3897   8.8527861612e+01   5.4607332158e+01    0.2927689     0.197906  67.73  0.001262442    2.669    0.625
       153 -11.2047     31.0630     81.5865   9.3402601255e+01   5.7624193539e+01    0.4056728    0.2501893 -20.69  0.001340688    1.712    0.416
       154 -10.2967     65.1559     87.5213   8.1336916648e+01   5.2031450486e+01    0.2199466    0.2089599  83.20 0.0009957763    1.315    0.239
       155 -10.0677     41.8326     81.9987   8.8997347368e+01   5.6395783327e+01    0.2441087    0.1947472 -73.55  0.001158854    1.612    0.380
       156  -9.5092     86.9784     81.7598   7.1729856836e+01   4.9521776523e+01    0.1928909    0.1221947  37.33 0.0003434272    1.556    0.357
       157 -13.1758      5.1974     63.6706   1.0039141734e+02   6.3533879564e+01    0.7402381    0.5909489 -55.45  0.004794712    1.225    0.184
       158 -10.9518      6.6767     41.8550   9.3323283827e+01   6.7868577240e+01    0.6712031    0.1449243 -43.17  0.002617139    3.211    0.689
       159 -11.6248      6.5879     52.2161   9.6610051000e+01   6.5847324522e+01    0.4984623    0.3136601 -33.97  0.002130692    1.269    0.212
       160 -12.9362     10.4476     74.9976   1.0071762060e+02   6.0732330509e+01     1.376425    0.4938357  25.90  0.005948468    2.978    0.664
       161 -14.1053     16.6703     67.5482   9.6036735423e+01   6.1959576413e+01    0.5221071    0.3956459 -23.49  0.001662345    1.152    0.132
       162 -11.0221     14.3227     59.1770   9.4805431662e+01   6.3904068681e+01    0.4391961      0.21616  43.69  0.001582483    3.304    0.697
       163 -12.5904    226.5412    245.3300   7.3722177306e+01  -8.9900181507e+00    0.7783898    0.3795595   0.10  0.003484475    2.923    0.658
       164  -9.4699    112.4584     79.5624   6.3073093620e+01   4.4776970317e+01    0.1492395    0.1414647  21.14 7.407258e-05    1.021    0.020
       165 -10.9298     60.6910     77.8865   8.0142711691e+01   5.4788131329e+01    0.3592962    0.3263148 -86.79  0.001225302    1.491    0.329
       166 -11.2366     51.3720     62.1807   7.8799721448e+01   5.9306732914e+01    0.5065998    0.4159096  71.41   0.00271557    2.021    0.505
       167 -10.6719     54.4822     74.5633   8.1580929785e+01   5.6387484970e+01    0.3640207    0.2484434  43.83  0.001027383    1.750    0.428
       168 -12.8170     44.5869     75.0532   8.5828198650e+01   5.7589931040e+01    0.3153096    0.2808772  35.23  0.000443746    1.329    0.248
       169 -10.8720     43.0694     68.3574   8.4401919171e+01   5.9181295117e+01    0.2941787    0.2097465   4.24  0.001583684    1.414    0.293
       170 -10.7805     36.3178     68.5403   8.7413849757e+01   5.9933596913e+01    0.4036716    0.2116932  42.85  0.001795267    2.562    0.610
       171 -11.1407     93.1056     73.9538   6.7209663530e+01   4.9866300730e+01    0.5206047    0.3038472  27.13  0.001388741    2.004    0.501
       172 -10.7837     74.5358     75.2868   7.4059584483e+01   5.3078321357e+01     0.281748    0.1977748 -14.11 0.0008516587    1.644    0.392
       173 -10.6766    207.4990     73.4153   4.2169212813e+01   2.4484422021e+01     0.215996    0.1943563 -68.39 0.0002186339    1.050    0.048
       174  -9.7925    145.5228     73.9973   5.3104466436e+01   3.8307286469e+01    0.2254743    0.1441709 -38.26  0.001038497    1.610    0.379
       175  -9.7453    137.4747     73.5884   5.4803983873e+01   4.0240171591e+01    0.1455206    0.1381946  48.51 -4.457968e-05    1.037    0.035
       176 -10.5025    101.9736     72.7308   6.4027002516e+01   4.8281275655e+01    0.3842192    0.2423247  66.68  0.001559714    2.440    0.590
       177 -12.0815     50.1504     68.6834   8.1489165080e+01   5.8195565203e+01    0.3914646    0.2745984 -37.58 0.0008503363    1.321    0.243
       178  -9.6016    152.1894     71.8766   5.1095750992e+01   3.7117697502e+01    0.1908485    0.1697304  22.68 0.0004647278    1.302    0.232
       179 -11.3480     77.4605     69.8973   7.1226843994e+01   5.3610311868e+01    0.4685035    0.2812104  39.63  0.001078798    1.638    0.389
       180 -10.0727    194.9859     69.9973   4.3153531847e+01   2.7698417190e+01    0.1989755    0.1809158 -72.66 0.0003928048    1.035    0.034
       181 -10.4214    167.8297     69.8226   4.7528752378e+01   3.3830760479e+01    0.1941622    0.1867733  48.54 0.0003190571    1.147    0.128
       182 -11.3881     94.3132     66.4605   6.4363305616e+01   5.0992725417e+01    0.4532584    0.3276894  -0.60 0.0008482082    1.730    0.422
       183 -12.5550    122.6152     63.9559   5.5509609076e+01   4.5270748906e+01    0.4364873    0.3316656 -61.51 0.0004511523    1.596    0.373
       184  -9.0762    110.6067     68.7479   6.0223001502e+01   4.7145014095e+01    0.1529963    0.1077061  22.93  0.000695425    1.684    0.406
       185  -9.7671    103.9232     67.6959   6.1818020451e+01   4.8771037659e+01    0.2026185    0.1800059  43.24 0.0004302148    1.096    0.088
       186 -11.9845     44.9716     38.6482   7.2783429155e+01   6.4327480970e+01    0.4529262    0.2489478  43.16  0.001547021    2.120    0.528
       187 -11.4956     51.8691     40.3919   7.0458795484e+01   6.3013394198e+01    0.2776516    0.2143969  29.00 0.0008556932    1.232    0.188
       188 -12.5502    232.1002    245.8128   7.2775350167e+01  -9.6931583216e+00    0.4318818    0.2368046 -25.78  0.001924811    1.579    0.367
       189 -11.0871     26.6971     55.9916   8.7843065392e+01   6.3486406962e+01    0.3241287    0.2176767 -35.47 0.0003526391    1.274    0.215
       190 -11.8939     26.8840     49.6825   8.5599334896e+01   6.4679184181e+01    0.4857757    0.3900841 -54.57   0.00200358    1.543    0.352
       191 -13.1908     37.8119     49.6924   8.0371989516e+01   6.3434504768e+01    0.7883216    0.6496506  -4.27  0.003009778    1.034    0.033
       192 -10.6328    151.9285     63.9108   4.8935756276e+01   3.8472011927e+01    0.4027687    0.1498138  46.66   0.00143087    2.866    0.651
       193  -9.6574    143.9489     64.3343   5.0689633733e+01   4.0272205476e+01    0.1995991    0.1711611  57.61  0.000398408    1.112    0.101
       194 -10.6115     76.4977     63.4471   6.9382547548e+01   5.4977860476e+01    0.3011352    0.2464646   1.90  0.001652393    1.211    0.174
       195  -9.3795    113.3569     61.1757   5.7041392488e+01   4.7808580319e+01     0.196151    0.1311364 -47.23 0.0009302828    1.675    0.403
       196  -9.4123    202.5451     61.4801   4.0130221417e+01   2.7369408638e+01    0.1307011     0.115452 -70.62 1.084564e-05    1.033    0.032
       197  -9.3806    183.5044     60.3943   4.2549436237e+01   3.1722445098e+01    0.1349747    0.1198305 -83.80  0.000115161    1.027    0.026
       198  -9.9826     98.0250     60.2450   6.1124142445e+01   5.1286210596e+01    0.1993337    0.1743634  35.21  0.001111928    1.063    0.060
       199 -10.7113     69.3486     58.7225   7.0366143644e+01   5.7093055135e+01    0.4178453    0.2364343 -44.92  0.001946527    1.923    0.480
       200 -12.0087     60.4695     55.9051   7.2818167336e+01   5.9079708559e+01    0.7615491    0.4244507 -20.60   0.00334133    2.263    0.558
       201 -10.0520    147.0896     56.9244   4.7925314959e+01   4.0677796892e+01    0.2063188    0.1946683  81.29 0.0003643921    1.021    0.021
       202  -9.9165    231.1358     55.4838   3.5528110770e+01   2.2385459819e+01     0.219382    0.1379261 -60.42  0.001279677    1.396    0.283
       203 -10.3623     75.1056     55.9354   6.7235792097e+01   5.6540303390e+01    0.2202098    0.1870533 -24.52 0.0003764298    1.188    0.158
       204 -12.9465    105.4993     52.6155   5.6373137980e+01   5.0881893230e+01    0.4471407    0.3161858  50.12  0.000587362    1.319    0.242
       205  -9.8513    104.4677     47.0418   5.4767030664e+01   5.1922144969e+01     0.208413    0.1697342   3.42 0.0004545715    1.373    0.272
       206 -10.5742    131.3032     42.1077   4.6748170943e+01   4.6457535445e+01    0.2802773    0.2119696 -63.18 0.0004008906    1.548    0.354
       207 -10.9455    132.4660     54.1932   5.0182729891e+01   4.4511029130e+01    0.4181263    0.2242782  53.70  0.001879535    1.712    0.416
       208 -11.6975    129.0970     49.6782   4.9549060684e+01   4.5947152945e+01    0.4664151    0.4088989  20.91  0.001709308    1.266    0.210
       209  -9.9948    120.1748     52.5439   5.2525102597e+01   4.7597008581e+01    0.2730815    0.1821188  32.72 0.0009519022    1.674    0.403
       210  -9.8077     55.9288     53.3780   7.3749462230e+01   6.0242098090e+01    0.2700651    0.1537583  20.08  0.001259982    1.910    0.476
       211  -9.6274    172.9129     52.5387   4.2201059250e+01   3.5284142958e+01    0.2002636    0.1246476  63.84 0.0007248222    1.527    0.345
       212 -10.7121     87.7881     51.1408   6.1170140062e+01   5.4853856296e+01    0.3101844    0.1813051 -26.63  0.001446289    1.913    0.477
       213  -9.7802    237.3767     51.2344   3.4067349243e+01   2.1776853930e+01    0.1776732   0.08772997 -48.93 0.0009478481    1.663    0.399
       214 -10.1655     78.0176     51.0000   6.4406017164e+01   5.6799402744e+01    0.2861521    0.1935024  50.87  0.001147088    1.615    0.381
       215 -11.0964     78.6151     47.0568   6.2742905906e+01   5.7294289438e+01     0.235919    0.2008763  20.97 0.0005630785    1.043    0.041
       216 -10.6011     45.4801     51.4485   7.7528910135e+01   6.2114418376e+01    0.2788953    0.2076572 -14.71  0.001113422    1.236    0.191
       217 -11.7560     35.8508     41.9177   7.8341163580e+01   6.5036316406e+01    0.6620466    0.3211392  10.10  0.002766422    2.900    0.655
       218 -10.5583    200.0865     49.6303   3.7745066197e+01   2.9602427439e+01    0.2078278     0.170322 -49.02 0.0003271025    1.199    0.166
       219 -10.1037     52.8346     49.9120   7.3756312884e+01   6.1315802692e+01    0.2113994     0.162026  -1.95 0.0006647691    1.219    0.180
       220 -10.0909    151.4623     46.5549   4.4171690612e+01   4.1122300407e+01    0.2716483    0.1891109 -31.16 0.0009496348    1.603    0.376
       221  -9.1437     69.2756     48.3348   6.6583475860e+01   5.8840571527e+01    0.1391325   0.09724576   2.78 0.0002369724    1.604    0.377
       222 -10.4839     59.4176     47.7216   7.0192200643e+01   6.0637776630e+01    0.1854875     0.152286 -13.24 0.0003894368    1.138    0.121
       223 -10.3401    143.0916     45.4773   4.5408850306e+01   4.3240401837e+01    0.2394459    0.1931421 -52.34 0.0005685368    1.316    0.240
       224 -10.6997    112.6390     45.9868   5.2264226639e+01   5.0245581372e+01    0.2825494    0.1871043  50.56 0.0008152202    1.362    0.266
       225 -10.9810     96.3776     41.5684   5.5124577163e+01   5.4439141235e+01    0.6195197    0.3475088  -3.74  0.002139506    3.206    0.688
       226 -10.8607     90.9213     41.6543   5.6764781101e+01   5.5586189429e+01    0.5521091    0.2111611 -43.56  0.002081357    3.309    0.698
       227 -10.4095     83.1307     44.7000   6.0345053488e+01   5.6754602256e+01    0.2115303     0.179778 -39.93  0.000543442    1.363    0.266
       228  -9.2447     84.7626     34.6837   5.6066120878e+01   5.7784901216e+01    0.1784368    0.1562674  19.33 0.0003060195    1.068    0.064
       229 -11.8813     75.3245     35.3885   5.9420269960e+01   5.9584710900e+01     0.671218    0.3641261  13.64    0.0027022    3.053    0.672
       230 -10.7556     80.8774     35.7646   5.7713593778e+01   5.8436434255e+01    0.3935332    0.2377991 -36.98  0.001741866    1.854    0.461
       231 -10.7010     72.6596     42.9919   6.3306989335e+01   5.9033622925e+01    0.4367967    0.3355552 -87.66  0.002136763    2.573    0.611
       232 -10.4637     67.5054     41.4963   6.4622348855e+01   6.0202614750e+01    0.1997279    0.1948044  19.25  0.001284114    1.285    0.222
       233 -11.0880     69.7167     37.2491   6.2133473110e+01   6.0401911959e+01    0.4595785    0.2667435  -6.17  0.002073294    2.448    0.591
       234 -10.0642    139.1544     43.1086   4.5472905567e+01   4.4482231558e+01    0.2018841    0.1776411  39.50 0.0004396635    1.199    0.166
       235 -10.5466    107.6828     42.3668   5.2316734270e+01   5.1851222104e+01    0.4089893    0.1923811  36.55  0.001289691    2.471    0.595
       236 -10.3720     18.3479     42.4184   8.7315791539e+01   6.6846217259e+01    0.4722145    0.1485787 -39.80  0.001772806    2.728    0.633
       237 -10.8477     23.4444     41.2297   8.4236751618e+01   6.6569668419e+01    0.5084236    0.3710142  82.68  0.002265415    4.222    0.763
       238 -12.8192     27.6115     37.9889   8.0850440530e+01   6.6682041244e+01    0.5187434    0.3169057  -9.82  0.001316776    1.651    0.394
       239 -11.6091     24.3862     34.8160   8.1234142599e+01   6.7568577700e+01    0.3241802    0.2060682  -1.82 0.0008588959    1.493    0.330
       240 -10.2145    148.1382     41.2529   4.3268965772e+01   4.2605294216e+01    0.2959426    0.1875504 -20.61  0.001304723    2.034    0.508
       241 -12.2293     30.6081     64.0309   8.8588410198e+01   6.1476173720e+01    0.7167069    0.5272418 -33.53  0.003215675    1.163    0.140
       242 -11.1032    225.2575     38.1867   3.2602167927e+01   2.5880746560e+01    0.2207067    0.1709676 -82.62 0.0003375924    1.126    0.112
       243 -10.0506    152.4832     39.0442   4.1901377278e+01   4.1862771289e+01    0.1954371    0.1677085  74.36 0.0004525589    1.048    0.046
       244  -9.5463     85.9857     38.7745   5.7223089572e+01   5.7000390758e+01      0.18167    0.1503823  36.08            0    1.065    0.061
       245 -10.0087      1.5563     37.8234   9.4785107246e+01   6.8947367432e+01    0.1878838    0.1067413 -37.07 0.0005642205    1.364    0.267
       246 -10.4972    100.8995     36.3697   5.2025521323e+01   5.4131135505e+01    0.2651488    0.2061512 -68.00  0.001432716    1.773    0.436
       247 -10.0280    171.9621     36.0396   3.8141852686e+01   3.7694663261e+01    0.1984629     0.144131  42.70 0.0006361047    1.657    0.396
       248  -9.9097    134.4499     35.7652   4.4190051268e+01   4.6515246288e+01     0.234345    0.1284003 -35.77  0.001126874    1.976    0.494
       249 -10.0750    124.4507     58.2280   5.3276382809e+01   4.5760406898e+01    0.2284233    0.1433192 -30.34 0.0002514904    1.767    0.434
       250 -12.0577     36.9523    243.7719   1.1440107900e+02   1.6770379857e+01    0.7021231    0.3148779 -87.60  0.002858849    2.560    0.609
       251 -10.5229    250.0306    246.6946   6.9729218420e+01  -1.1743993067e+01    0.1663598    0.1180884  -4.06   0.00115906    1.082    0.076
       252 -11.0734      8.2252     33.1739   8.9382121712e+01   6.9341813708e+01    0.4144246    0.3186841 -45.73  0.002227931    1.415    0.293
       253 -11.5149     17.7334     31.1595   8.3294104116e+01   6.8859372016e+01    0.5015044    0.2674613  15.65  0.002773534    1.784    0.440
       254 -10.1024     72.4824    245.5127   1.0685655758e+02   1.2065426720e+01    0.2081901    0.1781692  54.74 0.0006235254    1.028    0.027
       255 -13.2174     74.8161    237.6446   1.0552844837e+02   1.3418730480e+01    0.8290965    0.6959772  78.78   0.00510738    1.206    0.171
       256 -10.6911     88.7884    241.3191   1.0274585658e+02   1.0738617983e+01    0.2436647    0.1572835 -35.10  0.001218145    2.100    0.524
       257 -10.4745     59.9555    241.4671   1.0924390117e+02   1.4524095204e+01    0.1969499    0.1139932  33.70   0.00102969    1.588    0.370
       258 -10.0382    195.6355    238.8536   7.8675200199e+01  -4.1355512514e+00    0.2327824    0.1559822  10.84  0.001318852    1.373    0.272
       259 -10.3860     25.8265     13.9351   7.1074666258e+01   7.0461095863e+01    0.1747591    0.1279411   3.44 0.0003072656    1.072    0.067
       260 -11.0058      7.4271     25.0230   8.6610397273e+01   7.0788843605e+01    0.2600413      0.14776  16.01  0.001104547    1.650    0.394
       261 -11.1952     13.5504     23.4574   8.2372064711e+01   7.0499235878e+01     0.411255    0.1963985   5.20  0.001474515    2.401    0.583
       262 -10.4503    108.6253     34.3717   4.9354494952e+01   5.2654538069e+01    0.2855712    0.1902925  61.39  0.001242723    1.439    0.305
       263 -11.3137    221.7503     32.2425   3.1719355568e+01   2.7335632733e+01    0.2276229    0.1647205 -58.08 0.0003002141    1.167    0.143
       264 -10.0897    166.4471     32.7408   3.8066386133e+01   3.9370155679e+01    0.1600336    0.1298707 -14.31 0.0009423221    1.612    0.380
       265 -10.2361    205.8920     32.2876   3.3243282657e+01   3.0619039943e+01    0.1652524    0.1365464 -88.47 0.0003103435    1.084    0.077
       266 -10.8775     49.2774     29.9022   6.7208905327e+01   6.4955040317e+01    0.5267624    0.2688709 -12.69  0.002275134    2.874    0.652
       267 -11.6162    102.8207     29.0229   4.8936218577e+01   5.4580642309e+01    0.4851117    0.2836414  64.80   0.00127179    1.781    0.439
       268 -10.6238     97.7056     30.6591   5.0841540564e+01   5.5522084925e+01    0.2663371    0.2218847  42.75  0.001137642    1.040    0.038
       269  -9.9892     44.1706     31.1114   6.9991141338e+01   6.5575420068e+01    0.1951049    0.1452585  -3.14 0.0006219371    1.206    0.171
       270 -10.7405    237.3842     29.4647   2.9862180803e+01   2.4605179496e+01    0.1970665     0.147658  42.95  0.001266752    2.140    0.533
       271 -10.8087    111.4884     27.6415   4.6393672027e+01   5.2781039897e+01    0.4144173    0.2325187  -9.31  0.001566648    2.614    0.618
       272 -10.7418     69.6737     26.5819   5.7839309502e+01   6.1781985381e+01    0.4554995    0.2257273  30.05  0.002092829    2.153    0.535
       273 -10.6205     60.0896     27.0848   6.1573455619e+01   6.3495276675e+01    0.1938749    0.1757514  -7.08   0.00128442    1.229    0.187
       274 -10.8121    174.9819     26.8464   3.5450834606e+01   3.8094863016e+01    0.2054527    0.1647635 -58.56 0.0002503428    1.217    0.178
       275  -9.6233    132.5863     26.1440   4.1628619483e+01   4.8054821352e+01    0.2374638     0.123537 -33.48  0.001154825    2.117    0.528
       276 -10.7643    244.0487    237.2831   6.9202521473e+01  -9.7870016481e+00    0.1987841    0.1379445 -38.29 0.0008979639    1.590    0.371
       277 -11.6194    128.7582     18.9110   4.0107943868e+01   4.9695328083e+01    0.2646164    0.2033716  47.52 0.0003410687    1.245    0.197
       278 -10.1121    204.2071     26.2193   3.2098474495e+01   3.1706708298e+01    0.1760959    0.1163511 -66.32 0.0006856024    1.356    0.262
       279 -11.3598    193.2126     24.4961   3.2823655565e+01   3.4282935064e+01    0.4336823    0.1464307 -47.85  0.001877555    2.768    0.639
       280  -9.9111      1.4689     25.8979   9.0510120640e+01   7.1083143438e+01    0.1634388   0.09473246 -43.16 0.0003876081    1.492    0.330
       281  -9.4142    214.4595     25.5022   3.0993554430e+01   2.9640204297e+01     0.118643   0.09699125 -76.21 0.0005367847    1.041    0.039
       282 -11.0824    185.5421     23.2571   3.3358994457e+01   3.6118770724e+01    0.2842578    0.2352368 -19.71  0.001833202    1.600    0.375
       283 -12.0158    165.1391     22.9677   3.5726129850e+01   4.0786183917e+01    0.2894922    0.2184633  72.57            0    1.158    0.136
       284  -9.7286    134.7629    238.2819   9.1816083411e+01   4.6844966097e+00    0.2050526   0.09927908 -40.60 0.0008656075    2.369    0.578
       285 -10.5318    106.1767     23.0383   4.6034262812e+01   5.4476147716e+01    0.2428267    0.1805252  76.40            0    1.486    0.327
       286 -10.3733     90.0603     20.4498   4.9122604766e+01   5.8293455358e+01    0.2762127    0.1185785  42.75  0.001133428    2.069    0.517
       287  -9.4504    102.8056     19.0420   4.5415554080e+01   5.5635130159e+01    0.2014119    0.1585423  78.61 0.0008089507    1.413    0.292
       288 -11.5795     99.5294     23.1589   4.7670225022e+01   5.5948791563e+01     0.435028    0.2473764  53.66 0.0009225286    1.489    0.328
       289 -10.4254     94.0072     22.4948   4.8837659902e+01   5.7229890322e+01    0.2471434    0.2199606 -85.34 0.0008768903    1.400    0.286
       290  -9.1977     51.3428     23.2393   6.3415715971e+01   6.5486790909e+01    0.1285581    0.0799631  19.19 0.0001584631    1.558    0.358
       291  -9.7273    226.1774     22.1483   2.9336370316e+01   2.7660738106e+01    0.1605013    0.1399955  88.57   0.00078115    1.254    0.202
       292 -10.1355     31.3363    236.6669   1.1507787304e+02   1.8916382917e+01    0.1935529     0.115191 -85.68  0.001074682    1.634    0.388
       293 -10.8835     29.7529    232.7511   1.1513542580e+02   1.9945264495e+01    0.3290355    0.1651047  77.80  0.001598296    2.145    0.534
       294  -9.3443    120.4157     20.8146   4.2258529646e+01   5.1445417947e+01    0.1531532    0.1239537   6.46 0.0004552452    1.498    0.333
       295 -10.2707     67.5067     21.2979   5.6394313748e+01   6.2804059855e+01    0.2476816    0.1518454  46.65  0.001365167    1.452    0.311
       296 -10.2264    159.9752    235.7497   8.5760519039e+01   1.4270792567e+00    0.1932343    0.1587429  15.50 0.0004520865    1.063    0.059
       297 -11.3941      6.0235     20.7172   8.5616580641e+01   7.1596603013e+01    0.2543888    0.1762845   2.02 0.0003158979    1.220    0.181
       298  -9.9653    221.0774    234.7781   7.2975436555e+01  -6.7446993731e+00     0.209641    0.1193707   0.42   0.00107461    1.956    0.489
       299  -9.9649    173.6458     20.3255   3.4009564034e+01   3.9120557571e+01    0.1357607   0.08130246 -71.06 0.0007046639    1.767    0.434
       300  -9.7394    177.3025    235.3450   8.1923886439e+01  -1.0089900531e+00    0.1399936   0.09169936  -8.35 0.0007039477    1.685    0.406
       301  -9.9007    109.5135    242.6663   9.8180031631e+01   7.5252845877e+00    0.2317475    0.1348946  48.47 0.0007344649    1.728    0.421
       302 -10.8477     41.6902     19.3187   6.5846192045e+01   6.7526135761e+01    0.2416424    0.1866258  28.58 0.0009482082    1.212    0.175
       303 -10.1843     38.2359    232.8021   1.1329231656e+02   1.9000820227e+01    0.1850058    0.1446122  67.93 0.0005563341    1.111    0.100
       304 -10.1197     24.0422    232.3767   1.1633413341e+02   2.0629750001e+01    0.1942177    0.1527285 -74.20 0.0006556471    1.300    0.231
       305 -10.9875    107.9894     17.7094   4.3787489471e+01   5.4596282501e+01     0.308258    0.1955807  40.41  0.001689172    1.502    0.334
       306  -9.8372     82.5163     17.7781   5.0192823218e+01   6.0160079301e+01    0.1601862    0.1235755 -12.64 0.0004711058    1.435    0.303
       307 -10.1275    152.7893    230.6993   8.6563501650e+01   3.4493612163e+00    0.3792681     0.243256 -88.12  0.001307336    4.931    0.797
       308 -10.8840      4.1553    226.5181   1.2015543546e+02   2.3843828165e+01    0.2623937    0.1872171  84.56  0.001510413    1.174    0.148
       309  -9.5615    169.8669    228.8776   8.2461864350e+01   1.2385898906e+00    0.1728894    0.1618665  40.59 0.0005555436    1.328    0.247
       310 -11.1792    120.8358    226.2802   9.3300916980e+01   9.2204937913e+00    0.2271321    0.1986237 -77.05 0.0008840069    1.352    0.260
       311  -9.8079     66.0244    226.4869   1.0638168779e+02   1.7039131001e+01    0.2002124    0.1237316  32.44 0.0009721849    1.547    0.354
       312 -10.1575    194.9726     16.9562   3.0964697226e+01   3.4736782613e+01    0.1768088     0.143238 -82.27  0.001198089    1.002    0.002
       313  -9.2619    190.3384    226.3183   7.7641592032e+01  -1.2696703374e+00    0.1422465   0.09152652  -6.35 0.0007049192    1.707    0.414
       314 -10.0539    116.2019     15.4130   4.1327764020e+01   5.2936945670e+01    0.2800376    0.1934355  78.11  0.001577373    1.489    0.329
       315  -9.5906     13.3015    221.3027   1.1790968290e+02   2.4172850666e+01    0.1134125   0.08903649 -49.50 0.0002473744    1.589    0.371
       316  -9.3058    176.3389    219.2952   7.9404638486e+01   2.0624887329e+00     0.144539    0.0977339  -4.89 0.0007030137    1.654    0.395
       317 -11.1897     10.0075    217.2278   1.1836560653e+02   2.5408410244e+01    0.3334242    0.2129718  45.22  0.001805126    1.441    0.306
       318  -9.9528     38.2802    217.5784   1.1201150220e+02   2.2461639207e+01    0.1625049    0.1257892  20.18 0.0009385574    1.525    0.344
       319  -9.3668     30.9927     12.5179   6.7703025415e+01   6.9934409452e+01    0.1628956   0.09849681  30.85 0.0005525888    1.435    0.303
       320 -11.2270     29.3905    215.9319   1.1392880297e+02   2.3810068775e+01    0.3079274    0.2643254 -14.89  0.001124359    1.585    0.369
       321  -9.9640    175.9837     11.2354   3.1551659562e+01   3.9525850394e+01     0.165097   0.08738565  74.03 0.0006309793    1.624    0.384
       322 -11.6090    238.6810    210.3033   6.5427168396e+01  -5.0297727288e+00    0.2885911    0.2861004  44.34  0.002033815    1.626    0.385
       323 -11.4117    235.8644    214.6841   6.6717325369e+01  -5.3859040464e+00    0.3570566    0.1787818 -25.69  0.001140237    1.891    0.471
       324  -9.6047     98.0081    242.4828   1.0078082377e+02   9.2068902800e+00    0.2114072    0.1181542  32.48  0.000902375    1.596    0.373
       325  -9.6211    169.5554    213.4749   7.9872816370e+01   4.2260224326e+00    0.1431562    0.1236584  -2.84  0.000161202    1.043    0.041
       326 -10.7300     21.2525    212.6691   1.1553926185e+02   2.5402970453e+01    0.2633524    0.1506184  56.63  0.001041251    1.613    0.380
       327  -9.4517    208.5307    211.9550   7.1370657383e+01  -1.3099288062e+00    0.1988838    0.1155615 -35.27  0.001010534    1.558    0.358
       328 -12.2316      5.5885    208.6996   1.1880012876e+02   2.7775179783e+01    0.4868013    0.2928794 -78.26  0.002313503    1.453    0.312
       329 -10.3491     10.8182    208.3774   1.1760471642e+02   2.7393184145e+01    0.2411283    0.1717237 -42.55 0.0005898044    1.814    0.449
       330  -9.9501     74.1205    215.8669   1.0323164803e+02   1.8404099205e+01    0.1811156    0.1650748 -22.98 0.0005871383    1.296    0.228
       331 -11.1180     20.1828    199.9654   1.1479322981e+02   2.8548026050e+01    0.4469075    0.1699789 -82.04  0.001803622    2.656    0.623
       332 -10.7249    245.1102    202.5641   6.2905226749e+01  -4.5760433254e+00    0.2931254    0.1515808  45.56  0.001421038    3.000    0.667
       333  -9.7595    117.0409    201.7625   9.0399569482e+01   1.5261934697e+01    0.2018001     0.119275  34.11 0.0008797623    1.615    0.381
       334 -10.5071    175.4082    202.5316   7.6567481134e+01   5.4691121684e+00    0.2439673    0.2175783   1.86 0.0005051547    1.035    0.034
       335 -11.1081     16.2494    193.1295   1.1518717553e+02   3.0586367577e+01    0.4482419    0.2482047  26.91  0.002299625    1.975    0.494
       336 -10.0565    244.8102    188.2262   6.0299946461e+01  -2.1717858983e+00     0.178092    0.1240875 -16.26  0.000476293    1.331    0.249
       337  -9.6290    212.2128    188.3570   6.6180069579e+01   2.4236694838e+00    0.1739376     0.126215  41.41 0.0005522061    1.638    0.390
       338  -9.3537      2.2951    187.3857   1.1813845950e+02   3.3155859612e+01    0.1322298   0.08064268 -51.92 0.0006740184    1.769    0.435
       339 -10.8620     16.6253    183.8093   1.1430061785e+02   3.2876087701e+01    0.3696471    0.2354518  87.10  0.001581904    1.459    0.314
       340 -10.1188     15.3008    180.6634   1.1436060604e+02   3.3783786385e+01    0.2585196    0.1261315  25.00 0.0009087237    2.273    0.560
       341 -10.4149    167.7758    183.3653   7.4568624068e+01   1.0726843328e+01    0.2050138     0.189951 -33.25  0.001126021    1.103    0.094
       342  -9.8870     58.7360    182.0172   1.0287857943e+02   2.8826247523e+01    0.2070648    0.1846119 -70.42 0.0008285081    1.075    0.070
       343  -9.2326      1.5490    180.5108   1.1782412102e+02   3.4907806415e+01    0.1290888    0.1057921 -88.73 0.0001348856    1.009    0.008
       344  -9.7754    244.4762    178.4624   5.8507729029e+01  -4.7254125880e-01    0.2386242   0.09789337 -32.49  0.001025467    2.281    0.562
       345  -9.1164    107.5031     10.5380   4.1428849833e+01   5.5353882523e+01     0.127387    0.1058426  56.45 4.328269e-05    1.008    0.008
       346 -10.6688     46.5034    177.7531   1.0568997506e+02   3.1416835110e+01    0.3166838    0.2530981  85.33  0.001119953    1.228    0.186
