#   1 NUMBER                 Running object number                                     
#   2 MAG_AUTO               Kron-like elliptical aperture magnitude                    [mag]
#   3 X_IMAGE                Object position along x                                    [pixel]
#   4 Y_IMAGE                Object position along y                                    [pixel]
#   5 X_WORLD                Barycenter position along world x axis                     [deg]
#   6 Y_WORLD                Barycenter position along world y axis                     [deg]
#   7 A_WORLD                Profile RMS along major axis (world units)                 [deg]
#   8 B_WORLD                Profile RMS along minor axis (world units)                 [deg]
#   9 THETA_WORLD            Position angle (CCW/world-x)                               [deg]
#  10 FWHM_WORLD             FWHM assuming a gaussian core                              [deg]
#  11 ELONGATION             A_IMAGE/B_IMAGE                                           
#  12 ELLIPTICITY            1 - B_IMAGE/A_IMAGE                                       
         1 -13.0970    202.3977     58.6409   7.9346228249e+01   2.6967579970e+01     2.918045     1.658372 -73.76   0.01060986    2.821    0.646
         2 -14.4407    242.3561    110.2998   8.6476770504e+01   9.3121986782e+00     7.988029     1.765686 -36.38   0.02397956    3.883    0.742
         3 -11.3453    245.6359     34.3641   6.7394767158e+01   1.9567622255e+01    0.9726565    0.7677541 -29.04  0.005563794    1.305    0.234
         4 -13.0825    180.0767      5.1733   6.6678006509e+01   3.9532445910e+01     2.443206     1.233126  76.43    0.0106542    1.902    0.474
         5 -12.9619    172.0238     56.1509   8.3906237299e+01   3.5270975528e+01     3.760542      1.79632  81.21  0.009969452    5.072    0.803
         6 -12.2105    183.4933     81.2355   8.9148546376e+01   2.8143235648e+01     2.267933    0.5438098 -43.44  0.005897762    4.404    0.773
         7 -14.7707    138.6374     11.6460   7.5176513642e+01   4.9715795178e+01     7.237742     2.058235  66.11   0.02303829    3.541    0.718
         8 -11.4209    215.6519     20.5173   6.6972995761e+01   2.8622538096e+01    0.6743325    0.2440708 -49.18  0.002446915    2.892    0.654
         9 -12.3386    219.1301     10.2885   6.3903128749e+01   2.8875056868e+01     1.348184    0.3862841 -52.88  0.004082043    4.462    0.776
        10 -14.9507     39.1177      6.6080   1.0339042827e+02   7.0122454903e+01     6.186422     1.085995  40.08   0.02026224    6.318    0.842
        11  -8.9305    178.7390     24.2896   7.2774857992e+01   3.7861380091e+01    0.6032563    0.2982745 -39.52  0.002528616    2.030    0.507
        12  -9.8769    181.9700     22.5002   7.1748940657e+01   3.7211211058e+01    0.5857157     0.338591 -88.79  0.002454374    2.114    0.527
        13 -11.1698    237.0269      3.0250   6.0537472597e+01   2.5229259724e+01    0.4851358    0.2916346 -88.94  0.001065945    1.598    0.374
        14 -13.2286    245.8083      5.3389   6.0418950165e+01   2.2906392082e+01     1.380162     1.285047  86.61  0.005904919    1.187    0.157
        15 -12.6222    238.3708     12.1224   6.2633284271e+01   2.3934504152e+01    0.3623847    0.1921287 -44.25   0.00115305    1.682    0.405
        16 -13.8134    219.3913     37.0984   7.1002079100e+01   2.5633289912e+01     2.003494     1.762149 -82.12   0.01139103    1.081    0.075
        17 -12.6309    241.4968     15.4951   6.3185297719e+01   2.2809986281e+01    0.4606171    0.2564003 -60.16 0.0006033168    1.753    0.429
        18  -7.8690    228.3065     11.6124   6.3389883519e+01   2.6441609745e+01    0.1528104   0.08382967 -58.78 0.0003233139    1.807    0.447
        19  -9.2003    130.9922    140.1746   1.1610569474e+02   2.8449009896e+01    0.3472212    0.2238467  50.66   0.00113447    1.514    0.339
        20 -10.2938     69.5125    145.4921   1.3221993724e+02   3.7701476761e+01      0.34528    0.2794661  84.62  0.001248045    1.113    0.101
        21 -10.2837     66.4921    144.4671   1.3281487899e+02   3.8344516703e+01    0.5042588    0.2790547 -78.13  0.001687854    1.853    0.460
        22  -8.1321     42.4678    225.0278   1.4576187416e+02   2.4751247905e+01    0.1412246   0.08860595 -84.09 0.0003589189    1.454    0.312
        23  -8.6668    192.1671    144.1845   1.0345533138e+02   1.4588537195e+01    0.2094162    0.1908446  20.74 0.0003775897    1.090    0.082
        24  -8.5264    158.7791    142.7978   1.1023491220e+02   2.2117655057e+01    0.2142343    0.1783494  88.86  0.001076903    1.412    0.292
        25 -13.2121      8.3178    214.6299   1.5097828080e+02   3.0270623786e+01    0.7796826    0.5164367  78.35  0.004152355    1.077    0.072
        26 -11.9378    234.7330     33.8652   6.8399969303e+01   2.2237422415e+01    0.7034425    0.3733771  67.84   0.00194161    1.879    0.468
        27 -10.1798    195.1098    129.7108   9.9522961508e+01   1.6555101097e+01     0.271436    0.2160421 -22.58  0.000179462    1.345    0.257
        28  -9.8361    160.4315    127.4689   1.0635658323e+02   2.4848828523e+01    0.2760032    0.2702016 -62.51  0.001046851    1.043    0.042
        29  -9.5865    136.7633    127.0675   1.1182071924e+02   3.0087708370e+01    0.3193755    0.2513701 -69.96 0.0006060518    1.406    0.289
        30  -9.7811    179.6234     49.7801   8.0539984452e+01   3.4243833073e+01    0.4334756    0.3746422  66.77   0.00218113    1.128    0.114
        31 -12.2403    204.3452    123.9834   9.6349287335e+01   1.5484364162e+01    0.7939332    0.5935461  41.96  0.003839141    1.336    0.251
        32 -12.6883    203.2458    111.9887   9.3594439879e+01   1.7855931223e+01     1.548296    0.9974581  13.25  0.006046265    2.521    0.603
        33 -12.4570    184.1780    121.4238   9.9731889416e+01   2.0595245633e+01    0.9370233    0.6963153 -32.06  0.004462885    1.405    0.288
        34 -10.8222    181.8201     67.1531   8.5378636266e+01   3.0959477354e+01    0.4182259    0.3120062 -46.05 0.0004998659    1.354    0.262
        35 -12.9106    186.8019    110.2838   9.6379552957e+01   2.2062228413e+01     1.596185    0.9800248 -42.43  0.006880941    1.637    0.389
        36 -14.0334     39.4075    189.2997   1.4377204893e+02   3.1945621389e+01     1.311804     1.168973   4.74  0.002655498    1.876    0.467
        37 -13.2837     51.3111    178.9888   1.4044071088e+02   3.2684520305e+01     1.058137    0.7782996  70.06  0.002971747    1.127    0.112
        38 -11.8976    174.7846     73.8791   8.8742193188e+01   3.1637970539e+01    0.8291098    0.6933556  19.02  0.001520182    1.394    0.283
        39  -8.5453    127.3506    125.0713   1.1368221008e+02   3.2466244401e+01    0.1974994    0.1833878 -68.09   0.00106805    1.063    0.059
        40 -10.0011    141.0633    121.5887   1.0948112820e+02   3.0341086386e+01    0.4656462    0.3015262 -86.22  0.001736983    2.739    0.635
        41 -10.9428    167.4422    113.9657   1.0144163682e+02   2.5943839940e+01    0.5031885    0.4107103 -32.92  0.001127166    1.282    0.220
        42 -10.4393    134.8174    108.8328   1.0783880668e+02   3.4408622433e+01     1.264319    0.2048013 -44.07   0.00278142    6.330    0.842
        43 -10.7474    196.1225    101.8960   9.2352474415e+01   2.1347493624e+01    0.4775967    0.3030272 -82.05   0.00171037    2.973    0.664
        44  -8.8395    124.4997    100.5049   1.0830447555e+02   3.8393240611e+01     0.149973    0.1475084 -32.12 0.0008100283    1.057    0.054
        45  -9.8349    142.4923    101.4896   1.0397866060e+02   3.4243719601e+01    0.3417919     0.239255   7.08  0.001356283    2.371    0.578
        46  -9.6694    171.0212     97.4065   9.6258316250e+01   2.8300081054e+01    0.4007191     0.270432  84.15  0.001580164    2.243    0.554
        47  -9.6829    148.3581     96.0525   1.0105179889e+02   3.3998091651e+01    0.3930838    0.2838317  -9.70  0.001407916    1.982    0.496
        48  -9.9012    185.3698    193.4292   1.1459631596e+02   7.5325571301e+00    0.2191164    0.1959172  45.91 0.0003514763    1.104    0.094
        49  -9.2095    134.5721     93.5717   1.0377094813e+02   3.7659617333e+01    0.2830769    0.2501277 -86.92 0.0007865771    1.253    0.202
        50  -9.0918    220.4843     91.9202   8.5415950791e+01   1.7190522661e+01    0.2770463    0.2092071  85.25 0.0008150993    1.657    0.397
        51  -7.9830    207.6518     92.2616   8.7688037616e+01   2.0221130571e+01    0.1521881    0.1178031 -77.64 0.0006467098    1.606    0.377
        52  -9.7572    157.2693     88.9405   9.6937358106e+01   3.3268847488e+01    0.3448371    0.3154563 -47.99   0.00115113    1.099    0.090
        53 -10.2606    160.2961     85.9964   9.5398171746e+01   3.3089183721e+01    0.3282919    0.3185563 -37.27 0.0008645424    1.042    0.040
        54  -8.6319    194.4555     88.9093   8.9188443405e+01   2.4048956687e+01    0.2451279    0.1492343 -36.82  0.001035973    1.618    0.382
        55 -10.0688    142.2485     84.6814   9.9264012053e+01   3.7683838879e+01      0.33927    0.2980668 -75.90 0.0005990218    1.262    0.208
        56  -8.5322    216.3310    190.3003   1.0822155776e+02   2.2397931723e+00    0.1358074   0.09160484  15.19 0.0007032258    1.647    0.393
        57  -8.2368    206.7908     82.6529   8.5270062522e+01   2.2042226798e+01    0.2098479    0.1437081  71.37  0.000930155    1.667    0.400
        58  -9.5758    164.6981     80.9931   9.2959499731e+01   3.2926228983e+01    0.2262627    0.2073271 -42.48 0.0007257331    1.096    0.088
        59 -11.6597    156.9321     75.8808   9.3149993732e+01   3.5792341647e+01    0.4650139    0.3222795 -38.95 0.0007016395    1.446    0.309
        60  -8.6691    202.9291     80.5227   8.5358630710e+01   2.3357806963e+01    0.2201396    0.1518976  64.83  0.000751435    1.532    0.347
        61  -8.7869    250.0240     66.8474   7.4860407608e+01   1.4159326650e+01    0.2605321    0.1867341 -32.94  0.001372439    1.292    0.226
        62  -9.4816     91.1073     65.1893   1.0749166308e+02   5.2290980115e+01    0.4847528    0.2493484 -61.73  0.001720555    3.342    0.701
        63  -8.0165    142.3094     66.6271   9.3663735963e+01   4.1048797601e+01    0.1622805    0.1197382 -70.59 4.490809e-05    1.773    0.436
        64  -9.7563    144.1685     59.0601   9.0755427367e+01   4.1904280975e+01    0.3290867    0.2624975 -63.14 0.0006759146    1.451    0.311
        65  -8.0006     72.7126     58.3238   1.1133490605e+02   5.6723321492e+01    0.1283116    0.1064216 -78.87 0.0003503281    1.604    0.377
        66  -8.6415    114.5103     56.9041   9.7641428161e+01   4.9182086092e+01    0.2252499    0.1406393 -40.04 0.0006711806    1.581    0.368
        67 -10.4686    234.6956    173.7155   1.0175246024e+02   1.2412517050e+00    0.3030918    0.2416019  51.24  0.001083758    1.451    0.311
        68  -9.0672    134.3399     48.9246   8.9653737799e+01   4.5959472436e+01    0.2046977    0.1852602 -25.15 0.0003578195    1.120    0.107
        69 -10.2397    248.7288     45.6110   6.9820972149e+01   1.7388991744e+01    0.4098782     0.246577 -42.87  0.001539357    1.478    0.323
        70  -8.4864     93.4897     41.5122   9.8251068512e+01   5.6132922230e+01    0.2609504    0.1188779 -46.34  0.001033403    2.512    0.602
        71 -10.3423    122.9516     37.7807   8.8448660694e+01   5.0360496481e+01    0.3505538    0.3273645  70.42  0.001988449    1.169    0.145
        72  -8.9923    152.9955     37.0236   8.1409517232e+01   4.3031268177e+01    0.2446342    0.1773476 -70.24  0.001126542    1.726    0.421
        73  -8.9127    181.4480     33.6237   7.5257859135e+01   3.5991940533e+01    0.3267762     0.189541 -54.53 0.0007274607    1.963    0.491
        74 -11.1330     67.0560    170.1865   1.3609224566e+02   3.2547142528e+01    0.6724677    0.4768195  65.48  0.004054662    1.262    0.208
        75  -7.9720    250.3322     26.3236   6.5006879165e+01   1.9466329268e+01    0.1285752    0.1010741  32.49 0.0007050413    1.704    0.413
        76  -9.7736    216.3586    168.9163   1.0406898921e+02   5.4292853564e+00     0.371567    0.2319673  60.45 0.0009777658    2.164    0.538
        77  -8.9860    211.6166    166.2897   1.0441434587e+02   6.7758371259e+00    0.2739485    0.1778703  61.36 0.0009553898    2.034    0.508
        78  -9.1901    192.1652    193.3261   1.1327367380e+02   6.2715541275e+00    0.2671342    0.1580347 -64.74  0.001090219    3.489    0.713
        79  -9.2978     64.6203    246.3693   1.4344390177e+02   1.8341835889e+01    0.1762311    0.1403938  67.02 0.0002630459    1.190    0.160
        80  -9.8871     93.3807    237.2161   1.3782283516e+02   1.5904592680e+01    0.1487147   0.09557457 -89.49 0.0006263463    1.679    0.404
        81  -8.2283     13.6744    152.6671   1.4618726813e+02   4.2198486383e+01    0.1098647   0.07428626 -54.88 -7.254536e-05    1.711    0.416
        82 -10.0487    232.9122     17.9717   6.4567811362e+01   2.4599308781e+01    0.2710866    0.1718122 -47.52 0.0005417434    1.443    0.307
        83  -9.0673    133.7850    146.1993   1.1668655661e+02   2.6602425321e+01    0.4886627    0.1158007 -50.51  0.001372764    4.437    0.775
        84  -8.2941    203.9670    152.5175   1.0296738523e+02   1.0606095803e+01    0.2163598    0.1350019  44.74  0.000560555    1.531    0.347
