#   1 NUMBER                 Running object number                                     
#   2 MAG_AUTO               Kron-like elliptical aperture magnitude                    [mag]
#   3 X_IMAGE                Object position along x                                    [pixel]
#   4 Y_IMAGE                Object position along y                                    [pixel]
#   5 X_WORLD                Barycenter position along world x axis                     [deg]
#   6 Y_WORLD                Barycenter position along world y axis                     [deg]
#   7 A_WORLD                Profile RMS along major axis (world units)                 [deg]
#   8 B_WORLD                Profile RMS along minor axis (world units)                 [deg]
#   9 THETA_WORLD            Position angle (CCW/world-x)                               [deg]
#  10 FWHM_WORLD             FWHM assuming a gaussian core                              [deg]
#  11 ELONGATION             A_IMAGE/B_IMAGE                                           
#  12 ELLIPTICITY            1 - B_IMAGE/A_IMAGE                                       
         1 -12.4344    220.3135     27.1256   1.9412807603e+01   2.7584656230e+01     2.180831     1.042848 -15.34   0.00964691    2.865    0.651
         2 -13.1576    235.3804    105.3450   3.6083132917e+01   1.4727530409e+01     4.289981    0.8055262 -43.58  0.006203755    6.722    0.851
         3 -13.9995    243.8868     84.7950   3.0724873768e+01   1.6115156905e+01     3.652015      1.80837  41.35   0.01881993    2.879    0.653
         4 -14.5750    243.8970     28.0210   1.8170566355e+01   2.2983932307e+01      8.18868     2.750695 -22.41   0.03290896    3.502    0.714
         5 -12.4389    249.2447     59.0367   2.4649721321e+01   1.8472179431e+01     1.260026    0.4515749 -23.79  0.002577569    3.163    0.684
         6 -10.4939    202.1399     17.3357   1.8143724857e+01   3.2472106718e+01    0.5752061    0.3266786 -50.89  0.003122989    1.450    0.310
         7  -9.3844    203.6690     10.3124   1.6204718492e+01   3.2866120842e+01    0.6317644    0.3302858  50.94  0.003123263    2.582    0.613
         8  -9.4348    120.1107      9.5310   2.3510770673e+01   5.3556167350e+01    0.4222859    0.3904873  62.48  0.001615904    1.129    0.114
         9  -8.0999    179.6360      7.9785   1.7071008595e+01   3.8556331139e+01    0.1932444    0.1641774  -5.99  0.001173805    1.449    0.310
        10  -7.4982     84.9580      6.0370   2.8162221289e+01   6.3188042625e+01    0.1605082    0.1587075 -88.58 0.0004245239    1.059    0.056
        11  -8.5033    249.9949    211.3399   5.3557027796e+01  -5.1382127310e-01    0.1586022    0.1120647 -19.13 0.0006590251    1.248    0.199
        12  -8.2932     55.2194    209.2680   9.1859625687e+01   2.3648867215e+01    0.1743389    0.1528894  28.75  0.000797566    1.173    0.148
        13  -7.9679     60.8713    207.1326   9.0324851787e+01   2.3438186602e+01    0.1542544     0.145394 -22.47   0.00047776    1.311    0.237
        14  -7.3833     36.1699    206.8431   9.6301900602e+01   2.6189095404e+01    0.1435965    0.1416395 -20.79 0.0002511138    1.300    0.231
        15  -7.0717      2.3111    206.3173   1.0439189795e+02   2.9368407495e+01    0.1043141   0.08834475 -41.14 0.0007033999    1.641    0.390
        16  -8.9271    240.6179    198.2734   5.2843557176e+01   1.9107362360e+00    0.2505403    0.1858615  56.24  0.001537614    3.390    0.705
        17  -7.1484     90.2388    197.3121   8.2190263976e+01   2.1772267220e+01    0.1189092   0.09674948 -19.74 0.0001373978    1.501    0.334
        18  -9.2171    222.6955    188.6221   5.3948394657e+01   5.1352647231e+00    0.3145936    0.1631088  31.51  0.001021688    1.943    0.485
        19  -9.5795    140.4048    181.9862   6.8255910454e+01   1.7543561661e+01    0.2268444    0.2058319  -0.42  0.000236851    1.056    0.053
        20  -9.4081    214.0489    180.7351   5.3969761173e+01   7.2575064063e+00    0.2901189    0.2233216  61.38  0.001739183    2.588    0.614
        21  -8.0580    146.4174    179.3811   6.6504849857e+01   1.7107160971e+01    0.2271257    0.1723195 -19.98 0.0006802197    1.396    0.283
        22  -8.4800    239.9977    177.4833   4.9460987943e+01   4.4777781809e+00    0.1891298    0.1305882 -57.39  0.001035202    3.376    0.704
        23  -9.3430    224.2909    175.7953   5.1488708278e+01   6.6135458378e+00    0.2066741    0.1681037 -40.56  0.001444929    1.579    0.367
        24  -8.4159    101.0175    176.0201   7.6696897729e+01   2.4682006924e+01    0.1888978    0.1733694  31.48  0.001131062    1.027    0.026
        25  -7.2651    146.4728    172.4356   6.5295361948e+01   1.8368744349e+01    0.1338866    0.1192684   7.32 0.0001463758    1.034    0.033
        26  -8.6768    230.4144    167.2465   4.9038010109e+01   6.9657955283e+00    0.1595241   0.09227603 -37.56 0.0009516213    1.638    0.389
        27  -8.5413     84.0061    170.9818   8.0438313894e+01   2.8277367608e+01    0.1981422    0.1821083  42.82            0    1.023    0.022
        28  -7.9313    197.8086    160.1143   5.2914790093e+01   1.2506008343e+01    0.1772202    0.1294147  -7.31 0.0009955037    1.341    0.254
        29  -9.5226    242.2054    159.0994   4.5877976574e+01   6.5292315736e+00    0.2255684    0.1689205  44.53  0.001567526    1.851    0.460
        30  -8.4598    227.2564    156.6405   4.7544411522e+01   8.8096734911e+00    0.2218079    0.1653694  -7.58  0.000589036    1.187    0.158
        31  -8.1421    250.4086    248.4350   5.8813323891e+01  -4.2590678852e+00    0.1681275   0.07214621 -29.17  0.001162062    2.069    0.517
        32 -11.9488    248.8359    107.0501   3.4892509071e+01   1.2431636712e+01    0.9405447    0.5342638 -28.44  0.005602124    1.393    0.282
        33 -10.2661    103.4849    244.8731   8.4158876632e+01   1.1680908655e+01    0.2066232    0.1831537   6.74 0.0006962529    1.220    0.180
        34  -7.5224     54.5330    246.5642   9.4485982065e+01   1.6795336208e+01    0.1147414   0.08503489  39.83 0.0001593312    1.007    0.007
        35 -11.2945     40.4445    132.3043   8.8495838012e+01   4.3697415340e+01    0.8466722    0.6829818  72.46  0.001532925    1.173    0.148
        36 -10.1616     33.5353    135.0031   9.1200891385e+01   4.3728372885e+01    0.4376282    0.3303209  24.19  0.001061782    1.417    0.294
        37  -9.1157    220.9797    132.8413   4.3775772059e+01   1.3082512713e+01    0.2585542    0.1491434 -31.45 0.0009270027    1.443    0.307
        38 -10.8574     63.2591    133.1847   8.0896533752e+01   4.0530408688e+01    0.4756966    0.4707313  50.67  0.002722399    1.104    0.094
        39  -8.7052    234.2587    234.4700   5.9237991110e+01  -1.4309749900e+00    0.1556962    0.1189762  13.70 0.0006075616    1.375    0.273
        40  -8.9656     73.4208    126.6250   7.6367028304e+01   4.0705111570e+01    0.3378721    0.2410406  10.49  0.001513709    1.845    0.458
        41  -8.2046    198.5898    133.8499   4.7466186994e+01   1.6515486569e+01    0.2913627    0.1413943  30.14  0.001191924    2.791    0.642
        42  -8.9859    127.9935    233.3830   7.7959129902e+01   1.0549933505e+01    0.1784681    0.1592108 -13.90 0.0001923926    1.249    0.200
        43  -7.6269    131.1331    121.7874   5.8499703621e+01   3.1308108709e+01    0.2026667    0.1722862 -14.25 0.0002618187    1.331    0.248
        44 -10.4287     59.0329    116.3632   7.9351195458e+01   4.5580596760e+01    0.3686146    0.2554003 -69.36  0.001722305    1.416    0.294
        45  -8.8378    134.8180    114.4321   5.5793948902e+01   3.2127742924e+01    0.3102838    0.1112087 -47.16  0.001027751    2.766    0.638
        46  -9.0082    152.7726    136.7117   5.6865883610e+01   2.4112755872e+01    0.3547235    0.2305822 -32.81  0.001062441    1.578    0.366
        47  -8.0759    149.8340    108.1507   5.0735023293e+01   3.0298388516e+01    0.2269607    0.2013292 -65.87 0.0009325289    1.211    0.174
        48  -9.0161    189.5129    154.1748   5.3220643262e+01   1.4714783808e+01    0.4593874    0.2413906  34.18  0.002018661    2.012    0.503
        49  -8.6602    206.7382    111.0613   4.1164108431e+01   1.8706593897e+01    0.3754176    0.2443186 -48.78  0.002016763    1.584    0.369
        50  -8.8138    126.7607    105.4117   5.5478791402e+01   3.5723753156e+01     0.447284    0.1974162 -57.43  0.001427433    3.174    0.685
        51  -9.0432    158.7811    106.1690   4.8339150844e+01   2.8817730972e+01    0.2813237    0.2148256  34.24  0.001392878    1.463    0.316
        52  -7.4647     48.9547    155.5379   8.8551463417e+01   3.6651036294e+01    0.1970286    0.1332139  29.71 0.0005076748    1.455    0.313
        53 -11.1041     49.2744    132.9783   8.5557452375e+01   4.2461362684e+01    0.9128586    0.6090713 -70.11  0.003471267    1.454    0.312
        54 -11.0149      3.3467    142.5601   1.0188493224e+02   4.4296702118e+01    0.8853785    0.4024854 -84.39   0.00399607    1.989    0.497
        55  -7.4087    109.8031    103.4496   5.9561707660e+01   3.9715442197e+01    0.1994734    0.1514489  29.92 0.0002823784    1.493    0.330
        56  -7.5605    134.7969    102.4324   5.2683121234e+01   3.4638608091e+01    0.2039229    0.1456898  34.91 0.0004831027    1.573    0.364
        57  -9.5815    159.0876     98.1782   4.6199200978e+01   3.0247785191e+01    0.3224073    0.2475721 -35.59 0.0005602649    1.235    0.190
        58  -8.5939    143.4510     99.2917   4.9815937810e+01   3.3405793289e+01    0.3155225    0.2489231 -83.14  0.000826836    1.602    0.376
        59  -8.7254    185.7562     92.9044   4.0051979980e+01   2.5594234533e+01    0.3425118    0.1009205 -37.95  0.001176248    2.892    0.654
        60 -10.5398    176.6456     91.3516   4.1158129626e+01   2.7734961426e+01    0.4421735    0.3234782 -21.95  0.002258726    1.462    0.316
        61  -9.6556    183.2944     79.8420   3.7057066519e+01   2.8226716047e+01    0.4644298     0.289853 -40.09  0.001389934    1.404    0.288
        62  -7.2989    136.5301     81.4190   4.6275184203e+01   3.8466506906e+01    0.1520751    0.1439665 -65.14 5.222508e-05    1.024    0.023
        63  -8.6786    203.1772     78.8069   3.3987660971e+01   2.4292752423e+01    0.2458157     0.188458 -55.05 0.0002744943    1.286    0.222
        64  -8.1860    129.9919     78.0584   4.6769851989e+01   4.0642968441e+01    0.2216024    0.2088543 -63.04  0.001176129    1.017    0.017
        65  -7.2487     98.3005     78.0144   5.5489826126e+01   4.7929434124e+01    0.1859615    0.1398876 -46.81 0.0003824058    1.305    0.234
        66  -9.7666    215.8634     74.5918   3.1408287174e+01   2.2434130461e+01    0.4549628    0.2143819 -44.72  0.001112476    1.836    0.455
        67  -8.1840    199.1748     67.6927   3.1683058659e+01   2.6734027476e+01     0.301531    0.1574871 -32.18   0.00100299    1.684    0.406
        68  -8.7916    100.4961     65.9480   5.0669023031e+01   4.9999331837e+01    0.2785938    0.2280019  56.21 0.0003514976    1.237    0.191
        69  -7.2276     92.7800    146.6657   7.4152836988e+01   3.2608868790e+01    0.1412406    0.1093849 -32.65 0.0002604828    1.518    0.341
        70  -8.4805    169.1735     64.2095   3.4910427392e+01   3.3847851187e+01    0.2112591    0.1525023 -56.44 0.0006402719    1.362    0.266
        71  -8.7170    200.5108     60.3246   2.9617477046e+01   2.7502796782e+01    0.3966119    0.3004911  14.28   0.00123073    1.870    0.465
        72  -8.7308    197.5044     55.7902   2.8776072893e+01   2.8767874455e+01    0.3560586    0.2931018  19.72  0.001997184    1.608    0.378
        73  -9.5911    202.4532     52.2099   2.7293421273e+01   2.8202754513e+01    0.3027056    0.2213508 -27.41 0.0008416207    1.317    0.241
        74  -8.7370    168.9224     58.2186   3.3197123393e+01   3.4831460059e+01    0.2223782    0.1774102 -61.70 0.0006783485    1.217    0.178
        75  -8.3676    208.1488     56.0978   2.7691951081e+01   2.6499497182e+01    0.2573111    0.1547967 -27.69 0.0008330435    1.550    0.355
        76  -7.5814    183.2225     55.9694   3.0559684288e+01   3.1877592755e+01    0.1878531    0.1026071 -34.26 0.0006520661    1.622    0.383
        77  -7.0868     98.0038     50.2322   4.5446980715e+01   5.3636030369e+01    0.1868935    0.1265041  55.67 0.0002061885    1.475    0.322
        78  -9.5117     67.6272    144.9379   8.1378528278e+01   3.6888396333e+01    0.4960464    0.2920845  47.62  0.002227435    1.646    0.392
        79  -7.6117    187.3099    145.6499   5.1897848430e+01   1.6463974295e+01    0.1251922    0.1038085 -67.18 0.0004238263    1.715    0.417
        80  -8.6596    193.5978     43.3570   2.5867544072e+01   3.1282705835e+01    0.4405338     0.138997 -23.60  0.001379145    4.214    0.763
        81  -9.0749    149.0743     42.2617   3.1256937224e+01   4.2019717580e+01    0.2599425    0.1905658 -44.57 0.0003300468    1.262    0.208
        82  -7.8505    141.3100     43.3203   3.2902088953e+01   4.3829752928e+01    0.1462304     0.115022  26.06 0.0002790501    1.645    0.392
        83  -7.8444    153.3194     44.6581   3.1380949940e+01   4.0614640159e+01    0.1599159   0.09977239 -61.61  0.000620552    1.718    0.418
        84  -7.5792    184.1513     32.8386   2.3896988964e+01   3.4750894345e+01    0.1749406    0.1591992   5.22 0.0006399117    1.372    0.271
        85  -8.4218     54.3213    233.4090   9.3740980533e+01   1.9117181651e+01    0.1834416    0.1624057  -5.14  0.001326843    1.436    0.303
        86  -7.8401    113.5976    228.9919   8.0462904226e+01   1.3002693250e+01    0.2106319    0.1406663 -36.71   0.00129631    1.817    0.450
        87  -8.2938    200.5977     30.2003   2.1669804922e+01   3.1368659280e+01    0.2217243    0.1721606  -8.57  0.001177161    1.593    0.372
        88  -9.1987    202.0804     26.2962   2.0515516452e+01   3.1497229629e+01    0.2464217    0.1671108 -33.06 0.0003700134    1.310    0.237
        89  -7.3134     99.4912     25.4547   3.4362359386e+01   5.7184856540e+01    0.1459614    0.1388276  83.93 0.0001683804    1.004    0.004
        90  -8.1434    139.7217     22.5867   2.5809426831e+01   4.6981696058e+01    0.3333725    0.1791075  -9.06   0.00127994    2.713    0.631
        91  -8.2056    185.9426     20.6404   2.0250157045e+01   3.5758455524e+01    0.1894056     0.167936 -40.56 0.0003750898    1.144    0.126
        92  -8.0769    136.1118     18.7410   2.4894745754e+01   4.8364130099e+01    0.2554309    0.1743641 -43.33 0.0006436916    1.381    0.276
        93  -7.1077     14.9724     17.7831   7.1548160042e+01   7.6059813483e+01    0.1583752    0.1038721  23.15            0    1.570    0.363
        94  -8.2705    141.5899     16.2491   2.3277944384e+01   4.7207157441e+01    0.1876143     0.137652  -9.89 0.0008571747    1.638    0.390
        95  -7.9595    158.0109    228.0222   7.1352245113e+01   7.6912823721e+00    0.1425065    0.1088955  16.92 0.0003532865    1.041    0.040
        96  -7.6108    248.3137    221.6694   5.5346285554e+01  -1.4414715687e+00   0.08393862    0.0723549 -13.72 0.0006169142    1.677    0.404
