#   1 NUMBER                 Running object number                                     
#   2 MAG_AUTO               Kron-like elliptical aperture magnitude                    [mag]
#   3 X_IMAGE                Object position along x                                    [pixel]
#   4 Y_IMAGE                Object position along y                                    [pixel]
#   5 X_WORLD                Barycenter position along world x axis                     [deg]
#   6 Y_WORLD                Barycenter position along world y axis                     [deg]
#   7 A_WORLD                Profile RMS along major axis (world units)                 [deg]
#   8 B_WORLD                Profile RMS along minor axis (world units)                 [deg]
#   9 THETA_WORLD            Position angle (CCW/world-x)                               [deg]
#  10 FWHM_WORLD             FWHM assuming a gaussian core                              [deg]
#  11 ELONGATION             A_IMAGE/B_IMAGE                                           
#  12 ELLIPTICITY            1 - B_IMAGE/A_IMAGE                                       
         1 -12.4785    119.8273     37.5628   3.7121054264e+01   5.0044359860e+01    0.8049441    0.5266072 -50.51  0.002744773    1.955    0.488
         2 -11.1661      4.9092     36.5757   7.8923845578e+01   6.6788009373e+01    0.5583905    0.2655877 -55.03  0.003266856    1.627    0.385
         3 -12.2452    105.8760     20.8458   3.4519812343e+01   5.5268678446e+01    0.3777276    0.3449253 -78.12 0.0007355409    1.451    0.311
         4 -11.8657     26.5762     27.9159   6.6389645794e+01   6.6800746527e+01    0.5230861    0.2636903 -45.40   0.00208986    1.690    0.408
         5 -12.2496     20.2183     21.8617   6.6975366567e+01   6.8381099439e+01    0.5153908     0.240464 -38.81  0.001628854    1.680    0.405
         6 -10.8624    121.0959     11.8467   2.7363633741e+01   5.2804393525e+01    0.4271864    0.2113204  59.62 0.0008455805    1.873    0.466
         7 -10.6223    127.1782     11.7153   2.6006394423e+01   5.1385870287e+01    0.3339194     0.244397 -85.67  0.001527479    1.846    0.458
         8 -11.4952    134.6008     14.8460   2.5600463106e+01   4.9292432952e+01    0.6291959    0.2853326  54.43  0.002735368    1.876    0.467
         9 -10.7793    127.6270     16.2527   2.7552432580e+01   5.0821923329e+01    0.3374479    0.2145955  40.57  0.001067362    1.455    0.313
        10 -10.5542     90.7346     22.4121   3.9477104699e+01   5.8214566466e+01    0.4176119    0.2563725 -25.07  0.002135923    1.625    0.385
        11 -11.2979     85.9034     13.6971   3.7321745013e+01   6.0190009523e+01    0.4086536    0.2613426 -16.00  0.001717201    1.564    0.361
        12 -11.1468    179.4669     20.4278   1.9717702886e+01   3.7422068018e+01    0.5929127    0.2598412  40.16  0.002031753    2.942    0.660
        13 -11.8835     48.4221     12.9588   5.0488762519e+01   6.6571963688e+01    0.5693365    0.2648458  37.91  0.002957996    2.197    0.545
        14 -11.8649     35.6519     17.9850   5.8269876194e+01   6.7471678868e+01    0.5919681    0.2212177 -32.11  0.001892113    2.518    0.603
        15 -11.1313      5.9356     10.8725   6.9597646735e+01   7.1256758643e+01     0.449755    0.3060272  23.87  0.003226398    1.785    0.440
        16 -10.6043     12.4588      8.4538   6.5204481339e+01   7.1158527007e+01    0.3232889    0.2352442 -65.26  0.001993357    2.672    0.626
        17 -12.0249     16.2166     14.0968   6.5748623876e+01   6.9975798418e+01    0.6581407    0.2761764 -27.24  0.003339294    2.379    0.580
        18 -11.6745     22.7629     11.2594   6.1306359550e+01   6.9829086200e+01    0.4345393    0.2505639  -8.39  0.001861801    1.766    0.434
        19 -12.2764    164.7524     18.1395   2.1275438173e+01   4.1424777004e+01    0.6185936    0.2929839  41.67  0.002532053    2.320    0.569
        20 -11.8830    227.4002     15.2865   1.2648944202e+01   2.6104152640e+01    0.5280234    0.3212219 -87.55  0.001524581    1.682    0.405
        21 -10.6994    148.3426     15.9342   2.3357384975e+01   4.5796997591e+01    0.4076498     0.232751  34.05  0.001338254    1.963    0.491
        22 -11.9415    192.4080      8.4469   1.4659996649e+01   3.5400192997e+01    0.6832486    0.4005216  14.55  0.002359616    2.859    0.650
        23 -12.0959    135.4512     22.0044   2.7929568528e+01   4.8321400782e+01    0.9486203    0.4102123  50.78  0.003478896    2.006    0.502
        24 -12.0994    104.9266     12.7392   3.1570405289e+01   5.6362718868e+01    0.5352312    0.3385165 -22.56  0.002716806    1.652    0.395
        25 -11.5929     68.0749     18.4625   4.5340614485e+01   6.2845783459e+01    0.4133302    0.3396853   0.62  0.001542402    1.025    0.025
        26 -11.6842    211.9829      8.1758   1.2450711680e+01   3.0576145505e+01    0.7202832     0.378125 -14.53  0.003241937    2.667    0.625
        27 -11.5176    205.8463      2.7695   1.1714038100e+01   3.2619804580e+01    0.5069436    0.3071067  83.46  0.002633376    1.549    0.354
        28 -11.4175    163.4738      6.8861   1.8011751840e+01   4.2870597382e+01    0.5838799    0.3153974  -4.32  0.002554012    2.617    0.618
        29 -11.2347    169.5531      9.3614   1.7882548930e+01   4.1095912533e+01    0.5066785     0.188461  55.13  0.002030848    2.275    0.560
        30 -10.7611    145.2738      9.7292   2.1842581297e+01   4.7172704840e+01    0.2523815    0.1990888  39.50 0.0005227429    1.212    0.175
        31 -11.2581    152.3493      7.6731   1.9973803865e+01   4.5599804870e+01     0.394479    0.1442536  50.01  0.001552566    2.379    0.580
        32 -10.7722    157.4854      7.5181   1.9110200729e+01   4.4323749232e+01    0.3362658    0.1785971 -11.12  0.001498981    2.410    0.585
        33  -9.7599      1.2412      8.1702   7.0944739607e+01   7.1989309184e+01    0.2172231   0.05687404 -45.99  0.001045958    2.601    0.616
        34 -11.5105    176.7815      5.8541   1.5869164074e+01   3.9596396328e+01    0.4357359    0.2239811  72.90 0.0007834174    1.801    0.445
        35 -10.9113    185.3287      7.3288   1.5205710119e+01   3.7293656219e+01    0.3767281    0.2279658  23.08 0.0008988605    2.412    0.585
        36 -11.3133    183.5016      4.5094   1.4643907561e+01   3.8023890584e+01    0.5128198    0.2493426  42.13  0.002218904    2.403    0.584
        37 -10.1918     87.7214      7.5709   3.4152111461e+01   6.0478454717e+01    0.4429715    0.2086484  48.84   0.00190941    1.891    0.471
        38 -10.0105     62.3846      7.2656   4.2354379188e+01   6.5145515278e+01    0.2443014    0.1575865  11.08  0.000956073    1.491    0.329
        39 -10.3103    232.8227      7.3000   1.0288572712e+01   2.5707196050e+01    0.2310463    0.1568329 -84.66  0.001180996    1.375    0.273
        40 -11.7478    233.7469      2.9475   9.2213016767e+00   2.5950095105e+01    0.4235866    0.2367262 -70.97  0.001213985    1.803    0.446
        41 -11.2862    122.2078      5.2945   2.4691326919e+01   5.3154073158e+01    0.2509266    0.2075025   2.99 0.0009665422    1.271    0.214
        42  -9.4931     78.0162      7.5270   3.7102595711e+01   6.2361014312e+01    0.2224415    0.1640104  67.44 0.0009004014    2.013    0.503
        43 -10.0437     76.6726      3.6465   3.5785179319e+01   6.3004287905e+01    0.2794838    0.1611788  24.24  0.001406951    1.684    0.406
        44 -10.0851     73.0264      3.0000   3.6666198549e+01   6.3742549302e+01    0.2979099     0.155461  32.93  0.001303524    1.741    0.426
        45 -10.3386    247.2746      6.0202   8.8198213522e+00   2.2567178020e+01    0.1742958    0.1447927 -64.21 0.0005043938    1.051    0.049
        46 -12.0698    133.4019      2.7062   2.1570064775e+01   5.0708112097e+01    0.6541496    0.3167715  69.97  0.002884477    2.098    0.523
        47 -10.2067     41.4257      4.1394   4.9262726446e+01   6.8649867092e+01    0.2686591    0.1567437  -3.17  0.001006325    1.758    0.431
        48 -10.7427    218.6769      3.8628   1.0748050556e+01   2.9399161011e+01    0.2925883    0.2187244  70.62 0.0007426292    1.247    0.198
        49 -11.0292    223.9866      2.6394   9.9796874025e+00   2.8259577346e+01    0.2468849    0.2039527 -80.67 0.0004625363    1.044    0.042
        50 -10.8384    105.6450      2.7458   2.7398024470e+01   5.7149080016e+01    0.3296773     0.245852 -39.50  0.001340161    1.634    0.388
        51 -10.2431     22.0471      3.2798   5.7919259527e+01   7.1041884650e+01    0.1981867    0.1361368 -31.78 0.0009208602    1.340    0.254
        52 -11.1289    141.5876      3.3354   2.0335973736e+01   4.8657526125e+01    0.3296464    0.2413184  69.63  0.001805711    1.286    0.222
        53 -11.1174    114.3225      2.9130   2.5477859241e+01   5.5185375865e+01    0.3990027    0.1796854  58.80  0.001805048    1.956    0.489
        54 -10.1055     13.0451      1.7192   6.1784707061e+01   7.2103124576e+01    0.1954522    0.1281246   9.25 0.0009063898    1.442    0.307
        55 -10.3950    152.4079      1.4296   1.7959174795e+01   4.6134898793e+01    0.2605069    0.1178903  66.96 0.0004334368    1.942    0.485
        56 -11.0122      2.6307      1.9125   6.7490524298e+01   7.2875110028e+01    0.2687823    0.1475315  -5.21  0.001489316    1.801    0.445
        57  -9.9198     32.0155    137.6927   8.9029397812e+01   4.2899017014e+01    0.2341908    0.1986343  72.88  0.001094698    1.179    0.152
        58  -9.6998    249.5131    250.4692   6.0313071112e+01  -1.1811225062e+01    0.1156152   0.08217675  15.76 0.0008095003    1.034    0.033
        59 -11.2676     50.3354    249.3518   9.5419815946e+01   1.8035182661e+01    0.3754991    0.1135808  48.82  0.001941077    2.390    0.582
        60 -10.8516     29.8641    133.2377   8.9008327727e+01   4.4117707018e+01    0.3079509    0.2021098 -51.67 0.0006734892    1.506    0.336
        61  -9.7593     47.2784    134.5128   8.4678317892e+01   4.2081120468e+01    0.3361547    0.1099204 -70.92  0.001196542    3.352    0.702
        62  -9.8763     72.9525    133.5313   7.7710258952e+01   3.9119004126e+01    0.2277219    0.1722843 -63.74  0.001251705    1.210    0.174
        63  -9.6507     39.3675    133.4584   8.6587963429e+01   4.3157427276e+01    0.1849755    0.1290773  22.54 0.0006483938    1.814    0.449
        64  -9.2795    103.9521    131.0881   6.8934822835e+01   3.4797477843e+01    0.1760123     0.159694 -62.68 0.0009641966    1.067    0.062
        65 -10.9482     10.9520    126.5519   9.3026142278e+01   4.7156238383e+01    0.3123495    0.1363128 -71.00 0.0005179306    1.775    0.437
        66  -9.3151     26.5516    127.4722   8.9118125401e+01   4.5730564307e+01    0.1234178   0.09984235 -73.48 5.401871e-05    1.020    0.019
        67  -9.5027     22.8522    126.8757   9.0006594865e+01   4.6177418691e+01    0.1577252    0.1195937  85.48 0.0003609314    1.246    0.198
        68 -10.4002      2.1267    125.6811   9.5149622141e+01   4.7934917008e+01     0.243633    0.1403657  79.61  0.001387426    1.728    0.421
        69 -12.2304    103.7701    122.5428   6.7103628053e+01   3.6786374060e+01    0.3392102    0.3232966 -13.33 0.0008194406    1.134    0.119
        70 -10.1622     49.6114    123.0901   8.2248425557e+01   4.4482270656e+01    0.2379222    0.1765271  -5.98  0.001317645    1.916    0.478
        71 -10.0483     49.0162    112.4177   8.0546577778e+01   4.7029297974e+01     0.398127    0.2265829 -49.50  0.002039348    1.600    0.375
        72 -10.1496     44.9825    120.0123   8.3022516235e+01   4.5698429340e+01    0.2359928    0.1647944 -68.21 0.0006133963    1.241    0.194
        73 -10.2236     43.5491    116.4844   8.2835111791e+01   4.6666431307e+01    0.2517517    0.2139625 -54.66 0.0008068501    1.118    0.105
        74 -12.6780      2.9353    112.0316   9.3472076180e+01   5.0920524172e+01    0.5014112    0.2848958  78.76 0.0008597582    1.924    0.480
        75 -11.3993      4.5071    105.1189   9.2205631435e+01   5.2368082619e+01    0.3530356    0.3085815   6.42  0.002655982    1.502    0.334
        76  -9.8714     79.1768    114.5471   7.2216691148e+01   4.2649336023e+01    0.2673357    0.1875829 -55.32  0.001371373    1.310    0.237
        77  -9.3008     67.4912    114.9536   7.5674479085e+01   4.4200999842e+01    0.2742445    0.1287988 -67.83  0.001093463    2.444    0.591
        78  -9.9982     67.1950    110.8939   7.4921841513e+01   4.5182188381e+01    0.2708446    0.1986073  26.71 0.0009703987    1.573    0.364
        79 -11.7518     10.1503     97.0410   8.9471468017e+01   5.3832253414e+01    0.7448583    0.4377353  24.19  0.004536115    2.115    0.527
        80 -11.1227     29.8328     97.4805   8.3570567869e+01   5.2308577940e+01    0.6633679    0.2729589 -41.76  0.002951209    2.590    0.614
        81 -11.7940      6.9784     88.7744   8.9187381016e+01   5.5849341909e+01    0.6374234    0.3707358   5.57  0.003376809    2.324    0.570
        82 -11.7226     27.7022     84.9759   8.1867890713e+01   5.5283946592e+01    0.5939143    0.4682449 -15.70  0.003868282    1.460    0.315
        83 -11.3879     25.5985    107.3059   8.6491220810e+01   5.0423565041e+01     1.220181    0.6487264  -7.55  0.005605897    3.445    0.710
        84 -12.4347     17.4347    100.5709   8.7838386359e+01   5.2563534685e+01    0.3544806    0.2815051 -86.86  0.001916312    1.242    0.195
        85 -10.7776     35.3860     92.5613   8.0898725472e+01   5.2934374009e+01    0.4628965    0.2451287 -76.57  0.001998031    2.250    0.556
        86 -11.6862     44.4511     85.0223   7.6333082186e+01   5.3741190880e+01    0.4224309    0.3703403  -1.49   0.00219815    1.286    0.222
        87 -10.6327     37.4030     86.0286   7.8889988876e+01   5.4209534085e+01    0.3147627     0.191965  21.39  0.001142168    1.970    0.492
        88 -11.2481     23.0660     94.6567   8.5161428778e+01   5.3484606071e+01    0.2801938    0.2174572 -12.23  0.001001927    1.586    0.370
        89 -11.4215     18.2033     90.9815   8.6042472029e+01   5.4658173253e+01    0.4482122    0.2822343 -85.52  0.001552342    1.738    0.425
        90 -11.0170     21.5104    114.4588   8.8712580945e+01   4.9115905433e+01    0.4817216    0.2633245   6.98  0.002497443    2.817    0.645
        91 -11.0308     28.0389    113.4877   8.6745843212e+01   4.8809395429e+01    0.3536237    0.2338883   4.33   0.00135128    2.146    0.534
        92 -10.4477    249.4977    112.4755   3.3002469632e+01   7.2566970993e+00    0.1392236    0.1252854 -25.73 8.006792e-05    1.001    0.001
        93  -9.2933    170.5139    110.4360   4.7253471943e+01   2.5313058514e+01    0.1559848    0.1507895  16.12 7.168762e-05    1.028    0.027
        94 -11.3817     80.0558    108.2431   7.0552314515e+01   4.3969688760e+01    0.4415097    0.3208783  27.25 0.0006646155    1.564    0.361
        95  -9.8798    102.4425    109.4654   6.4375298163e+01   3.9989844368e+01    0.1466456    0.1396891 -43.39 0.0003092405    1.016    0.016
        96 -10.5993     16.0489    108.3834   8.9389476045e+01   5.0898098211e+01    0.2438454    0.2149895  -4.17   0.00175084    1.451    0.311
        97 -10.0944     85.5983    103.7455   6.7849954311e+01   4.4135879864e+01     0.229835    0.2066132 -45.85  0.000582842    1.039    0.038
        98 -10.8174     51.8673     99.5594   7.7158863706e+01   4.9672877971e+01    0.6180759    0.1942434 -48.42  0.002342399    2.789    0.641
        99  -9.4411     64.7117    101.7008   7.3671114615e+01   4.7623346786e+01    0.2370034   0.08925873 -48.89 0.0001824572    2.348    0.574
       100 -11.9741     68.6224     95.8404   7.1100123650e+01   4.8430201600e+01    0.3508275    0.2886656  -4.42  0.000445587    1.420    0.296
       101 -11.5129    248.4527     97.7184   2.9737871178e+01   9.8070756982e+00    0.4504855    0.2355355 -11.54  0.001517037    3.904    0.744
       102 -10.4298     80.2252     97.6086   6.7951807595e+01   4.6354681342e+01    0.4112559    0.2298567  51.60  0.001394904    2.272    0.560
       103 -11.2098     81.4168     92.8402   6.6366874311e+01   4.7230781047e+01    0.6546931    0.3292542  41.63   0.00067501    2.161    0.537
       104 -11.8326    125.6759     94.8302   5.4032622657e+01   3.8608503975e+01    0.3544695    0.2643631  50.23 0.0002376314    1.397    0.284
       105  -9.7878    120.4703     90.4862   5.4216406072e+01   4.0599610882e+01    0.3609252    0.1840323 -56.34  0.001143317    2.603    0.616
       106 -10.5628     42.9932     94.4793   7.8873916020e+01   5.1773899023e+01    0.2737267    0.2636448  34.40  0.001051444    1.218    0.179
       107 -11.2395     89.7575     89.8563   6.2999991573e+01   4.6532038452e+01    0.5075741    0.2872616 -40.15  0.002258231    1.726    0.421
       108 -10.3107     49.1889     91.4490   7.6243024000e+01   5.1806005074e+01    0.2490034    0.2457536  34.41  0.001673559    1.177    0.150
       109 -10.7491     98.4360     90.9754   6.0687864801e+01   4.4779330781e+01    0.2904404    0.2109111  39.11 0.0004769939    1.440    0.306
       110 -10.0169     66.1840     88.7708   7.0127457554e+01   5.0336394994e+01    0.3197739    0.1997911 -14.65  0.001422948    2.428    0.588
       111  -9.6556    104.0712     87.2580   5.7965355810e+01   4.4527591197e+01    0.2041446    0.1900776  28.24 0.0006835256    1.103    0.094
       112 -10.9948    143.1501     84.6766   4.6556644751e+01   3.6757823449e+01    0.2627273    0.2465613 -21.94 0.0002541637    1.066    0.062
       113 -10.6882     80.4560     84.0962   6.4309753958e+01   4.9281538107e+01    0.3565086    0.3167896 -36.29     0.001896    1.028    0.027
       114 -10.7858     76.4642     78.8771   6.4120701705e+01   5.1004758930e+01    0.5513749    0.2878281 -49.18  0.002486098    1.778    0.438
       115 -10.2907     72.3179     77.9939   6.5229468017e+01   5.1807987172e+01    0.2982052    0.2649304 -43.25  0.001525833    1.072    0.067
       116 -10.7422    113.1236     82.3123   5.3881763427e+01   4.3772614339e+01    0.2674797     0.255486 -65.52            0    1.156    0.135
       117 -10.2428     66.6663     81.4812   6.8064293325e+01   5.1861779504e+01    0.3669827    0.2372816  15.81  0.001817274    1.937    0.484
       118 -11.0413     58.4005     77.7250   6.9820085227e+01   5.3746714701e+01     0.409926    0.2779775 -63.12  0.001085322    1.590    0.371
       119 -11.3382     53.5718     76.2780   7.1082956361e+01   5.4640976648e+01    0.5762699    0.3959683 -70.19  0.003048423    1.765    0.434
       120 -10.5284    246.6633     79.6740   2.5752730919e+01   1.2986753375e+01    0.1388383      0.10686  14.23 0.0007051548    1.722    0.419
       121 -11.4164     13.4536     74.3556   8.4551147415e+01   5.8613602657e+01    0.5939005    0.4372402  78.33  0.003787266    1.751    0.429
       122 -10.4847     14.3932     67.5845   8.2833394182e+01   6.0001517446e+01     1.082925    0.1671401  25.81  0.003910066    5.802    0.828
       123 -12.1887     10.0073     62.6710   8.3369766571e+01   6.1296726702e+01    0.4457269    0.2533328 -47.24  0.001145073    1.364    0.267
       124 -12.0195      4.2132     61.4261   8.5237917084e+01   6.1864901040e+01    0.3265866    0.2709599 -70.74  0.001459433    1.235    0.190
       125 -10.7921     94.9677     76.5919   5.7554276961e+01   4.8403135082e+01    0.3781623    0.2601945  36.67  0.001153967    1.512    0.339
       126  -9.9844     92.0721     71.9539   5.7026504004e+01   4.9848974478e+01     0.241353      0.20528  11.47 0.0003720296    1.215    0.177
       127 -11.7849     85.0683     73.3522   5.9690447052e+01   5.0774946259e+01    0.7033937    0.4336663  34.42  0.003382892    1.720    0.419
       128 -10.2519     78.4821     67.9259   6.0167326768e+01   5.2933149291e+01    0.3861535    0.3064711  54.68  0.002103099    1.598    0.374
       129  -9.0371     19.3436     76.2518   8.2908299815e+01   5.7818921294e+01    0.1207511   0.07422344 -36.05  0.000694609    1.579    0.367
       130  -9.5963    103.9875     74.7191   5.4234143972e+01   4.7092115311e+01    0.2094743    0.1872851  35.48  0.001143563    1.150    0.131
       131 -11.0755      1.9841     71.7795   8.8002522341e+01   5.9792095437e+01    0.3501305    0.1381567 -61.67  0.001604343    1.801    0.445
       132 -10.9362    187.0983     71.1714   3.3054832394e+01   2.8426876142e+01    0.5376275    0.3121766 -41.31  0.002289991    1.719    0.418
       133  -9.9150     24.3325     74.0016   8.0705084853e+01   5.7944045537e+01    0.2270144    0.1522254 -41.41 0.0005233089    1.302    0.232
       134 -10.1695     28.7146     71.9725   7.8703898692e+01   5.8034944522e+01     0.253838     0.182083  20.25   0.00099179    1.649    0.394
       135 -10.8908     34.9336     71.7950   7.6454738363e+01   5.7537140314e+01    0.4560389    0.2251398  34.27  0.002326682    2.373    0.579
       136 -10.5450     41.1685     72.8785   7.4518917431e+01   5.6713303003e+01    0.2659494    0.1788536 -45.06 0.0007591913    1.242    0.195
       137 -11.2198     39.8969     69.3428   7.4060420530e+01   5.7588690257e+01    0.2592496    0.2107774   0.08  0.001475856    1.359    0.264
       138  -9.4556     19.1617     72.1206   8.2109430676e+01   5.8721796087e+01    0.1850076    0.1242343 -42.26 0.0004746293    1.282    0.220
       139 -11.2221    122.9661     68.7539   4.6917446938e+01   4.4303319005e+01    0.4815176    0.2717102  44.45  0.001427338    1.755    0.430
       140 -10.5690    220.0675     66.9395   2.6404274115e+01   2.0997341997e+01    0.4871956    0.2231901  67.04  0.001865622    2.552    0.608
       141 -10.9050     91.8200     62.6304   5.4100114078e+01   5.1689054396e+01    0.3906881    0.2701121  57.05  0.001323803    1.905    0.475
       142 -10.6382     59.2291     63.7952   6.5535047396e+01   5.6533656973e+01    0.2970935    0.2564242 -83.68 0.0004403798    1.599    0.374
       143  -9.8739     62.6692     61.6900   6.3653856746e+01   5.6495550447e+01    0.3882702    0.1326933  33.47  0.001495927    3.213    0.689
       144 -11.2016     40.8851     57.0030   7.0245731607e+01   6.0021759154e+01    0.3465774    0.2119426  38.61  0.001580938    2.017    0.504
       145 -10.2569     50.9680     61.4859   6.7823664868e+01   5.8016849406e+01     0.259297    0.2214901  42.88  0.001188505    1.459    0.314
       146 -11.4935     43.3274     62.3442   7.0892334075e+01   5.8691812404e+01    0.2788458    0.2030695 -43.10 0.0004203819    1.146    0.127
       147 -10.9246     46.1831     59.1549   6.8893099649e+01   5.9028244532e+01    0.2901168    0.2269353 -60.86 0.0009626226    1.434    0.303
       148  -9.6922    157.0921     63.5048   3.6878402155e+01   3.7193522048e+01    0.2994958    0.1367956  48.58  0.001103432    2.102    0.524
       149  -9.4184    106.5073     63.5019   4.9877623296e+01   4.8721085006e+01    0.1486744     0.133703   0.05 -0.0003750208    1.071    0.066
       150 -11.3634    235.4469     60.8996   2.2748397658e+01   1.8295508403e+01    0.4311647    0.3006227  64.50  0.002245955    1.493    0.330
       151 -12.5166     74.4789     51.9527   5.6228571371e+01   5.6593634540e+01    0.8926125    0.3842132 -51.63  0.002068506    3.087    0.676
       152 -10.8477     82.7443     47.7139   5.1884117638e+01   5.5960235595e+01    0.5280465    0.2872684 -18.69  0.001770968    2.461    0.594
       153  -9.7655     84.1537     61.2184   5.6114966891e+01   5.3298588164e+01    0.1804465    0.1693353 -71.70 0.0007057511    1.343    0.256
       154 -10.7236     34.9046     51.6432   7.0943133813e+01   6.1670109198e+01     1.276139    0.3785815 -34.84  0.003965197    5.242    0.809
       155 -10.7152     20.4860     55.4795   7.7682999700e+01   6.2104911756e+01    0.3878391      0.26159 -86.59  0.002167419    2.310    0.567
       156  -9.9569     28.9892     53.2344   7.3741418780e+01   6.1888425418e+01    0.2017788    0.1521667   3.14 0.0006970335    1.452    0.311
       157 -10.9956     25.0167     59.5140   7.6994334814e+01   6.0942610118e+01    0.5149944     0.168858  35.59  0.002218113    3.749    0.733
       158 -11.0807     25.0206     56.0205   7.6067222807e+01   6.1654180993e+01     0.477901    0.2509725 -32.87   0.00258229    1.832    0.454
       159  -9.6274    106.4961     58.4819   4.8195118983e+01   4.9620025453e+01    0.1436927    0.1361171  -2.09 -6.633517e-06    1.050    0.048
       160 -10.0691     91.8193     57.2979   5.2299307230e+01   5.2666171566e+01    0.2694344    0.2213441  74.17 0.0007980364    1.782    0.439
       161 -10.0163     87.6305     56.6565   5.3430078748e+01   5.3536108382e+01    0.4014601    0.1983885 -31.42  0.001479068    2.133    0.531
       162 -10.0975    157.4834     55.9454   3.4455964726e+01   3.8307573030e+01    0.4302122    0.4017612 -54.35   0.00095995    1.137    0.121
       163 -10.3934    109.5716     40.7493   4.1039454672e+01   5.1845321700e+01    0.5744647    0.3100291 -22.33  0.002483273    2.085    0.520
       164 -10.6062    117.7446     55.2474   4.3883337173e+01   4.7802251909e+01    0.5970583    0.3222209 -50.66  0.002385762    2.413    0.586
       165 -11.1498    114.7902     49.3414   4.2657908215e+01   4.9405110824e+01    0.7130972    0.3304453  34.91  0.002129345    2.547    0.607
       166 -11.6611    117.6352     43.8889   3.9958790343e+01   4.9622028780e+01    0.6020891     0.449946  70.53  0.002338134    1.734    0.423
       167  -9.2159    188.3180    249.6441   7.0924119072e+01  -2.5410322124e+00    0.1131636   0.08659614  61.48            0    1.751    0.429
       168  -9.9212     51.0955     56.6629   6.6288884581e+01   5.8957549336e+01    0.1806916    0.1525014  -6.55  0.001140784    1.167    0.143
       169 -11.3348     60.8217     47.9705   5.9745536661e+01   5.9342618667e+01    0.7779799    0.2744468 -39.90  0.003138381    2.578    0.612
       170  -9.7629     57.1070     41.8661   5.8947272348e+01   6.0933522216e+01    0.2253596    0.1408725  37.73  0.001223023    1.797    0.443
       171  -9.5030      7.3931     54.2900   8.2474058895e+01   6.3169056385e+01    0.1574171   0.09355234 -67.24 0.0009431294    1.575    0.365
       172 -11.2997     46.4000     48.8119   6.5532001792e+01   6.1011653172e+01    0.6252901    0.2899491 -37.63  0.003008283    1.925    0.480
       173 -11.6880     44.0318     43.9822   6.4824211547e+01   6.2177023064e+01    0.3480139    0.3122245 -41.58 0.0002998105    1.270    0.213
       174 -10.6765     39.0271     44.2498   6.6924941758e+01   6.2670364414e+01     0.286687    0.2072804  -8.70 0.0009248367    1.388    0.279
       175 -10.4621    240.5032     50.3274   1.9575873182e+01   1.8641402884e+01    0.2310084    0.2003555   1.21 0.0009316156    1.444    0.307
       176 -10.1553     51.8758     48.3266   6.3251186351e+01   6.0450392440e+01    0.2324584    0.1783461 -27.14 0.0006216465    1.114    0.103
       177 -10.0007      1.8276     48.6680   8.3346713380e+01   6.4583471993e+01     0.263091    0.1297568 -64.27  0.001115403    1.727    0.421
       178  -9.9392    146.3058     47.2307   3.4104869207e+01   4.2394385469e+01    0.2525158    0.1845721 -24.46 0.0008103408    1.452    0.311
       179  -9.9408     22.8245     37.4390   7.1408523631e+01   6.5428742105e+01    0.3647586    0.2775407  52.63   0.00232082    2.125    0.529
       180 -10.5673     20.6089     45.9827   7.5002063122e+01   6.3981444104e+01    0.4154837    0.2074616 -35.73 0.0008290207    1.742    0.426
       181 -10.4169     26.6793     42.7163   7.1489407827e+01   6.4124554700e+01     0.257627    0.1706695 -29.88 0.0008164461    1.292    0.226
       182  -9.0860    222.5096     47.5140   2.1122424415e+01   2.3240626041e+01    0.1405127    0.1282898 -69.74  0.000106387    1.021    0.021
       183  -9.9959     13.0940     46.9470   7.8355424405e+01   6.4307848048e+01    0.2069213    0.1015256 -35.85  0.001151496    1.773    0.436
       184 -10.2099    200.4516     44.9532   2.3526822477e+01   2.9025836688e+01    0.4554634     0.216601  76.93  0.001665291    2.786    0.641
       185 -10.3334    137.2007     44.8269   3.5380901533e+01   4.4956437089e+01    0.7324593    0.2061319  44.01  0.002149435    3.809    0.737
       186  -9.5475    160.4619     43.4553   2.9941199410e+01   3.9402285557e+01    0.2459098     0.143029  72.70 -3.998556e-05    2.061    0.515
       187 -10.3171    155.8440     42.1787   3.0456835823e+01   4.0743314106e+01    0.2985612    0.2373759  -7.81   0.00110631    1.426    0.299
       188 -10.2958     92.5347     41.7551   4.6491787676e+01   5.5145506593e+01    0.3361453    0.2007628  46.87  0.001624531    1.739    0.425
       189  -9.4757     17.3984     41.8397   7.5109377870e+01   6.5012128004e+01    0.1796774   0.07582681 -44.71 0.0009373868    1.780    0.438
       190  -9.1584    113.3161    249.3447   8.4541061053e+01   9.3859853338e+00    0.1059712   0.08851053  13.84 0.0007048247    1.717    0.418
       191 -10.1953     11.4582     30.4885   7.4137680041e+01   6.7530668813e+01    0.2628213    0.1499298 -28.46  0.001246287    1.519    0.342
       192 -10.1149      7.0308     30.4755   7.6144368586e+01   6.7807278554e+01    0.2961717    0.1330141 -12.09  0.001497061    2.899    0.655
       193  -9.9024     89.4050     29.2584   4.2651422798e+01   5.7577899501e+01    0.3828502    0.2118975  39.01  0.001475157    1.713    0.416
       194 -10.1284     79.5283     39.0053   4.9721579752e+01   5.7945469704e+01    0.4212666    0.2947711  69.84  0.001938359    2.832    0.647
       195 -10.5692     77.7939     34.4140   4.8530739211e+01   5.8955432440e+01    0.3791975    0.2426653  25.97  0.001538903    1.583    0.368
       196 -10.4285     82.3727     32.7074   4.6303875170e+01   5.8400710179e+01    0.3150663    0.3027351  82.50  0.001360008    1.454    0.312
       197  -9.8748    231.4845     38.1017   1.7694421460e+01   2.2371132349e+01    0.2745019    0.1220324 -34.58  0.001183097    2.114    0.527
       198 -10.3071     67.4079     32.2599   5.1367504021e+01   6.0999244636e+01    0.4703209    0.3354222  45.00   0.00268161    1.668    0.401
       199 -11.1414     60.8835     36.5996   5.5517143073e+01   6.1295333513e+01    0.3914978    0.2600453 -44.20  0.001392132    1.599    0.375
       200 -11.5954     57.4748     31.0503   5.4637520311e+01   6.2675347846e+01    0.4299764    0.2549173 -28.60   0.00115306    1.531    0.347
       201 -11.4898     48.4428     30.5452   5.8035898079e+01   6.3971760465e+01     0.582498    0.2434045  30.12  0.002233926    2.565    0.610
       202 -11.0610     43.0098     28.0678   5.9295467806e+01   6.5042214907e+01    0.1962785    0.1556055 -18.38 0.0002847164    1.021    0.020
       203  -9.4088    194.5534     38.2137   2.2551394916e+01   3.1420603881e+01    0.1852341     0.140092  -4.66 0.0005855588    1.677    0.404
       204 -11.1024    176.3536     34.4942   2.4334645174e+01   3.6544743666e+01    0.6294335    0.2414974 -35.85  0.001992957    2.574    0.612
       205  -9.7139    132.8859     37.0485   3.3734157565e+01   4.7079408832e+01    0.3445115    0.2026259  83.11  0.001243438    3.300    0.697
       206  -9.6078     12.9667     37.2397   7.5612002341e+01   6.6184943100e+01    0.1507367    0.1054795 -63.70 0.0008201244    1.594    0.373
       207  -9.2402     94.3913     36.1622   4.3793716434e+01   5.5631965892e+01    0.1818711    0.1230795 -40.11 0.0005975979    1.610    0.379
       208 -12.3044    160.0276     29.9284   2.5764498122e+01   4.1279576641e+01     0.443909    0.4113648 -14.40 0.0005098634    1.165    0.142
       209 -12.3978    164.4535     27.7309   2.4293012955e+01   4.0418720619e+01    0.3399687    0.2956088  78.65 0.0005051224    1.146    0.128
       210  -9.6612    213.4989    248.4809   6.6236064006e+01  -6.3362193129e+00     0.120278   0.09069743  24.43 0.0008103371    1.015    0.015
       211 -11.4855    107.3579     31.3363   3.8154665459e+01   5.3641017188e+01    0.6349891    0.3457122   8.03  0.002371705    3.198    0.687
       212 -11.8988    114.0453     25.0367   3.3994107980e+01   5.2974400745e+01    0.6883756    0.2640331  49.77   0.00182526    2.294    0.564
       213 -10.0700    239.9568     32.6754   1.5477705810e+01   2.1102672836e+01    0.2876719    0.1856725  49.27  0.001500326    1.801    0.445
       214 -10.9713     32.4593     30.8186   6.4889088288e+01   6.5740549403e+01    0.2893543    0.1852299 -47.89 0.0004197177    1.548    0.354
       215  -9.9414    174.6761    246.5587   7.2985312318e+01   6.0785604918e-02    0.2460291   0.09548398  37.30  0.001138111    2.136    0.532
       216 -12.1185    126.4515    241.7411   8.1314654726e+01   8.5706916771e+00    0.3572035    0.3092888 -83.45  0.002536512    1.336    0.252
       217  -9.4189    230.1865     30.7890   1.6072628475e+01   2.3609500565e+01    0.1730569    0.1513518  48.66 0.0004225977    1.313    0.238
       218 -11.2058    188.8802     27.9136   2.0500160035e+01   3.4156434077e+01    0.3541937    0.3193983 -12.61  0.001153918    1.261    0.207
       219 -11.2875    183.5831     25.2377   2.0506644946e+01   3.5823817536e+01     0.520224    0.2842615  50.08  0.002353466    1.787    0.441
       220 -12.1412    126.3107     28.6390   3.2312345038e+01   4.9721936908e+01     0.523086    0.4208539  67.60   0.00283823    1.363    0.266
       221  -9.5887     98.4852     29.9629   4.0161685133e+01   5.5682171479e+01    0.2488563    0.1730358 -82.04  0.001026301    3.333    0.700
       222 -10.5673    197.5892     28.9148   1.9563048020e+01   3.1827182892e+01    0.3542621    0.1923503  62.88  0.001163812    1.703    0.413
       223  -9.6997    150.7309     27.4089   2.6689670844e+01   4.3927283055e+01    0.2119464    0.1187648  50.88 0.0009489406    1.612    0.380
       224 -10.8508    154.9136     24.2942   2.4896225853e+01   4.3238996094e+01    0.4411949    0.2277009  80.27  0.001671231    2.756    0.637
       225 -10.4640    156.2843     20.6620   2.3485367895e+01   4.3299768717e+01    0.3899988    0.1825468  55.30  0.001664156    1.856    0.461
       226 -11.1349    143.2057     25.1671   2.7422491849e+01   4.6062557621e+01    0.4663315    0.2477551  51.27  0.002092377    1.674    0.403
       227 -11.3930    149.4667     22.5099   2.5320386079e+01   4.4809205506e+01    0.4164568    0.1961953  54.35  0.001775789    1.849    0.459
       228  -9.2762     34.6585    245.3135   9.7721097461e+01   2.0562484376e+01    0.1149288   0.05476094  64.52 0.0007047052    1.703    0.413
       229 -11.5129     67.6894    240.8865   9.1868669346e+01   1.7297397626e+01    0.3815471    0.1722115  44.80  0.002175884    1.790    0.441
       230 -10.8247     73.4980    238.2753   9.0631182861e+01   1.6980697188e+01    0.3687233    0.1706627  51.53  0.002076224    1.726    0.421
       231 -11.3272    146.9683    238.1416   7.7030127571e+01   5.8300387057e+00    0.4013751    0.2726586  54.87  0.002373165    1.392    0.282
       232  -9.3004    199.6512    234.7098   6.6642032781e+01  -2.4025215177e+00    0.1279064   0.08211928  16.70 0.0003545885    1.665    0.400
       233  -9.9419     89.4895     16.4962   3.7412458164e+01   5.9168956942e+01    0.2312146    0.1801822  -4.32  0.001042458    1.222    0.182
       234  -8.8782     15.3152    234.3129   1.0023378715e+02   2.4559675685e+01   0.08644705   0.07393045 -69.22 0.0007033894    1.640    0.390
       235  -9.9667     59.7563     23.5688   5.0653398973e+01   6.3467965308e+01    0.2151582    0.1489003 -27.44 0.0005379188    1.318    0.241
       236  -9.0332     48.3364    233.3232   9.4662997835e+01   2.1084827253e+01   0.09243192   0.08620814 -46.44 3.786324e-05    1.714    0.417
       237 -10.1926    246.8438    230.8377   5.7555316775e+01  -9.2869265800e+00    0.1526207    0.1283121  27.43 0.0008086768    1.347    0.258
       238  -9.8087     38.6703     22.2992   5.8781950863e+01   6.6466032597e+01    0.2027821    0.1236283 -30.56 0.0005086704    1.379    0.275
       239  -9.5121    167.5305    238.4940   7.3201111570e+01   2.3770277160e+00    0.1251735    0.1005382  37.41 0.0001029012    1.005    0.005
       240  -9.6656    223.0882     22.0602   1.4720658543e+01   2.6354453146e+01    0.2219315    0.1393184 -68.23 0.0007655635    1.672    0.402
       241  -9.5209     75.4784    224.5043   8.9041790380e+01   1.9202872500e+01    0.1203212   0.09345203  66.13 0.0005598014    1.026    0.025
       242  -9.7224      5.8208     21.9395   7.3862032360e+01   6.9406259994e+01    0.3666301    0.1632125 -18.52  0.001915603    2.607    0.616
       243  -9.7732    234.2875    223.3492   5.8471967838e+01  -6.4861317190e+00    0.1273153   0.08004961   7.30 0.0004257647    1.660    0.398
       244  -9.8904    164.7153    211.9888   6.9803740492e+01   7.0227235089e+00    0.2311158    0.1680613  41.85 0.0006022071    1.183    0.155
       245 -10.0618    152.6764    207.0780   7.1471809022e+01   1.0020869656e+01    0.2865085     0.210892 -83.04  0.001508455    1.960    0.490
       246  -9.0420     61.4897    206.5022   9.0019970293e+01   2.4551808208e+01    0.1208741    0.0968646  72.84 0.0008106049    1.001    0.001
       247  -9.9424     74.5725     19.6255   4.3552619578e+01   6.1583177334e+01    0.2186312    0.1683716  18.70 0.0005315289    1.150    0.130
       248 -10.1056     47.0988     19.5443   5.3997142815e+01   6.5835924514e+01    0.2501397    0.1533875 -24.02  0.001457846    1.437    0.304
       249  -9.1658      1.5078     20.4793   7.5442940879e+01   6.9907565831e+01    0.1135407   0.07827766 -34.58 2.790007e-05    1.055    0.052
       250  -9.4632     80.2916     19.4238   4.1542292006e+01   6.0578733559e+01    0.2505201    0.1100597  42.01  0.001133699    2.113    0.527
       251  -9.4687     78.3618    203.7104   8.6362275525e+01   2.2827879951e+01    0.1338989   0.07897402  65.64 0.0007025908    1.695    0.410
       252 -10.0899    138.4486    198.2975   7.3057178308e+01   1.4178480360e+01    0.4143611    0.1885278  61.97  0.001282506    4.676    0.786
       253 -10.7701    186.8671     15.0634   1.7168013766e+01   3.6119373112e+01    0.2558851      0.21531  86.66 0.0003357334    1.116    0.104
       254  -9.8813      6.3359    198.3186   9.9804431949e+01   3.2185395296e+01   0.09730615   0.07329877 -58.31 0.0007049066    1.701    0.412
       255  -9.7523    233.6793    196.4660   5.3703548358e+01  -2.7976958316e+00    0.2168816    0.1128543 -32.14 0.0009504899    1.949    0.487
       256 -11.6343      4.9684    185.9050   9.9306631587e+01   3.4794617105e+01    0.3554622    0.2875153  64.54  0.002176282    1.231    0.188
       257 -11.0879      2.8348    181.6601   9.9444701966e+01   3.5839173506e+01    0.2282684    0.2164696  79.16   0.00185311    1.410    0.291
       258  -9.1863    216.6654     20.6840   1.5076892405e+01   2.8066030524e+01    0.1352128   0.09838986  38.90 0.0004623585    1.692    0.409
       259  -9.4236     86.2347    185.5786   8.2510190182e+01   2.5438275232e+01    0.1724492    0.1234146  31.03 0.0009470268    1.623    0.384
       260  -9.6639    250.4908    176.5295   4.6799480195e+01  -2.7979864653e+00    0.1326754    0.1102975   0.36 0.0008098514    1.011    0.011
       261  -9.1641    113.4877    175.9896   7.4974459496e+01   2.3093426463e+01    0.1856071    0.1160207 -32.82  0.000808173    2.407    0.585
       262  -9.4546     28.0320    175.9905   9.3983940380e+01   3.4757388394e+01    0.1459838    0.1117743  89.19 0.0007331904    1.042    0.041
       263  -9.3667     51.5482    173.5399   8.8685819555e+01   3.2725765067e+01    0.1250114    0.1031588  84.39 0.0001813805    1.012    0.012
       264  -9.7895     66.1356     10.4425   4.2458193566e+01   6.4156252952e+01    0.2330362    0.1053831  40.19  0.001135823    2.047    0.512
       265 -10.3018     13.8941    159.1802   9.5527944521e+01   3.9687197933e+01    0.1984668    0.1269065 -89.49 0.0004585402    1.280    0.219
       266 -11.7647      9.2203    167.0246   9.7157620293e+01   3.8380817143e+01    0.2571864    0.2424573  70.18  0.001415418    1.341    0.255
       267  -9.9615     18.6375    164.7542   9.4986745649e+01   3.8066880783e+01    0.1771446    0.1523577   4.24  0.001267074    1.731    0.422
       268  -9.9933    204.9639    163.2403   5.2459161275e+01   7.7713056401e+00    0.2436672    0.2016214 -27.61 0.0006312904    1.212    0.175
       269 -10.1903     28.0538    161.1617   9.2593231516e+01   3.7985750717e+01    0.2240158    0.1500797 -77.64  0.001407593    1.234    0.190
       270 -10.8357      9.7060    155.5296   9.6129313382e+01   4.0821479846e+01    0.2212337    0.1271635 -77.86  0.001222457    1.372    0.271
       271 -10.0050    104.4822    154.9903   7.3501509977e+01   2.9254902829e+01    0.2706801    0.2088475  22.52  0.001388914    1.589    0.371
       272 -12.4276     22.6506    149.1694   9.2609046109e+01   4.1150365673e+01     0.522599    0.2962617 -40.30  0.001546924    2.447    0.591
       273 -10.2971      3.8242    153.4576   9.7241158432e+01   4.1718153173e+01    0.2207656     0.120877  57.10  0.001349677    1.804    0.446
       274  -9.4465    142.2447    152.4437   6.3852351153e+01   2.2760041169e+01    0.2204561    0.1372146  53.13 0.0009574002    1.684    0.406
       275 -10.2284     30.1092    152.1350   9.1185023427e+01   3.9801592552e+01    0.1826078    0.1493447 -59.80  0.001077709    1.286    0.223
       276 -11.0999     46.7322    147.3458   8.6618450851e+01   3.9177194166e+01    0.5620422    0.2787769 -46.66  0.002491695    2.342    0.573
       277  -9.9141     65.9806    149.5032   8.2152541243e+01   3.6347941490e+01    0.3458613    0.2059244   9.90  0.001458362    3.271    0.694
       278 -10.9721     16.3733    147.9092   9.3937778748e+01   4.1964030844e+01    0.2420231    0.1903268  79.06 0.0004482521    1.145    0.127
       279 -10.5023      3.1904    147.6153   9.6903699901e+01   4.3033497810e+01    0.2178661    0.1265369 -70.82 0.0007947896    1.369    0.270
       280 -11.1927      5.9386    142.0316   9.5794210941e+01   4.4062988793e+01    0.3998508    0.1912278  86.00 0.0002939847    2.053    0.513
       281 -11.3879      1.9734    140.2524   9.6550782368e+01   4.4728226744e+01    0.3608238    0.1540891 -77.44 0.0008633821    1.835    0.455
       282  -9.5484     74.0440    146.0327   7.9574680947e+01   3.6055292665e+01     0.201178    0.1558284 -35.32 0.0005193371    1.589    0.371
       283 -11.1756     33.2471    144.4285   8.9553456395e+01   4.1243829793e+01    0.2544033    0.2107274  87.33  0.000701064    1.075    0.070
       284 -10.1841     15.9894    141.0103   9.3335194266e+01   4.3534263046e+01    0.1822201    0.1432314 -80.08 0.0004354198    1.024    0.023
       285 -11.2897     12.4715    136.3181   9.3695652215e+01   4.4855890085e+01    0.4087953    0.2529885 -58.02  0.002486608    1.478    0.324
       286  -9.5391    217.4019    138.7596   4.4592993048e+01   9.4974867781e+00     0.197172    0.1346971 -24.12 0.0003629646    1.508    0.337
       287 -10.3105     40.3117    137.9289   8.6961779358e+01   4.2029692384e+01    0.2540635    0.1640869  87.98 0.0007222869    1.589    0.371
       288 -10.1449     79.3450    137.8410   7.6791685270e+01   3.7199396259e+01    0.2673236    0.2306076 -83.69  0.001104794    1.116    0.104
       289 -11.1866     22.6953    135.9845   9.1151379936e+01   4.4118431467e+01    0.5272496    0.2972418  43.30  0.003046523    1.923    0.480
