#   1 NUMBER                 Running object number                                     
#   2 MAG_AUTO               Kron-like elliptical aperture magnitude                    [mag]
#   3 X_IMAGE                Object position along x                                    [pixel]
#   4 Y_IMAGE                Object position along y                                    [pixel]
#   5 X_WORLD                Barycenter position along world x axis                     [deg]
#   6 Y_WORLD                Barycenter position along world y axis                     [deg]
#   7 A_WORLD                Profile RMS along major axis (world units)                 [deg]
#   8 B_WORLD                Profile RMS along minor axis (world units)                 [deg]
#   9 THETA_WORLD            Position angle (CCW/world-x)                               [deg]
#  10 FWHM_WORLD             FWHM assuming a gaussian core                              [deg]
#  11 ELONGATION             A_IMAGE/B_IMAGE                                           
#  12 ELLIPTICITY            1 - B_IMAGE/A_IMAGE                                       
         1 -12.7749     75.6567     32.8852   6.5442550675e+01   6.0009399539e+01     1.177118    0.7150173  34.67  0.006117217    1.542    0.351
         2 -15.2461     68.7623     63.0916   7.9375138270e+01   5.6257131671e+01     3.583214     2.784001  -9.39    0.0196204    1.310    0.237
         3 -15.1667     35.8448     48.3027   8.7548910129e+01   6.3582145969e+01      3.60943     1.960368 -14.28   0.01180224    2.394    0.582
         4 -14.9834     11.2934     20.4906   8.8740738193e+01   7.0837644467e+01     2.637508     1.267023 -15.60   0.01335682    2.413    0.586
         5 -12.2766     82.9745     22.3483   5.8732761544e+01   5.9895934056e+01    0.5989019    0.4301858  52.42  0.003431557    1.391    0.281
         6 -12.1567    123.4317     10.6834   4.4579754490e+01   5.2100093894e+01    0.4478008    0.2673585  55.02 0.0008154849    1.423    0.297
         7 -12.4865    115.3469     11.6378   4.6472210693e+01   5.3897542406e+01      1.33056    0.4928518 -43.78  0.005134908    3.603    0.722
         8 -12.9251    104.4216      5.2296   4.6392015162e+01   5.6934587761e+01    0.6415303    0.6004495 -54.31  0.003212103    1.280    0.219
         9 -13.1333     75.7845     13.4381   5.7177903104e+01   6.2289389794e+01    0.6489619    0.4164233  44.32  0.003448234    1.355    0.262
        10 -14.1049     85.3807      8.0275   5.2078389315e+01   6.0844228334e+01     2.064821    0.8777868  48.50   0.00983653    1.917    0.478
        11 -11.0137    153.7620     20.1269   4.2517237698e+01   4.3936079700e+01     0.361015    0.2234113 -65.43 0.0008575572    1.947    0.486
        12 -12.7814    185.9763     11.9120   3.6188047957e+01   3.7090904516e+01     0.492209    0.3396199  66.50  0.002131544    1.336    0.252
        13 -12.0026    175.4575     14.0052   3.7901269382e+01   3.9356598746e+01    0.3688082    0.2757124  44.67   0.00158926    1.518    0.341
        14 -11.3512    155.5741     14.5537   4.0617280546e+01   4.4063482168e+01    0.4007846    0.1994597  57.53  0.001933346    1.763    0.433
        15 -11.2280    156.4841      9.8623   3.9135194903e+01   4.4291927636e+01    0.2992152    0.2200949  76.02 0.0008194228    1.207    0.171
        16 -12.3493     95.5464      3.5171   4.7700647215e+01   5.9040160354e+01    0.4827726    0.3468802  45.94  0.002386687    1.162    0.140
        17 -11.2274    151.1035      9.0393   3.9626879932e+01   4.5657687909e+01    0.3137871    0.2645683 -80.63   0.00197239    1.179    0.152
        18 -11.8481    193.0118      6.3566   3.4121830168e+01   3.6014490307e+01    0.4289784    0.2797796 -39.72  0.001619737    1.552    0.355
        19 -11.8383    188.7155      4.4059   3.4054411821e+01   3.7190023546e+01    0.3438423    0.2741093   2.16  0.001315364    1.773    0.436
        20 -12.7413    162.9498      4.4539   3.6799288487e+01   4.3235337193e+01    0.5909521    0.4758665  83.28  0.002748404    1.083    0.077
        21 -10.5599    128.6745      6.0866   4.2117802480e+01   5.1260843908e+01    0.3051037    0.2057572  -7.96  0.001703571    1.818    0.450
        22 -12.2698    138.6592      4.6501   4.0082943897e+01   4.9012420913e+01    0.6663482    0.2980582  57.09  0.002378534    1.851    0.460
        23 -10.7745      4.9105      4.1658   8.4683994321e+01   7.3846639687e+01     0.429748    0.2099506 -21.64  0.002488141    1.888    0.470
        24 -11.2054     73.5118      1.5255   5.2598834720e+01   6.3819394544e+01    0.2220828    0.1266753  53.21  0.000631825    1.551    0.355
        25  -9.8159    211.9995      1.4581   3.1388975857e+01   3.2236239722e+01    0.1755115    0.1013811  79.43 0.0005149241    1.531    0.347
        26 -10.8128     34.5561    177.1181   1.1399013894e+02   3.3322086355e+01     0.240663    0.1808927  -7.98  0.001335528    1.984    0.496
        27  -9.8861    163.0152     90.8077   6.1294341021e+01   3.1206395774e+01    0.2578125    0.1831309 -87.52  0.001094796    2.030    0.507
        28 -12.9652     33.7494     88.1724   1.0010786421e+02   5.5355515314e+01    0.6069733     0.431892  24.47  0.003414718    1.585    0.369
        29 -13.2713     40.8897     81.8876   9.5820984598e+01   5.6071261157e+01    0.5436703    0.4374215  -2.45  0.002550778    1.320    0.243
        30  -9.8083    249.5067     86.4652   4.6205915690e+01   1.3238821556e+01    0.1317505    0.1082239 -50.96 4.135055e-05    1.029    0.028
        31 -10.3962    170.2606     82.4010   5.7498142450e+01   3.1048243212e+01    0.2088629    0.1440828  67.33 0.0009519421    1.611    0.379
        32 -12.5698    143.3454     74.8912   6.1105884877e+01   3.8735796623e+01    0.5447889    0.4414889 -89.72    0.0017142    1.504    0.335
        33 -10.6686    157.1938     76.6127   5.8546984226e+01   3.5160675540e+01    0.2160011    0.1350497  44.28 0.0005444708    1.667    0.400
        34 -13.0318      5.3659     84.5594   1.1007893782e+02   5.8288585949e+01    0.5795488    0.2997613 -53.50  0.002848021    1.478    0.323
        35 -12.0220    118.7629     73.5448   6.6877894139e+01   4.4595071462e+01    0.4286002     0.313382  12.57  0.001839812    1.756    0.430
        36 -12.8481    117.8609     65.8080   6.4634757285e+01   4.6178659205e+01     0.695531    0.4905647 -21.58  0.002689504    1.597    0.374
        37 -11.4521    132.9665     67.0921   6.1180232306e+01   4.2518788968e+01    0.2556736    0.2526356  35.64 0.0006471664    1.017    0.017
        38 -12.4692    128.3202     63.8259   6.1287774773e+01   4.4145893949e+01    0.5681923    0.4656881  27.25   0.00294972    1.297    0.229
        39 -11.8067    150.7587     73.4821   5.9021384314e+01   3.7233919493e+01    0.3199166    0.2344412 -45.67 0.0006338962    1.383    0.277
        40 -10.7732    170.3401     71.4646   5.4469579540e+01   3.2911679296e+01    0.3703012    0.2800673  80.53  0.001825963    1.495    0.331
        41 -11.1607    214.6060     61.1031   4.4850185620e+01   2.4299295786e+01    0.3932431    0.2402688 -38.64  0.001999021    1.529    0.346
        42 -10.8830    170.1376     62.9461   5.2136583046e+01   3.4337615794e+01    0.2645755    0.2184966  74.50 0.0003156456    1.223    0.182
        43 -10.2682    166.0108     62.9901   5.2905288332e+01   3.5321776054e+01    0.2512048    0.1994625  43.02   0.00038098    1.340    0.254
        44 -13.2952      3.9101     47.2990   1.0216042238e+02   6.6460870932e+01    0.6993651    0.5847362 -82.55  0.003560501    1.616    0.381
        45  -9.5424    189.6891     59.3110   4.7906537450e+01   3.0248601968e+01    0.1468027    0.1008781 -68.78 0.0003740397    1.626    0.385
        46 -12.4816    125.0743     56.9350   5.9863534890e+01   4.6015660071e+01    0.4048891    0.2696159  42.77  0.000656769    1.469    0.319
        47 -11.5415    174.4380     56.4476   4.9584341835e+01   3.4299770846e+01    0.2595868    0.2369422 -85.49 0.0002120244    1.053    0.051
        48 -11.8120    203.1885    171.9149   7.2433908002e+01   6.8401524468e+00    0.3604968     0.261694 -36.65  0.001882874    1.296    0.229
        49 -11.6893    132.3264     53.7662   5.7099073072e+01   4.4816906876e+01    0.3297075    0.2413907  58.49 0.0003022817    1.342    0.255
        50 -10.4071    155.2135     52.2045   5.1811516753e+01   3.9567771344e+01    0.2008815    0.1634466 -70.66 0.0005095099    1.348    0.258
        51 -10.9602    145.4236     50.4181   5.3200114251e+01   4.2191596139e+01    0.2973445    0.2537419 -51.05 0.0008751057    1.231    0.187
        52  -9.5980    213.0942     50.5121   4.2526992980e+01   2.6164726974e+01    0.1882471    0.1254537  69.91 0.0005847957    1.513    0.339
        53 -13.7260      9.0360     63.8585   1.0421127062e+02   6.2717917850e+01    0.7095675    0.4582032 -48.03   0.00306966    1.207    0.171
        54  -9.8254    194.3795     47.9541   4.4305796797e+01   3.0791747061e+01    0.1842916    0.1610408 -54.75 0.0003673723    1.097    0.088
        55 -10.4823    116.1328     45.5239   5.8264215522e+01   4.9780134768e+01    0.2187727    0.1933183 -23.72 0.0002583351    1.182    0.154
        56 -10.4283    204.3399     43.4646   4.1900730721e+01   2.9105286633e+01    0.2341554     0.201378  53.33  0.000859848    1.322    0.244
        57 -11.1167    157.0047     43.6383   4.8945090712e+01   4.0336082316e+01    0.3112175    0.2310517  62.29 0.0007761442    1.269    0.212
        58 -10.5557    140.7415     43.9037   5.2122898353e+01   4.4233279982e+01    0.2548537    0.1991775  66.42 0.0003563473    1.254    0.203
        59 -10.6746    122.3862     43.3905   5.5998209418e+01   4.8644829621e+01    0.2275485    0.2115747  25.20 0.0004886499    1.062    0.058
        60 -10.8341    196.8270     41.4927   4.2352228953e+01   3.1097327138e+01    0.3485024    0.1965092 -30.96  0.001689237    1.887    0.470
        61 -10.2217    181.9170     43.2085   4.4823072625e+01   3.4380853349e+01    0.2051354    0.1709667 -79.61 0.0002816746    1.163    0.140
        62 -11.9274    217.3312     39.0082   3.9356282089e+01   2.6781579575e+01    0.3961595    0.3085693  36.26   0.00150147    1.777    0.437
        63  -9.9020    226.1636     39.1525   3.8470201297e+01   2.4845185590e+01    0.1815391    0.1239465 -63.33 0.0005321369    1.330    0.248
        64  -9.6721    159.5707     36.4594   4.6397616438e+01   4.0647639329e+01    0.1357507    0.1261589  67.98 8.013658e-05    1.044    0.042
        65 -10.9330    140.9014     34.8560   4.9231717871e+01   4.5369887503e+01    0.3996583    0.1676189  55.78  0.001147632    2.104    0.525
        66  -9.7261    240.4983     34.4890   3.6116325717e+01   2.2449981851e+01    0.1234685    0.1003651 -64.98  0.000142541    1.008    0.008
        67 -10.3273    176.3340     33.3931   4.2982989029e+01   3.6977212610e+01    0.2341715    0.1847273  68.64 0.0004707826    1.183    0.155
        68  -9.8721    216.2042     28.5938   3.7089232791e+01   2.8340023065e+01    0.1712923    0.1063696  61.41 0.0009406353    1.657    0.396
        69 -11.6478    241.7896     22.7083   3.3578530617e+01   2.3632247116e+01    0.3380785    0.2056735 -66.31  0.001297783    1.453    0.312
        70 -12.4470    241.0267    155.6039   6.2163811715e+01   3.2378764614e+00    0.5185471    0.3498421  36.55  0.002853319    1.673    0.402
        71 -13.3020    247.4901    142.4103   5.8386372354e+01   4.3967346409e+00     1.326671    0.4886524 -38.97  0.005479352    2.275    0.561
        72 -11.4685    201.7699    153.5213   6.8772327968e+01   1.0585321107e+01    0.3430402    0.2214915 -70.67   0.00132016    3.058    0.673
        73 -10.5606     18.3365    153.6714   1.1563067714e+02   4.0593270822e+01    0.1374857   0.08383756  68.15  0.000705194    1.728    0.421
        74 -12.3440     47.2288    142.2319   1.0605876544e+02   4.0631652620e+01    0.5283794     0.335999  10.31  0.002517054    2.149    0.535
        75 -10.8662    214.7140    141.5478   6.3673018326e+01   1.0388349201e+01    0.2628618    0.1392308  41.07  0.001148746    2.089    0.521
        76 -11.2574    149.0566     21.5706   4.3681079717e+01   4.4921238971e+01    0.4785924    0.2647454  62.32  0.002312733    1.593    0.372
        77 -10.8400      3.6400    139.7636   1.1813775563e+02   4.5097553722e+01    0.3710601    0.1929215 -68.00  0.001973182    1.517    0.341
        78 -11.1164    141.1698     21.9249   4.5099839069e+01   4.6786112020e+01     0.384087    0.2172409  70.28  0.001852622    1.710    0.415
        79 -10.3910    235.4596     21.4956   3.3828657533e+01   2.5070566674e+01    0.2402243    0.1073087  73.17  0.001215987    2.185    0.542
        80 -10.5102    208.8737     18.6512   3.5521323989e+01   3.1128260499e+01    0.2184117    0.2090208 -61.52   0.00114064    1.234    0.190
        81 -10.0405    201.9891     17.3281   3.5876502092e+01   3.2827241135e+01    0.1775256    0.1428301  85.34 0.0005629681    1.111    0.100
        82 -11.9473    192.1758    136.9318   6.6918645227e+01   1.5712560215e+01    0.5741753    0.3341377  40.71  0.002505382    1.845    0.458
        83 -12.0073    201.5961    139.7729   6.5721858256e+01   1.3265197525e+01    0.2988193    0.2322734 -41.63  0.001541155    1.206    0.171
        84 -10.5329     33.8080    135.8275   1.0902543977e+02   4.3661675013e+01    0.1917128    0.1494653  76.30  0.001078979    1.353    0.261
        85 -11.6118    202.1624    128.7121   6.3057442455e+01   1.5275101256e+01      0.46718    0.2074832  54.89  0.001729872    2.815    0.645
        86 -12.5212    219.0726    122.7288   5.8660905894e+01   1.2999355681e+01    0.7745364     0.436216 -39.55  0.003577619    1.580    0.367
        87  -9.6077    242.6401     10.3160   3.1028743028e+01   2.4874755826e+01    0.1290336    0.0657704 -64.62 8.297878e-05    1.756    0.431
        88 -10.4657    195.0327    113.4767   6.0755121504e+01   1.9675964451e+01    0.2439261    0.1948867 -40.18 0.0007831112    1.166    0.143
        89 -11.3376    111.9918    109.9951   7.9517148377e+01   3.8447850067e+01    0.2466989    0.1976915  88.33  0.000980244    1.660    0.398
        90 -11.0670    198.9743    108.5188   5.8817075234e+01   1.9758554314e+01    0.2840462    0.2021329 -23.66 0.0008431803    1.575    0.365
        91 -11.2224    139.6502    103.2431   7.0178835358e+01   3.4071135821e+01    0.3531387    0.2329236  12.43 0.0009396402    2.519    0.603
        92 -12.2167    140.9580     96.6308   6.8006734152e+01   3.5141367275e+01    0.5395826     0.340441 -45.76  0.002329666    1.582    0.368
        93 -14.4245     97.0622     72.3074   7.2834668515e+01   4.9382084923e+01     1.777688     1.062299  35.45   0.00795141    1.729    0.421
        94 -10.5739    246.6415    183.4580   6.6839597249e+01  -2.2058116770e+00    0.2282604    0.1699488 -30.57 0.0005098421    1.182    0.154
        95 -10.1588    144.6650    181.3240   8.7136729176e+01   1.5688482354e+01    0.1503462    0.1173408  74.95 0.0007050969    1.712    0.416
