#   1 NUMBER                 Running object number                                     
#   2 MAG_AUTO               Kron-like elliptical aperture magnitude                    [mag]
#   3 X_IMAGE                Object position along x                                    [pixel]
#   4 Y_IMAGE                Object position along y                                    [pixel]
#   5 X_WORLD                Barycenter position along world x axis                     [deg]
#   6 Y_WORLD                Barycenter position along world y axis                     [deg]
#   7 A_WORLD                Profile RMS along major axis (world units)                 [deg]
#   8 B_WORLD                Profile RMS along minor axis (world units)                 [deg]
#   9 THETA_WORLD            Position angle (CCW/world-x)                               [deg]
#  10 FWHM_WORLD             FWHM assuming a gaussian core                              [deg]
#  11 ELONGATION             A_IMAGE/B_IMAGE                                           
#  12 ELLIPTICITY            1 - B_IMAGE/A_IMAGE                                       
         1 -13.2182     42.4044     45.6466   9.0168957295e+01   6.3214817849e+01     1.151664    0.6287485  42.63 0.0006170176    2.495    0.599
         2 -13.4756    118.0663     40.0061   6.1550014300e+01   5.0721506930e+01     1.150157    0.9016814  47.63  0.002099636    1.218    0.179
         3 -10.9354    155.6015     23.7509   4.8034983487e+01   4.3697535819e+01     1.101506    0.6539379  48.58  0.005317274    1.613    0.380
         4 -11.8228    137.3581     23.2334   5.1173675818e+01   4.8249324632e+01     1.180876    0.5769874  57.95  0.005234786    1.826    0.452
         5 -10.3719    147.6826     16.0400   4.6875202663e+01   4.6473338584e+01    0.5987618    0.3541682  33.38  0.002827324    1.964    0.491
         6 -12.6333    162.4075     28.7837   4.8480653775e+01   4.1425770508e+01    0.8445719    0.4168845  45.28 0.0009749315    2.118    0.528
         7 -10.2761     47.1376     18.9143   7.6819909153e+01   6.7033815367e+01    0.3419875    0.2804192 -18.81  0.001535004    1.193    0.161
         8 -11.6928      5.5808     35.0706   1.0369145900e+02   6.8352032929e+01    0.9737901    0.4468973 -43.67 0.0007937911    1.586    0.370
         9 -10.0492     31.9387     12.1729   8.0684855741e+01   6.9974486658e+01    0.2191844    0.1902931  36.72 0.0006223144    1.701    0.412
        10 -11.4266     14.1108     23.5102   9.5140073302e+01   6.9932698441e+01    0.4668653    0.3591009  31.45 0.0002965977    1.742    0.426
        11 -12.2366     36.6514     18.2630   8.1348580093e+01   6.8522281600e+01    0.7115189    0.4245265 -22.96  0.002787407    1.478    0.324
        12 -12.2136     49.0543     12.8462   7.3031130745e+01   6.7563380011e+01    0.5907685    0.3061176  41.14   0.00314696    2.000    0.500
        13 -11.7126     20.2115     22.1748   9.1383810904e+01   6.9655761976e+01    0.8087766    0.1870087 -44.92  0.003223835    3.327    0.699
        14 -11.7583     22.8874     11.4749   8.5019431556e+01   7.1089160716e+01    0.9723836    0.5560187   3.39  0.005663732    1.823    0.451
        15 -12.3928    104.7104     13.1741   5.4620515181e+01   5.6936810944e+01    0.5462611    0.4243245 -22.77  0.001867619    1.379    0.275
        16 -11.2609    105.9242     20.7549   5.7351652755e+01   5.5874681268e+01     0.419117    0.3252436 -22.57 0.0009221541    1.350    0.259
        17 -12.1962    113.5667     25.0669   5.7098273125e+01   5.3665859970e+01    0.8431626    0.3810948  52.14  0.002670426    1.974    0.493
        18 -11.1169    240.2442     32.3217   3.9708056310e+01   2.2483555681e+01    0.4396844    0.3609746 -40.50  0.002789626    1.201    0.167
        19 -10.9579    198.4074     29.1878   4.3449764350e+01   3.2486092412e+01    0.5304746    0.4085207 -28.08  0.002280541    1.401    0.286
        20 -10.9349    178.7249     21.1427   4.3773586363e+01   3.8236577516e+01    0.5981058    0.2816996  45.31  0.001955871    2.399    0.583
        21 -10.8866    214.1705     23.7371   4.0262202689e+01   2.9388760278e+01    0.5904071    0.4022218  11.84  0.002919705    2.431    0.589
        22 -10.6201     87.1962      7.5190   5.6889202251e+01   6.1243636624e+01    0.5874507    0.3317981  54.64  0.002699119    1.682    0.405
        23 -11.2898     90.8190     21.2568   6.1774390333e+01   5.9051875395e+01    0.5928627     0.376599 -19.73   0.00212107    1.608    0.378
        24 -11.4528     86.0407     14.2237   6.0185497864e+01   6.0813033132e+01    0.7391027    0.4312623  11.11  0.002669617    2.048    0.512
        25 -12.3664    132.1136     15.0702   4.9343602859e+01   5.0370921385e+01     1.553735    0.6032833  59.08   0.00639051    2.202    0.546
        26 -12.0215     68.0965     17.8740   6.7837485453e+01   6.3815497157e+01    0.5167024    0.4378132  25.83  0.002023897    1.158    0.137
        27 -12.1234    238.4689     16.0239   3.6222209532e+01   2.4809682247e+01    0.7470282    0.4061277  75.81   0.00299181    1.798    0.444
        28 -12.2578    245.9329      6.2820   3.3564630892e+01   2.4288706647e+01    0.8495008    0.5661693 -89.38  0.004722838    1.381    0.276
        29 -11.5462    232.6340      7.4148   3.4778103805e+01   2.7021262392e+01    0.7277301    0.3296178 -69.99  0.003339717    2.481    0.597
        30 -11.0433    218.7463      3.3674   3.4955635269e+01   3.0536932778e+01    0.3219655    0.2865443 -48.76  0.001021188    1.195    0.163
        31 -11.0468    223.4832      1.9766   3.4261720114e+01   2.9607017393e+01    0.5323946    0.2013799  79.25  0.002349824    2.593    0.614
        32 -10.6006    226.2298     15.5475   3.7147760975e+01   2.7561559675e+01    0.4198943    0.2232174 -50.49  0.001632781    1.702    0.413
        33  -9.4932    192.0362     16.3271   4.0784640393e+01   3.5493311364e+01    0.4268587    0.2466533  42.42  0.002048233    2.101    0.524
        34 -11.4194    192.6380      7.7689   3.8450383031e+01   3.6222383155e+01    0.6630458    0.4389925  16.38  0.003257089    2.300    0.565
        35  -9.8959    141.6724     12.0964   4.6583982345e+01   4.8332987373e+01    0.2287115    0.1828976  27.42 0.0006183824    1.330    0.248
        36 -11.2762    164.9955     18.0634   4.4795972559e+01   4.1973917289e+01    0.4589952    0.2670758  40.78   0.00154781    1.913    0.477
        37 -11.2678    211.8566      9.7958   3.7077656094e+01   3.1466117395e+01    0.4868256    0.3211255   7.18   0.00170982    2.522    0.604
        38  -9.4652      4.4578     12.4815   9.5819694866e+01   7.2497656190e+01    0.2161458    0.1269571  24.42  0.001392797    1.976    0.494
        39  -8.1877      5.3091      9.3413   9.3898846008e+01   7.2951311106e+01    0.2399944   0.09723604 -29.64  0.001072886    2.163    0.538
        40 -10.0037    168.8907      9.7488   4.1775341628e+01   4.1837084163e+01    0.3550366     0.163339  48.40  0.001559791    2.198    0.545
        41  -9.2644    163.3807      9.7730   4.2518817264e+01   4.3196903925e+01    0.2401062    0.1794634 -49.61  0.001043904    1.422    0.297
        42  -9.1090    162.7161      6.3141   4.1566273165e+01   4.3678465031e+01    0.2221005    0.1497141  38.85  0.000523816    1.626    0.385
        43  -9.9612     65.9769     10.4518   6.5113360870e+01   6.5054536750e+01    0.3087508    0.1455216  43.62 0.0008940091    1.936    0.483
        44 -10.4471     63.5638      6.8459   6.4239962594e+01   6.5869088150e+01    0.3222888    0.2413431  27.86  0.001390178    1.143    0.125
        45  -9.2013     78.2285      7.4217   5.9531065130e+01   6.3063814380e+01    0.2544526    0.1880024  58.32  0.001223213    1.554    0.357
        46 -11.2330     75.5738      3.2887   5.8434961126e+01   6.3970276126e+01    0.7677151    0.2704414  43.96    0.0033738    2.355    0.575
        47  -9.4083      1.2181      7.3964   9.5444218128e+01   7.3539245461e+01    0.1822156   0.07097298 -47.47 0.0005892704    2.101    0.524
        48 -10.1945    183.6093      4.8658   3.8638419659e+01   3.8684282438e+01    0.3893339    0.2402464 -27.19  0.002084127    1.774    0.436
        49 -10.1578    152.7399      7.0912   4.3197108702e+01   4.6069907472e+01    0.5092353    0.1724369  66.36  0.001979779    2.552    0.608
        50 -10.9193    176.6190      5.6546   3.9644548106e+01   4.0317689385e+01    0.4490713    0.2342135  83.16  0.001164614    1.966    0.491
        51  -9.0782    170.0486      3.5324   3.9818553781e+01   4.2120185434e+01    0.2466008    0.1338261 -61.52  0.001144858    2.178    0.541
        52 -10.6289    114.5017      3.5955   4.8620678935e+01   5.5564091359e+01    0.4699661     0.280166  49.32  0.001150851    1.422    0.297
        53 -11.0682    106.6331      1.9646   4.9654761492e+01   5.7495337430e+01    0.6265818    0.3164039  64.87  0.001949257    1.930    0.482
        54 -12.6234     17.1990     12.4704   8.8591490489e+01   7.1493958919e+01    0.9437538    0.5209879 -24.52  0.004609076    1.535    0.348
        55 -10.5354    142.4843      2.7740   4.3339769699e+01   4.8952016059e+01    0.4277006    0.2463113  53.86  0.001022745    1.507    0.337
        56 -12.1135    134.1452      2.5276   4.4591565449e+01   5.0995636766e+01    0.4485123    0.2641177  66.53  0.001148968    1.517    0.341
        57 -11.1591     41.1335      4.9032   7.2485095495e+01   6.9697573698e+01     0.452837    0.2374055  -8.31  0.002328787    2.162    0.537
        58 -10.2177    207.8208      2.7985   3.5740973780e+01   3.3106453696e+01    0.2448859    0.1972273  82.54  0.000756142    1.121    0.108
        59 -10.3040    204.4659      1.5079   3.5720798676e+01   3.4013525863e+01    0.3174118    0.1625582  64.02  0.001119246    1.798    0.444
        60  -9.7722    158.2431      2.3767   4.0965096307e+01   4.5121595425e+01    0.3706542    0.1704494  48.40  0.001677325    2.104    0.525
        61 -11.2480      3.1289      1.8986   9.1585359927e+01   7.4263699264e+01    0.3901834    0.1689266  10.89  0.002147185    2.525    0.604
        62 -10.0887     12.6555      1.8202   8.5763681646e+01   7.3482823863e+01    0.3023895    0.1420817  20.56  0.001746168    2.129    0.530
        63  -9.2027    151.6151      1.2545   4.1514394846e+01   4.6841692670e+01    0.2508753   0.09861214  67.72  0.001054999    2.190    0.543
        64  -9.1412    123.1404      1.1234   4.6014576405e+01   5.3736445269e+01      0.33456   0.08509436  67.80  0.001054231    4.091    0.756
        65  -9.6391     82.1740      1.2492   5.5503261206e+01   6.2828705699e+01    0.1642468   0.09985394  57.90 0.0003428626    1.657    0.396
        66 -11.5926      3.2237    140.3311   1.2258768801e+02   4.4674680856e+01    0.6073391    0.3410546 -88.76  0.003457277    1.519    0.342
        67 -11.0759     63.0540    150.4277   1.0812677253e+02   3.6566554090e+01    0.4327886    0.3906842 -18.30  0.002095283    1.365    0.267
        68 -11.1380     46.0024    147.8929   1.1230885738e+02   3.9196776446e+01    0.7385306    0.3894897 -60.28  0.003622955    1.650    0.394
        69  -9.5440    214.7777    150.9290   7.1578917999e+01   8.6932917696e+00    0.2551054    0.2004886  80.48  0.001102369    2.045    0.511
        70  -9.9330     70.6162    151.2785   1.0623877656e+02   3.5364490986e+01    0.2560308    0.1599871  47.25   0.00081914    1.663    0.399
        71  -9.4748    234.3521    150.3704   6.7885764524e+01   5.1419207258e+00    0.2218542    0.1559447  -1.50  0.001113464    1.644    0.392
        72  -9.7229    239.7847    146.5854   6.6122340358e+01   4.8017449149e+00    0.2490716     0.174026 -31.03 0.0005976458    1.257    0.204
        73 -10.7599    249.6129    142.4814   6.3608463721e+01   3.7431803066e+00    0.7023948    0.2250697 -34.11  0.002571414    2.817    0.645
        74 -10.6909     33.3948    144.3978   1.1520166937e+02   4.1327210654e+01     0.410768    0.2670192  52.27  0.002081712    1.634    0.388
        75 -10.0248    133.2112    140.8790   8.7498016614e+01   2.7310991404e+01    0.3610568    0.2495712 -49.46  0.001189108    1.434    0.303
        76 -11.8464     22.9874    135.2751   1.1687788245e+02   4.4457108645e+01    0.9806612    0.4003938  43.19  0.004519512    2.654    0.623
        77 -11.8953     29.9920    132.8404   1.1463755671e+02   4.4457310676e+01    0.4874139    0.3316433  85.18 0.0003862679    1.483    0.326
        78 -10.3881     47.3713    135.9773   1.1020792109e+02   4.1979055240e+01    0.5362568    0.1637037 -60.54  0.001465052    2.608    0.617
        79  -9.2155     79.3277    138.3129   1.0157365141e+02   3.7326485415e+01    0.3029856    0.1741196 -62.80    0.0012642    1.662    0.398
        80  -9.2202     81.6743    135.6423   1.0039499621e+02   3.7636864687e+01     0.274019    0.1968363  23.90  0.001344147    1.638    0.390
        81 -10.5363     67.4219    135.7965   1.0448424076e+02   3.9609593909e+01    0.3516167    0.2336079 -44.58 0.0006353583    1.550    0.355
        82 -10.0757     40.0463    138.0021   1.1255164225e+02   4.2244619554e+01    0.2744943    0.1808882  36.49 0.0004697316    1.682    0.405
        83  -9.4901    216.2505    136.6356   6.8043662226e+01   1.0992066410e+01    0.3314851    0.1937774 -27.14  0.001452815    1.763    0.433
        84  -9.1725    192.1972    136.4042   7.2704264581e+01   1.5972094235e+01    0.2024724    0.1471374  56.42 0.0006001723    1.602    0.376
        85 -10.6915     93.2888    131.2244   9.6178021860e+01   3.6896937231e+01    0.7241744    0.2870437 -59.62  0.002505162    2.684    0.627
        86  -9.9208     62.0238    131.8564   1.0532980988e+02   4.1283499057e+01    0.4476648    0.2890203 -37.71  0.002164924    1.782    0.439
        87  -9.4461     38.9577    132.9279   1.1212785435e+02   4.3600657068e+01    0.2590315     0.192931  23.92  0.001096341    1.617    0.382
        88  -9.3718    103.8806    130.8649   9.3102342097e+01   3.5180824043e+01    0.2173624    0.2016267 -14.45 0.0003659376    1.171    0.146
        89 -11.1037     10.6859    127.1158   1.1929867198e+02   4.7330824613e+01    0.5072462    0.2050932 -60.36 0.0008216294    1.925    0.481
        90 -10.3864     82.3743    125.1698   9.8045887029e+01   4.0105436571e+01    0.4613383    0.3112297 -14.19  0.001042932    2.276    0.561
        91 -10.7143     22.7427    127.1106   1.1592287602e+02   4.6459210223e+01    0.2015601    0.1796169 -78.86 0.0003069147    1.099    0.090
        92 -11.2540     18.8262    122.5858   1.1645505929e+02   4.7855050271e+01    0.3135184    0.1632835 -68.27 0.0004191766    1.522    0.343
        93  -9.3939    107.8436    146.0840   9.5279165236e+01   3.0830880981e+01    0.2288125     0.198385  81.71 0.0005180118    1.255    0.203
        94  -9.1977    224.0462    126.6856   6.4317719086e+01   1.1217134718e+01    0.2489792       0.1772 -44.14  0.000548729    1.360    0.265
        95  -9.8538      2.5362    126.0823   1.2141852189e+02   4.8082537411e+01    0.3272424    0.1863505  74.35  0.001731846    1.845    0.458
        96  -9.9356      4.5939    121.3780   1.2035830845e+02   4.9079915792e+01     0.288137    0.1789957 -85.43  0.001572671    1.387    0.279
        97 -10.6979     55.0343    123.5915   1.0589676226e+02   4.4180480214e+01    0.5490918    0.4162047   8.78  0.002968938    1.676    0.403
        98 -11.2838     45.5279    120.0613   1.0813776595e+02   4.6107132931e+01    0.6597435    0.3716546  82.40  0.002762655    2.692    0.629
        99  -9.7437     49.5198    122.9814   1.0744404355e+02   4.4957735968e+01     0.328142    0.2408461  -3.28  0.001306131    1.832    0.454
       100 -11.9897    104.2310    122.3073   9.1022662052e+01   3.7168416776e+01     0.449174    0.4002746 -35.15 0.0007964508    1.127    0.112
       101 -10.2752     74.0282    132.6751   1.0200810896e+02   3.9479460719e+01    0.2943483    0.2140265 -25.26  0.001435265    1.765    0.433
       102  -9.2055     71.4432    120.7363   1.0037719877e+02   4.2786228021e+01    0.2039143    0.1215787 -48.50 0.0005384368    1.556    0.357
       103 -11.0517     33.0560    119.5725   1.1182968262e+02   4.7435680703e+01    0.3476949    0.2712228 -74.43  0.001230904    1.119    0.107
       104  -9.1332    221.2318    120.4113   6.3326516711e+01   1.2901234413e+01    0.1878585    0.1438781  64.48 0.0006372898    1.619    0.382
       105  -8.9217    148.4934    120.0062   7.8540881329e+01   2.8818605363e+01    0.2282073    0.1368962 -21.16 0.0008101822    2.510    0.602
       106  -9.4364    185.3376    119.3088   6.9929288004e+01   2.0814949948e+01    0.1593863    0.1207614   6.21 0.0007043317    1.682    0.405
       107  -9.0683     13.5491    118.9368   1.1751582736e+02   4.9105361655e+01    0.1804927   0.09978565 -70.23 0.0002942336    1.426    0.299
       108  -9.3712    210.3129    117.9794   6.4693743997e+01   1.5624497825e+01    0.2509653    0.1002404 -53.04 0.0007045166    4.247    0.765
       109  -9.6441    113.6686    115.8847   8.6744155607e+01   3.6927168424e+01    0.2584721    0.2197479  17.68 0.0006011536    1.305    0.234
       110  -9.8666     94.9503    112.0300   9.1241777458e+01   4.1244796917e+01    0.3677405    0.2709005  25.28  0.001762929    1.534    0.348
       111 -10.5576    107.4126    111.8214   8.7497473700e+01   3.9057699119e+01    0.4421226    0.3378279 -67.02  0.001704285    1.491    0.329
       112 -11.0155    102.3199    109.7629   8.8461738327e+01   4.0476032482e+01    0.6091443    0.5358795 -14.61  0.002511034    1.225    0.184
       113  -9.4841     67.2495    114.1285   1.0026177662e+02   4.4978550798e+01    0.3864109    0.2572804  87.21  0.001723349    2.157    0.536
       114  -9.5340     67.4642    110.5197   9.9400882661e+01   4.5829198586e+01    0.3614223    0.1732738  32.39  0.001520129    2.296    0.564
       115 -11.1411     51.0912     96.6683   1.0164716915e+02   5.1192535060e+01     1.473133    0.4293107 -60.56  0.004948429    3.236    0.691
       116  -8.8749     26.2106     86.7127   1.0817900391e+02   5.5902860262e+01    0.7569497    0.6813166  89.58  0.005007562    1.270    0.212
       117 -11.5256      9.6020     97.0052   1.1570664522e+02   5.4584651519e+01    0.5999022    0.4888085  88.04  0.001209333    1.278    0.218
       118 -12.1568      7.1851     88.7519   1.1522977538e+02   5.6651233345e+01    0.5199101     0.442695  45.02  0.002138404    1.465    0.318
       119 -11.5024     42.0809     93.8873   1.0411878706e+02   5.2810906414e+01    0.3794104    0.2738685 -84.27 0.0003104288    1.650    0.394
       120 -11.5939     35.8742     93.5220   1.0619081018e+02   5.3488820650e+01    0.6342627    0.5207587 -61.75  0.003886932    1.084    0.077
       121 -11.6357     17.1170    101.0020   1.1387668782e+02   5.3172957084e+01    0.2895611     0.223501 -53.97 0.0003996671    1.123    0.109
       122 -12.7219     25.2481    106.9644   1.1222560828e+02   5.1155593480e+01     1.378482    0.9590137  -3.80  0.006665446    1.878    0.467
       123 -11.7600     22.6383     94.8647   1.1099973419e+02   5.4250062395e+01    0.5261789    0.3095593  10.34  0.002504704    2.171    0.539
       124 -12.0781     18.2405     89.9406   1.1161655475e+02   5.5718012502e+01    0.5911513    0.2452806 -57.59  0.002015233    1.793    0.442
       125 -11.3213     22.5576    114.0671   1.1416865598e+02   4.9642178923e+01    0.4090669    0.2627343  -2.59  0.001752062    2.162    0.538
       126 -11.1738     28.3090    113.1330   1.1226092145e+02   4.9415186044e+01    0.3951983    0.2622875   7.12  0.001644409    1.985    0.496
       127 -11.7338     44.1622     85.2564   1.0138070291e+02   5.4621618577e+01    0.5609838    0.4673306  -3.56  0.002290167    1.331    0.249
       128 -10.7443     37.6433     86.1098   1.0393739200e+02   5.5067589582e+01    0.2843758    0.2559941  42.19 0.0007163938    1.337    0.252
       129 -11.9029      2.2441    111.6989   1.1994347415e+02   5.1507806879e+01    0.5124071    0.3160565  62.31  0.002431268    1.869    0.465
       130 -11.4072      3.6971    105.3280   1.1873271483e+02   5.2938997128e+01    0.4807143    0.3758296  83.11  0.002541695    1.302    0.232
       131  -9.4823    126.9978    113.6288   8.2458369800e+01   3.4788791888e+01    0.2222708    0.2001937  35.97 0.0006673508    1.141    0.124
       132  -9.8041     48.7484    112.2741   1.0570503715e+02   4.7677587745e+01    0.2300344    0.1999386  74.09  0.001202819    1.281    0.219
       133 -11.0414    170.3581    110.4849   7.0877104552e+01   2.5942832948e+01    0.4538637    0.3704014 -29.55  0.001360852    1.225    0.184
       134 -11.4699     79.0849    108.2296   9.5194090414e+01   4.4718537811e+01    0.7428735    0.3806997  33.37  0.002154853    2.134    0.531
       135 -10.4853     90.0456    104.4782   9.0820097763e+01   4.3858391780e+01    0.4233609    0.3346051  -1.11   0.00127834    1.539    0.350
       136 -10.4144     85.9838    103.9651   9.1957878593e+01   4.4649075342e+01    0.4877232    0.3256161 -20.13  0.001530767    2.013    0.503
       137 -10.2166    120.3675    109.4602   8.3176267380e+01   3.7080352234e+01    0.3251185     0.233229 -37.40  0.001481221    1.392    0.282
       138  -9.4144     58.4706    108.4582   1.0182110268e+02   4.7486777986e+01    0.2798659    0.1267288 -60.37 0.0006433346    1.996    0.499
       139 -10.1805    157.1532    106.6944   7.2895441775e+01   2.9719851197e+01    0.4082282    0.3099167   1.13  0.001359454    1.727    0.421
       140 -10.5307    143.4918    106.1072   7.6088077609e+01   3.2908802130e+01    0.3839733    0.3084924 -83.98  0.001549984    1.645    0.392
       141 -11.7628    145.5091    100.6200   7.4050397267e+01   3.3612505463e+01    0.6007689    0.4691766 -20.49  0.002441425    1.425    0.298
       142  -9.1130     82.3650    102.7340   9.2787047683e+01   4.5517651567e+01    0.2077939    0.1256945 -44.42 0.0004713858    1.543    0.352
       143  -9.5811     57.1991    102.4694   1.0091563327e+02   4.9090056546e+01    0.2737078      0.17983 -56.67 0.0009011956    1.335    0.251
       144  -9.1728    208.7866    100.9819   6.0738621019e+01   1.9032341012e+01    0.3662781    0.1838385 -32.19 0.0006097895    1.983    0.496
       145  -9.6535    210.3183     97.6799   5.9636033896e+01   1.9276074458e+01    0.2505655    0.1750426 -48.11 0.0009347308    1.403    0.287
       146  -9.6315    120.9557    101.0324   8.0694897378e+01   3.8838565854e+01    0.2537602    0.1927103  -6.79  0.001132276    1.684    0.406
       147 -11.6056     67.0964     95.2562   9.5874109371e+01   4.9526868060e+01    0.4533495     0.425386  12.72  0.001750629    1.162    0.140
       148 -11.1073     90.1159     89.2662   8.6613080577e+01   4.7321575178e+01    0.8498757     0.452839 -27.92  0.003165064    2.604    0.616
       149  -9.9331     80.5054     98.5076   9.2286650673e+01   4.6799611474e+01    0.2704098    0.2357828 -16.61 0.0007498914    1.202    0.168
       150  -9.6331     77.2238     96.8344   9.2915926689e+01   4.7694716121e+01    0.2770003    0.2307333  -4.63 0.0007673749    1.346    0.257
       151 -10.1812     82.7865     93.3935   9.0164717386e+01   4.7617672291e+01    0.3508323    0.2511887  24.14   0.00106386    1.565    0.361
       152 -10.9726     76.8001     92.9829   9.2025817327e+01   4.8650014615e+01    0.5353721    0.3938081  11.16  0.001557818    1.632    0.387
       153 -10.2435     58.2301     97.7877   9.9487571824e+01   5.0083542475e+01    0.4098081    0.2099702  22.30  0.001776643    2.411    0.585
       154 -11.8914     18.7622    106.0801   1.1414309290e+02   5.1845236157e+01    0.2510027    0.2178258 -59.47 0.0002132247    1.097    0.089
       155 -10.0922    117.1496     93.5090   7.9614656868e+01   4.1255732799e+01    0.3700853     0.286418  -8.82  0.001520058    1.565    0.361
       156 -10.9458    124.5886     93.5989   7.7542841812e+01   3.9680429208e+01     0.694975    0.4800791  47.53   0.00188711    1.509    0.337
       157 -11.0161    120.4841     85.0019   7.6112767907e+01   4.2341814098e+01    0.4390504    0.3695439  66.53  0.002181044    1.412    0.292
       158  -9.3381    160.3221     93.5750   6.8500491951e+01   3.1625083271e+01    0.3622798    0.1592161  56.93  0.001216299    2.715    0.632
       159 -10.7394    152.5113     91.6555   6.9774539181e+01   3.3824698389e+01    0.5521672      0.45782  85.04  0.002280893    1.497    0.332
       160 -10.8412    100.8606     91.0661   8.3748920971e+01   4.4987982572e+01    0.6025833    0.4103739  48.61  0.002667128    1.634    0.388
       161 -10.3333    104.4086     86.8010   8.1389786481e+01   4.5235489041e+01    0.4562443    0.3027787 -26.70  0.002015808    1.695    0.410
       162 -10.9315    113.6833     83.4790   7.7598650383e+01   4.4077963215e+01    0.4099138    0.3718775 -48.60  0.001438182    1.145    0.126
       163 -10.4660    183.6683     86.0488   6.1446375750e+01   2.7503282343e+01    0.6963662    0.2821674 -43.41  0.002460028    2.423    0.587
       164  -9.9550     66.7672     88.5933   9.4236352300e+01   5.1115859830e+01    0.3596932    0.2276268 -23.46  0.001147812    1.954    0.488
       165 -10.3778     67.3249     81.9948   9.2203013238e+01   5.2528570657e+01    0.4211835    0.3521452  -5.26   0.00236214    1.266    0.210
       166 -10.6302     80.5080     83.9875   8.8233392245e+01   5.0093969880e+01    0.5286329    0.3412876 -42.96  0.002526768    1.422    0.297
       167 -10.4949     77.4825     81.0341   8.8383575168e+01   5.1222763455e+01    0.5451763     0.221831 -46.98  0.002096082    2.236    0.553
       168 -11.7192     72.5026     79.3015   8.9591443146e+01   5.2367259176e+01    0.7307841    0.4521072 -24.76 0.0006453448    1.922    0.480
       169 -10.6466    109.0058     80.6876   7.8113255458e+01   4.5603995558e+01    0.4389545    0.3101988 -22.88  0.001638436    1.576    0.365
       170 -10.4327    165.5711     83.6817   6.4492671492e+01   3.2258318674e+01    0.4162445    0.3555817 -66.63  0.001401698    1.304    0.233
       171 -11.3585    142.9265     84.0133   6.9851166831e+01   3.7541062760e+01    0.4069304    0.3706551  35.92 0.0008293447    1.107    0.096
       172 -10.3556    127.4469     82.8916   7.3534433094e+01   4.1259939847e+01    0.3655017    0.2875427 -44.70  0.001006192    1.278    0.217
       173 -10.5065    127.3791     77.3468   7.1821711706e+01   4.2359635589e+01    0.4617836    0.2751093 -50.57  0.001054549    1.885    0.470
       174 -11.8467    122.8105     68.8043   7.0308721189e+01   4.4978398018e+01    0.6341289    0.5344261  31.65  0.001886379    1.188    0.158
       175 -12.5461     52.3670     73.7443   9.5280106677e+01   5.6303528430e+01    0.6339211    0.3573987 -63.27 0.0006109351    2.068    0.516
       176 -11.2411     47.0787     74.5432   9.7505967967e+01   5.6736632914e+01    0.3712533    0.2216582 -57.05            0    1.563    0.360
       177  -8.8117     11.6147     82.7229   1.1264123886e+02   5.7806962837e+01    0.1319672    0.0720143 -39.10 0.0007000846    1.722    0.419
       178  -9.4109    102.7708     80.2369   7.9869617669e+01   4.6931378614e+01    0.3545617    0.1961926 -34.94  0.001007272    1.850    0.459
       179 -10.3710    104.0151     75.2602   7.7897869695e+01   4.7698554128e+01    0.4214267    0.3140857 -51.51  0.001219416    1.453    0.312
       180  -9.2026    200.8682     89.0558   5.9064121838e+01   2.2934008980e+01    0.3323312    0.2064722 -84.63  0.001222336    2.987    0.665
       181 -10.4251    232.7041     76.8452   5.1020256122e+01   1.7820576341e+01    0.5218755    0.2749683 -48.11  0.002360368    1.803    0.445
       182 -11.8413     13.9922     74.5436   1.1016929007e+02   5.9537886345e+01    0.4929945    0.3144014 -64.48  0.001696671    1.317    0.241
       183 -10.4921     14.9427     67.2911   1.0821762167e+02   6.1103590370e+01    0.3226998    0.2377523 -15.97  0.001697896    1.458    0.314
       184  -9.9050     94.4848     76.2095   8.1208726346e+01   4.9331322344e+01    0.5438465    0.3350612  33.41   0.00246037    1.725    0.420
       185 -11.6943     85.6906     73.5514   8.3254733543e+01   5.1452135980e+01    0.7389376      0.52386  39.12  0.002937211    1.498    0.332
       186 -11.4675     79.8235     67.8873   8.3408728018e+01   5.3601216563e+01    0.9579143    0.6382262 -26.55  0.004657252    1.547    0.354
       187 -11.5828     91.1438     62.7842   7.7813162554e+01   5.2595373391e+01     1.068308    0.4426065  44.98  0.004081414    2.571    0.611
       188 -10.8173     87.5905     57.2099   7.7024599590e+01   5.4283502756e+01     1.178345    0.5579808 -52.79  0.004326825    3.081    0.675
       189 -10.5780     91.9593     57.5240   7.5682894913e+01   5.3410347461e+01     0.430414    0.3160467  49.92  0.002189904    1.545    0.353
       190 -11.7114     75.9250     57.4052   8.1167900645e+01   5.6287495769e+01    0.9438329    0.3053378 -46.12   0.00326926    3.166    0.684
       191 -11.4773     72.8633     48.1129   7.8845812689e+01   5.8479892871e+01    0.8923761    0.8402792  48.47  0.005488351    1.363    0.266
       192 -10.4509     22.7476     37.1343   9.6017509904e+01   6.6770841071e+01    0.5115477    0.3348066  50.33  0.002214173    2.717    0.632
       193 -10.4088     12.9569     47.5620   1.0398089526e+02   6.5433101759e+01    0.4477825    0.1469156 -37.82  0.001947441    2.684    0.627
       194  -9.9550     18.0962     41.4662   9.9720402526e+01   6.6305311300e+01    0.3454285    0.2266711 -12.47  0.002123571    1.526    0.345
       195 -10.0362    142.9497    249.3301   1.0370883391e+02   3.9574742037e+00    0.1804889    0.1352511  36.62  0.001162701    1.095    0.087
       196 -12.3377     22.0001     47.1703   9.9761477620e+01   6.4879386944e+01    0.4826805    0.3910115 -31.63  0.001443608    1.051    0.048
       197 -11.7751     27.3778     56.2469   1.0017666592e+02   6.2587220959e+01     1.104401     0.661747 -20.73  0.006017314    1.774    0.436
       198 -11.0970     33.8815     58.1418   9.7995209320e+01   6.1614657610e+01    0.4139105    0.2118042 -25.41  0.001932933    2.263    0.558
       199 -11.0415     20.5261     55.5092   1.0290200250e+02   6.3276078480e+01    0.3266601    0.2762552  74.77 0.0009830865    1.700    0.412
       200 -11.8522      1.9118     71.0421   1.1407929656e+02   6.0949516046e+01    0.5800577    0.1671031 -66.19   0.00247433    2.578    0.612
       201 -12.5065      6.2256     62.8342   1.1072998105e+02   6.2566832698e+01    0.8138595    0.4088846 -31.57  0.004428645    1.947    0.486
       202 -12.2631     48.5961     60.3270   9.2641668414e+01   5.9601082512e+01    0.7627122    0.6364362  47.74    0.0026189    1.577    0.366
       203 -11.1317     41.1013     57.1587   9.4676522219e+01   6.1093559554e+01    0.3817211    0.2988288  43.32  0.001544408    1.669    0.401
       204 -11.7987     40.5101     70.6591   9.8952093151e+01   5.8288656011e+01    0.5722976    0.2897161 -49.48  0.001635007    1.621    0.383
       205 -11.5419     32.2908     72.0443   1.0252654769e+02   5.8756866439e+01     0.597837    0.2745004  25.29  0.002400025    2.477    0.596
       206 -10.4534     64.3231     75.0504   9.1234913689e+01   5.4473675444e+01    0.4232442    0.3242067   7.41 0.0009200021    1.446    0.308
       207  -9.9506    120.5317     89.5149   7.7467337733e+01   4.1398559027e+01     0.313207    0.3025436  -9.95 0.0008783975    1.015    0.014
       208  -9.4429     24.3605     73.1316   1.0587540191e+02   5.9157810235e+01    0.4658145     0.171104 -66.34  0.001865242    2.800    0.643
       209 -10.7811     21.8904     65.7452   1.0505451291e+02   6.0979372509e+01    0.3906171    0.2546282  22.49  0.001482676    1.802    0.445
       210  -9.0393    151.0249     73.7836   6.4795026756e+01   3.7540395512e+01    0.2194198    0.1822508  24.89 0.0005149728    1.315    0.239
       211  -9.8036    162.2612     70.9210   6.1443139405e+01   3.5329662370e+01    0.2867766    0.2554801 -85.01 0.0009183509    1.242    0.195
       212 -12.2142    186.1734     70.0450   5.6529509337e+01   2.9650622763e+01      1.13236    0.6272427 -38.85  0.004154804    1.733    0.423
       213 -10.5528    171.3864     66.9189   5.8398293148e+01   3.3772940097e+01    0.7001725    0.3907454 -38.25  0.002970888    1.755    0.430
       214 -11.3484     58.0682     77.6992   9.4299543835e+01   5.4727335293e+01    0.5373268    0.2992013 -64.97 0.0003395407    2.273    0.560
       215 -11.4202    220.0485     66.3883   5.0197929407e+01   2.2241729512e+01    0.6333725    0.3784043  56.91  0.002559787    1.765    0.433
       216  -9.6340    192.4297     65.6307   5.4221482749e+01   2.8847996139e+01     0.281774    0.2262438 -62.91  0.000733417    1.304    0.233
       217 -10.4861     59.5033     63.9783   8.9554920653e+01   5.7468481782e+01    0.4487393    0.2494573 -33.09  0.001298678    1.771    0.435
       218 -10.1609     57.3147     61.2872   8.9511100082e+01   5.8310347753e+01    0.2522147    0.2032823 -11.97 0.0005631808    1.197    0.165
       219 -10.2444    200.4546     63.8394   5.2434324726e+01   2.7201513336e+01     0.578437    0.3180447  81.81  0.002223017    2.738    0.635
       220  -9.9831    106.1342     64.1137   7.3530537560e+01   4.9407542411e+01    0.2747607    0.2669904 -72.82  0.001554053    1.210    0.173
       221 -10.9675    106.1858     58.5373   7.1574291451e+01   5.0395636235e+01    0.4485212    0.3765816  55.90  0.001383104    1.350    0.259
       222 -11.3732    234.4794     61.0472   4.7007840462e+01   1.9831227256e+01    0.4324605    0.3980498  82.45  0.001675306    1.154    0.134
       223 -10.2408    159.0013     62.3087   5.9514983104e+01   3.7565111733e+01     0.522095    0.2343731  44.67  0.001931632    2.353    0.575
       224 -11.9855    120.4137     57.5799   6.7177821878e+01   4.7481594401e+01     1.598837      1.10838  83.15  0.006703675    2.460    0.593
       225 -10.9093    116.0416     48.5312   6.5180152288e+01   4.9918756264e+01     0.459527    0.2306366  50.29  0.001141192    1.942    0.485
       226  -8.6065    242.6721    247.6466   8.4926961286e+01  -1.0259013982e+01    0.1233026   0.07014535   4.10 0.0007046817    1.771    0.435
       227  -9.6601    148.7350     60.8413   6.1275366293e+01   4.0306799910e+01    0.4603105      0.19702  60.37  0.001612501    2.656    0.623
       228 -11.4727    156.7024     52.9288   5.7076580457e+01   3.9599798209e+01     1.070975    0.4806172 -41.49   0.00414198    2.278    0.561
       229 -10.4680    162.1904     44.8987   5.3507865764e+01   3.9404878233e+01    0.5097744    0.4096858  -0.81   0.00263924    1.479    0.324
       230 -10.8708    137.9541     33.5876   5.4614808358e+01   4.6881145623e+01    0.5005862    0.3624299 -64.90  0.001770368    1.782    0.439
       231  -9.7599    174.9125    246.8539   9.7224383104e+01  -5.2635533492e-01    0.2380677    0.1454303  38.40  0.001386069    1.374    0.272
       232 -10.4830    144.6405     25.6210   5.0587329521e+01   4.6199781504e+01    0.5970643    0.3072962  77.20  0.002387136    2.539    0.606
       233  -9.1395    199.0662    244.5159   9.2301248156e+01  -3.8157037521e+00    0.1928826   0.09967567  36.39   0.00104076    1.635    0.388
       234 -10.5706    127.7356    242.2869   1.0581445286e+02   7.4117561954e+00    0.3334189     0.196615 -50.01  0.001881853    2.033    0.508
       235 -11.0473    155.8177     42.0585   5.3819796122e+01   4.1379392429e+01    0.3967393    0.3581306  58.73  0.001031763    1.061    0.058
       236 -11.7546    153.0921     35.9834   5.2395956998e+01   4.2858388521e+01    0.3491304    0.2881613  66.91 0.0003789944    1.180    0.152
       237  -9.7669     68.0332    240.4872   1.1718554970e+02   1.6184109432e+01    0.1761423   0.09826533  40.03   0.00102976    1.585    0.369
       238 -10.6189    136.5308     56.5601   6.2713433707e+01   4.3927421950e+01    0.6066279    0.4050767   4.61  0.001879297    2.159    0.537
       239 -11.5640    145.7700     46.7428   5.7368786507e+01   4.3197819879e+01     1.121428    0.4425368 -25.10  0.003850617    3.120    0.679
       240 -10.0756    134.3475     50.3617   6.1155684043e+01   4.5415249165e+01    0.3937574    0.2750115 -70.35  0.001735911    2.125    0.529
       241  -8.6595    219.6796     57.2904   4.7969676512e+01   2.3686479248e+01    0.1440783   0.09771674 -65.98 0.0003586867    1.604    0.376
       242  -9.7845    187.5804     55.4270   5.2189358902e+01   3.1595990509e+01    0.2785966    0.2377181  56.50  0.001511849    1.184    0.156
       243 -10.2499     68.3442     32.9688   7.4438760991e+01   6.1703411036e+01    0.5208258    0.3097757  38.08  0.002705435    1.672    0.402
       244  -9.5461     65.0935     28.4897   7.3754723188e+01   6.2907923092e+01    0.2450603    0.1660843  29.47 0.0007269838    1.404    0.288
       245 -10.3574     66.9952     54.9025   8.3569299031e+01   5.8179547619e+01    0.3791911    0.2684387 -53.20  0.001980288    1.651    0.394
       246 -11.2791     60.7483     36.2920   7.8798153555e+01   6.2401375672e+01    0.5868044    0.3339444 -19.99  0.001070134    1.914    0.478
       247 -11.5312     57.9904     30.2948   7.7368761465e+01   6.3767607387e+01    0.4627757    0.2992797  -0.07  0.001796328    1.697    0.411
       248 -11.6623     48.8159     30.2273   8.1212209573e+01   6.5103258237e+01    0.5786302    0.2747931  28.80   0.00239602    2.192    0.544
       249 -12.0238     60.6818     46.8154   8.3015879418e+01   6.0612013565e+01     0.885372     0.461625 -39.90  0.004263621    1.752    0.429
       250  -8.8851      6.7614     54.9391   1.0868364981e+02   6.4242984831e+01    0.1520806    0.0787589 -57.74  0.000330438    1.483    0.326
       251  -9.4231    211.8578     53.1032   4.7952171045e+01   2.6104487097e+01     0.227393      0.17833 -63.84  0.001234986    1.260    0.206
       252 -10.7682    201.4758     49.9311   4.8562940583e+01   2.9020646219e+01    0.7230352    0.3149421 -25.74  0.002750495    2.720    0.632
       253 -10.7894    199.8323     45.1447   4.7516344166e+01   3.0083480760e+01    0.4993022    0.2647936  85.94  0.001985005    2.638    0.621
       254 -10.8900    244.8557     51.1419   4.3516050215e+01   1.9015172640e+01    0.5437868    0.2462435  81.64  0.002168275    3.302    0.697
       255 -11.1101    240.4766     49.7055   4.3656777532e+01   2.0145508156e+01    0.3555741    0.2841178 -39.04 0.0009833943    1.182    0.154
       256 -10.8721    174.2777     48.3032   5.2373428198e+01   3.5918582507e+01    0.5979248     0.453074  74.24  0.003048843    1.365    0.267
       257  -9.5697    176.7422     43.5905   5.0573572464e+01   3.5963643445e+01    0.2930976     0.218037  86.82  0.001260342    1.479    0.324
       258  -8.6906    215.6573     49.3077   4.6485093057e+01   2.5755906315e+01    0.1476956   0.09589589 -66.16 0.0007043403    1.691    0.409
       259 -10.1673     91.1484     47.9461   7.2412727654e+01   5.5216522179e+01    0.3196847    0.1938773 -39.58   0.00125817    1.673    0.402
       260  -9.7485      2.3520     48.7212   1.0907710481e+02   6.5762641472e+01    0.5493225    0.1878975 -48.98  0.002733619    1.974    0.493
       261  -8.7054    221.4705    239.5002   8.7371936098e+01  -6.3926986204e+00    0.1216298   0.09440862  11.84 2.000151e-05    1.003    0.003
       262 -10.8159    148.6178    237.9739   1.0112961555e+02   4.9085860242e+00    0.3929402    0.1846811  40.00  0.001939112    1.775    0.437
       263 -10.6990    198.6738    232.7724   9.0539696419e+01  -2.1103374040e+00    0.3747877    0.2979033  18.06  0.002435978    1.033    0.032
       264  -9.5672     15.2525    233.6956   1.2630079550e+02   2.3461470879e+01    0.2001079    0.1191048 -75.88  0.001023436    1.598    0.374
       265 -11.9141     26.6975     27.9505   9.0536025159e+01   6.8068934689e+01    0.5014213    0.3963927  21.40  0.002472796    1.445    0.308
       266 -10.2795    247.2408    231.5282   8.1463700510e+01  -8.9273526619e+00    0.2076307    0.1415866 -20.36 0.0008719329    1.344    0.256
       267 -10.5601    242.9515    231.7932   8.2254576050e+01  -8.3858373398e+00    0.2694912    0.2098624  49.84  0.001703345    2.115    0.527
       268  -9.8810    167.6116    237.7888   9.7345264373e+01   1.9613186714e+00    0.1515028      0.12228 -59.27 0.0007800896    1.651    0.394
       269  -9.6580     23.4358    231.7019   1.2475686910e+02   2.3019754045e+01    0.1915341    0.0983472  50.27  0.000706568    1.568    0.362
       270 -10.5321    139.8340     43.6387   5.7625116015e+01   4.5084110382e+01    0.3760523    0.3194398 -82.21  0.001653245    1.395    0.283
       271  -9.5424    193.9437     46.1223   4.8622361442e+01   3.1376739755e+01    0.3046803     0.183836  87.36 0.0009902843    2.090    0.522
       272  -9.4621    227.7805     36.7802   4.1988974934e+01   2.4664055049e+01    0.2250106    0.1631269 -68.24  0.001268536    1.327    0.247
       273  -9.2182    234.1920     43.1702   4.2814004169e+01   2.2398800079e+01    0.3356262    0.1520571 -24.38  0.001374765    2.766    0.639
       274  -9.8176    231.6294     38.7399   4.2045578380e+01   2.3549960465e+01    0.3515827    0.1635881 -42.01  0.001641824    1.875    0.467
       275  -9.1673    101.4966     44.5154   6.7863050771e+01   5.3680898485e+01    0.1970203    0.1372881  57.17 0.0007659578    1.656    0.396
       276 -11.1334     94.3562     41.2484   6.8808262465e+01   5.5642868707e+01    0.7110428     0.313384  49.09  0.002916862    2.313    0.568
       277 -10.3702    189.1441     41.4665   4.8041160782e+01   3.3184499810e+01    0.5214647     0.200299 -28.06  0.001640216    2.835    0.647
       278  -9.6951     77.0000     41.9772   7.4943729720e+01   5.8806179159e+01     0.374971    0.1806697 -33.80 0.0009360808    2.005    0.501
       279  99.0000     86.2879     30.9732   6.7269584104e+01   5.8726145064e+01    0.5133284     0.338106  35.87  0.001841945    1.424    0.298
       280 -10.3891     82.1972     40.3919   7.2482002329e+01   5.8121437115e+01    0.3655686    0.2356199  54.29  0.001542599    1.963    0.491
       281 -11.2235     78.0605     35.2600   7.1841907382e+01   5.9662847162e+01    0.7395572    0.4915764  -7.92   0.00379533    1.645    0.392
       282  -9.0713    184.6248     39.7260   4.8223439446e+01   3.4528599042e+01    0.3720922   0.07696354 -39.42  0.001103061    4.118    0.757
       283  -9.5698    193.7788     39.0011   4.6699053051e+01   3.2375955141e+01    0.2205498    0.1871286  70.97 0.0003538071    1.144    0.126
       284 -11.0607    176.8186     36.2101   4.8404679672e+01   3.6919977008e+01    0.5561572    0.3629267  38.69  0.002619922    1.778    0.437
       285  -9.8541    172.0110     33.0132   4.8215227209e+01   3.8518986386e+01    0.3246971    0.2362106  81.83  0.001344139    1.435    0.303
       286  -9.6694    133.1074     36.8415   5.6792552168e+01   4.7631170434e+01    0.3785671     0.262656 -71.65  0.001729307    2.112    0.527
       287  -9.5919    206.9062     37.0464   4.4454580710e+01   2.9465206723e+01    0.2083768    0.1894976 -72.57  0.000640908    1.004    0.004
       288  -9.4861     95.1127     36.2230   6.6598021921e+01   5.6228324057e+01    0.2327298    0.1866836  65.90 0.0009418124    1.614    0.380
       289  -9.0283    190.1769    229.8101   9.1704628374e+01  -3.5727677390e-01    0.1762735    0.1309957   8.80 0.0007230979    1.320    0.242
       290  -9.3751    108.3816    230.1742   1.0824926161e+02   1.2482192965e+01    0.1617965    0.1153624 -82.08 0.0004135718    1.657    0.397
       291 -12.1239    105.9246     32.9264   6.2137248862e+01   5.4394497956e+01    0.5735462    0.3303035  18.68  0.002055881    2.374    0.579
       292  -9.8724    234.0652    223.2579   8.2355985554e+01  -6.0437249217e+00     0.230241    0.1462729  -3.66 0.0008772486    1.570    0.363
       293  -9.1281    209.3146    223.3501   8.6949646162e+01  -2.3755931755e+00    0.1338077   0.08617257   2.73 0.0007046798    1.727    0.421
       294  -9.5143      9.6422    217.8071   1.2648177878e+02   2.7087661379e+01    0.1575638   0.07940611  85.86 0.0009437562    1.670    0.401
       295 -10.5303    189.5673     27.6991   4.4172271794e+01   3.4816273732e+01    0.4083385    0.2935839  17.07  0.001516092    1.957    0.489
       296  -9.2651    216.5459     32.0459   4.2059201771e+01   2.7832684297e+01    0.1952499    0.1236931 -34.49  0.000566317    1.548    0.354
       297  -9.2768     36.3487     31.9615   8.7569583787e+01   6.6367807695e+01    0.1909775    0.1584243  18.58 0.0006723254    1.336    0.251
       298  -9.2627    186.6700     32.6685   4.5941186943e+01   3.4926041751e+01    0.2422081    0.1453995  47.11 0.0006065549    1.792    0.442
       299 -10.3220    165.0158    212.3658   9.3949092723e+01   6.6060980585e+00    0.2593103    0.2028884  49.37  0.001481383    1.335    0.251
       300 -10.7235    177.0405     29.8625   4.6523088924e+01   3.7651395827e+01    0.4437863    0.2431486  49.29  0.002027394    1.850    0.460
       301 -11.3469    183.1282     25.1060   4.4305230491e+01   3.6702768722e+01    0.5818025    0.3010954  49.85  0.002599082    1.987    0.497
       302 -11.9090    124.8283     28.0000   5.5516956282e+01   5.0708903205e+01    0.6764832    0.3747982  48.90   0.00302016    1.633    0.388
       303  -9.5518    221.8228     29.6439   4.0905093800e+01   2.6913468745e+01    0.2050709    0.1719416 -30.25 0.0005432489    1.300    0.231
       304  -9.0861     99.5175     30.4560   6.2983605918e+01   5.6097062331e+01    0.2116996     0.170105  51.12 0.0006076381    1.285    0.222
       305  -9.7729     97.8197     26.6839   6.1957881973e+01   5.6936579756e+01    0.2700194    0.2279434 -43.03  0.001065633    1.416    0.294
       306 -10.0350    230.6140     27.2371   3.9456299929e+01   2.5222369805e+01     0.339812    0.1931762 -35.95  0.001230824    1.651    0.394
       307 -10.0502     61.9043     53.8494   8.5144410155e+01   5.9134487315e+01    0.2757909    0.2321982   7.85  0.001220722    1.165    0.142
       308  -9.4255    233.8399    209.3695   7.9906614464e+01  -4.0860703538e+00     0.182512     0.101265  24.37 0.0007552383    1.751    0.429
       309 -10.2844    211.3655     18.8306   3.9339021308e+01   3.0605630099e+01    0.2144004    0.1943545  82.76 0.0002882919    1.112    0.101
       310  -9.6130    250.4871     26.2147   3.7458768630e+01   2.1065400809e+01    0.2259444    0.1157027 -28.80  0.001136367    2.061    0.515
       311  -9.6610     86.1445     23.8653   6.4326959115e+01   5.9682789340e+01    0.2004216    0.1493168  21.45            0    1.252    0.201
       312  -9.3871    204.4988    208.4899   8.5270585043e+01   6.4822614933e-01    0.1338562    0.1124573   9.27 8.685837e-05    1.017    0.016
       313  -9.6258    153.0857    207.8634   9.5735349421e+01   9.4523623901e+00    0.2083871    0.1786586  59.67 0.0007698692    1.288    0.224
       314  -9.5700     61.1460    206.7108   1.1552013597e+02   2.3791099400e+01    0.2035141    0.1491483  82.26 0.0006111578    1.248    0.199
       315  -9.3825     45.1364     24.7122   8.0401019007e+01   6.6461376399e+01    0.1925552    0.1494958 -28.86 0.0005097414    1.242    0.195
       316 -10.3139    238.2347    204.6798   7.8246682013e+01  -4.0719158234e+00    0.2667918    0.1551904 -23.46  0.001437516    1.627    0.385
       317  -9.9229     59.6474     23.9896   7.3897281529e+01   6.4434609798e+01    0.2028808    0.1520566  11.60 0.0004537755    1.201    0.168
       318 -10.1245     60.2131     19.8084   7.1749809740e+01   6.4912235157e+01    0.3195753    0.2407974 -49.87  0.001304575    1.979    0.495
       319  -9.3018    223.5101     22.0419   3.8918222566e+01   2.7437303649e+01    0.2004328    0.1538612  82.78 0.0006293372    1.235    0.190
       320  -9.6631      4.5748    204.6466   1.2672482413e+02   3.0214404851e+01     0.261579   0.07493526 -72.44  0.001228617    2.815    0.645
       321  -9.4367     74.5275     19.5433   6.6298383183e+01   6.2445945893e+01    0.2299677    0.1677437   8.67  0.000536449    1.298    0.230
       322 -10.9927      6.0025    199.0215   1.2614220890e+02   3.1266349131e+01    0.2794171    0.1192996 -69.55  0.001543354    2.040    0.510
       323 -10.5391    245.6375    200.8916   7.6225816210e+01  -4.6291154779e+00    0.2179613    0.1495469  17.77 0.0006998161    1.346    0.257
       324  -8.9213    207.2713    201.3429   8.3416453584e+01   1.3345466464e+00    0.1368566   0.09374749  -2.39 0.0003889783    1.613    0.380
       325 -10.5205    233.5770    197.1342   7.7657023759e+01  -2.2533796558e+00    0.3453102    0.2420814 -25.86 0.0009419009    1.314    0.239
       326  -8.8405    195.3267    199.6613   8.5474508182e+01   3.6279051727e+00    0.1272534     0.110663  77.63 0.0006781065    1.729    0.422
       327 -10.3824    136.0143     46.0000   5.9284415613e+01   4.5666304652e+01    0.6877726    0.3088684  62.59  0.002546621    2.571    0.611
       328  -8.9645     83.4549    195.7979   1.0942287770e+02   2.3148093778e+01    0.1719353    0.1187697 -54.59 0.0005416457    1.558    0.358
       329 -10.3080    186.3809     15.2476   4.1154809736e+01   3.6984993237e+01     0.269795    0.2117613  81.25 0.0005133995    1.172    0.147
       330  -9.9878    169.8482    191.5220   8.9279123188e+01   9.5756119484e+00    0.3505241    0.2138532  25.21  0.001079177    1.797    0.443
       331  -8.9928    162.5011    190.9837   9.0776748316e+01   1.1003981396e+01     0.180463    0.1280034 -77.85 0.0004436045    2.331    0.571
       332 -12.1947      4.8904    184.3733   1.2549134935e+02   3.4504833420e+01    0.5969412    0.4254117  82.68  0.002775649    1.081    0.075
       333 -10.1908    239.5168    185.0962   7.4238742980e+01  -1.3595455647e+00    0.3928893     0.228468  -4.93  0.001345277    2.206    0.547
       334  -8.9885    174.2115     15.6806   4.2805634306e+01   3.9934656712e+01    0.1887217    0.1072385  60.67 0.0005584778    1.588    0.370
       335 -10.4760    250.2508    178.6502   7.1086787986e+01  -2.0624513013e+00    0.4725979    0.1447556 -31.27   0.00171823    3.282    0.695
       336  -9.1425     94.5010     12.4318   5.6975413289e+01   5.9235950500e+01     0.131385    0.1137766  30.13 0.0001318516    1.030    0.029
       337 -10.2096     52.1697    173.9211   1.1403415627e+02   3.2246390740e+01    0.4383792    0.2029364  89.76  0.001717095    2.948    0.661
       338  -9.7373    231.2671    175.4937   7.3778298635e+01   1.5052855314e+00    0.3910178    0.1286716  41.51  0.001467521    3.155    0.683
       339  -9.8236    247.7695    173.9224   7.0551167956e+01  -9.5115495547e-01    0.4301839    0.1630629  28.24  0.001482038    4.209    0.762
       340  -9.8626     27.8790    175.9126   1.1988946116e+02   3.4377456389e+01    0.2275576    0.1559159  61.66  0.001391329    1.356    0.263
       341  -9.6691     39.5100    173.5148   1.1698179498e+02   3.3756580946e+01    0.2085732    0.1468743 -69.51 0.0007868154    1.281    0.219
       342 -10.8253     35.6642    170.2207   1.1754645989e+02   3.4925981802e+01     0.402528    0.2520175 -86.53  0.001559448    1.436    0.304
       343 -10.2827      8.9107    156.7419   1.2261170710e+02   4.0439224552e+01    0.3438036    0.1743946 -61.73  0.001775341    1.732    0.423
       344 -11.6849      9.5652    166.9287   1.2327507446e+02   3.8038643081e+01    0.5019167    0.3526158  86.85  0.002044975    1.143    0.125
       345 -11.3254     13.8262    159.5463   1.2169047391e+02   3.9407017669e+01    0.4697904    0.2305737 -67.74  0.001404436    1.669    0.401
       346  -8.9937    197.9911    168.0210   7.8634806931e+01   8.7694163659e+00    0.1774399    0.1573052 -17.75  0.000699802    1.064    0.060
       347  -9.6330    188.9602    164.0124   7.9653043940e+01   1.1254275893e+01    0.2925615    0.1855424 -15.24  0.001040629    2.101    0.524
       348  -9.3722    152.2213    166.5896   8.8386535818e+01   1.7886734104e+01    0.1970242    0.1398137  28.81 0.0003162292    1.483    0.326
       349 -10.4178     19.1273    164.8440   1.2091193194e+02   3.7734166028e+01    0.2968434    0.2589323 -28.68  0.001491285    1.564    0.361
       350 -10.0953    205.1052    162.9976   7.6121829210e+01   8.3470169973e+00    0.5965461    0.3060784  50.69  0.002140416    2.354    0.575
       351  -9.3376    208.4499    160.5004   7.4917701346e+01   8.1683468088e+00    0.2082476    0.1306536 -44.65 0.0007468368    1.655    0.396
       352 -10.6770     28.5393    159.9577   1.1820079925e+02   3.8040514262e+01    0.3019843    0.1770767 -66.45 0.0009197822    1.463    0.316
       353  -9.3911     79.0254    160.0452   1.0543350197e+02   3.2057736502e+01    0.2297184    0.1597841  75.53 0.0008959458    1.656    0.396
       354  -9.4208    215.1366    158.3010   7.3140919512e+01   7.3042454030e+00    0.2633088    0.1801564 -23.77 0.0008922711    1.441    0.306
       355  -9.0557    223.7688    156.9766   7.1230601536e+01   5.9365858738e+00    0.1912977    0.1081482 -35.20 0.0008761553    1.631    0.387
       356 -10.3904     22.7166    155.3140   1.1915378425e+02   3.9665118944e+01    0.3372375    0.2248509  25.93  0.001728451    1.833    0.454
       357 -12.1397     22.7181    149.2738   1.1853090692e+02   4.1104875376e+01    0.6153288    0.3073936 -39.54  0.002859289    2.788    0.641
       358 -10.6093     15.8020    147.7456   1.2011890018e+02   4.2031131009e+01    0.3020583    0.2507817  71.62     0.001086    1.186    0.157
       359 -11.5308     12.8062    138.3968   1.1994259083e+02   4.4483937680e+01    0.7230441    0.4102026 -84.80  0.003984335    1.529    0.346
       360 -10.4736    104.3399    154.0725   9.7783390681e+01   2.9527015865e+01    0.3642232    0.2893229 -58.03  0.001877737    1.229    0.186
       361 -10.8515     31.6499    153.3567   1.1671606418e+02   3.9324996163e+01    0.4421837    0.2897494  77.38  0.002471933    1.517    0.341
       362 -10.1002      3.3459    152.7715   1.2360376708e+02   4.1759412394e+01    0.3155182    0.1686307  74.17  0.001738261    1.804    0.446
       363 -11.1148      3.8487    147.5576   1.2305708535e+02   4.2939359635e+01    0.4480517    0.3043711  48.98  0.002099558    1.566    0.361
