#   1 NUMBER                 Running object number                                     
#   2 MAG_AUTO               Kron-like elliptical aperture magnitude                    [mag]
#   3 X_IMAGE                Object position along x                                    [pixel]
#   4 Y_IMAGE                Object position along y                                    [pixel]
#   5 X_WORLD                Barycenter position along world x axis                     [deg]
#   6 Y_WORLD                Barycenter position along world y axis                     [deg]
#   7 A_WORLD                Profile RMS along major axis (world units)                 [deg]
#   8 B_WORLD                Profile RMS along minor axis (world units)                 [deg]
#   9 THETA_WORLD            Position angle (CCW/world-x)                               [deg]
#  10 FWHM_WORLD             FWHM assuming a gaussian core                              [deg]
#  11 ELONGATION             A_IMAGE/B_IMAGE                                           
#  12 ELLIPTICITY            1 - B_IMAGE/A_IMAGE                                       
         1 -10.4248     24.5504     16.8790   1.2058285100e+02   7.1347592927e+01    0.3287709    0.3104346 -78.15 0.0009182697    1.328    0.247
         2 -10.1587      9.4452     19.6887   1.3086433270e+02   7.1964928393e+01    0.4196605    0.2378044  -7.41  0.001372987    2.177    0.541
         3  -9.6242     64.0327     14.2996   9.9003329296e+01   6.6181428274e+01    0.4152462    0.2622781  24.24 0.0008329928    1.830    0.453
         4  -8.7739    134.0384     13.7464   7.8348635924e+01   5.0078132674e+01    0.3741688    0.1732845  42.73  0.001435834    2.261    0.558
         5  -9.1632     74.5266     12.9775   9.4133997908e+01   6.4351206749e+01    0.4165943     0.243443 -24.12   0.00166441    1.714    0.417
         6  -7.6047    151.3287     12.8991   7.4988702819e+01   4.5578735610e+01    0.2002047    0.1352362  -2.68 0.0003623827    1.705    0.413
         7  -9.5048     31.6067     10.8099   1.1344718738e+02   7.1746431527e+01    0.3806387     0.204698 -35.78   0.00122672    1.680    0.405
         8  -8.7268     97.3185     12.0816   8.6222985633e+01   5.9471833694e+01    0.2839099    0.2060059  33.81 0.0008205635    1.369    0.269
         9  -8.1634    105.9462     10.8190   8.3297468021e+01   5.7558514549e+01    0.2293517    0.1785497  31.13 0.0005254311    1.269    0.212
        10  -8.7265     80.1652     12.7930   9.2000020228e+01   6.3209856573e+01    0.2921682    0.2657752 -56.90  0.001014901    1.332    0.249
        11 -10.5820     20.0598      8.8078   1.1956511998e+02   7.3368706936e+01    0.2986757    0.2195112   1.92 0.0004368934    1.468    0.319
        12  -7.3567     65.2708      9.3624   9.5820565932e+01   6.6691566183e+01     0.139979   0.09672052   3.33 0.0002576055    1.654    0.395
        13  -8.4630      2.3178      8.1047   1.3135959284e+02   7.4811440398e+01    0.2277527    0.1680881 -37.42  0.001552877    1.162    0.140
        14  -8.1859    128.3198      7.9389   7.7050565233e+01   5.2193563566e+01    0.2030713    0.1864835  -1.37 0.0007442952    1.109    0.098
        15  -8.4490    136.5451      7.5086   7.5364359355e+01   5.0068961667e+01    0.1448802    0.1373746  43.61 2.753797e-05    1.013    0.013
        16  -7.4296    119.3266      7.2972   7.8586089656e+01   5.4590869143e+01    0.1552031    0.1001158  33.00 0.0006896706    1.631    0.387
        17  -8.8110     56.6734      4.8048   9.6919256464e+01   6.8938494736e+01    0.3374846    0.2078194  12.60  0.001616809    2.088    0.521
        18 -10.1381     49.0818      4.6343   1.0040755715e+02   7.0276016187e+01    0.2676349    0.2024972  -8.14 0.0003675542    1.272    0.214
        19  -8.1454     13.0478      5.2675   1.2252586614e+02   7.4672879845e+01    0.2500443    0.1347999 -28.13  0.001348696    1.893    0.472
        20  -9.1835    110.8669      4.2729   7.9062040688e+01   5.7050697593e+01    0.3705306    0.2059899 -32.16  0.001669131    1.822    0.451
        21  -8.7566    125.0879      3.9057   7.5949519852e+01   5.3436889766e+01    0.2215768    0.1975535  34.24 0.0005626781    1.081    0.075
        22  -8.5523     68.7115      3.8402   9.1339185834e+01   6.6768385187e+01    0.3555304    0.1749701 -19.85   0.00154863    2.188    0.543
        23  -8.3530    153.7725      3.2552   7.1029076817e+01   4.5858445703e+01    0.1997205    0.1544689  38.76 0.0003537774    1.324    0.245
        24  -8.4094    142.6066      2.3421   7.2307179450e+01   4.8939189671e+01    0.3991713    0.1639348  52.76  0.001257497    2.200    0.545
        25  -7.8309    182.2061      2.1790   6.7251105802e+01   3.8358789832e+01    0.1917584    0.1512574 -61.12 0.0003501222    1.276    0.217
        26  -7.9408      3.0145      1.3574   1.2798593668e+02   7.6146752168e+01    0.1458732    0.1052172   5.47  0.000329811    1.547    0.354
        27  -8.0555      7.1925    234.1002   1.5224400500e+02   2.7329711818e+01    0.1330051    0.1043247  58.68 0.0007957998    1.210    0.173
        28  -8.4675    249.0332    250.0316   1.1297468323e+02  -4.1078418545e+00    0.1574008    0.1002635  18.93  0.000738989    1.040    0.038
        29  -8.9799    213.2248    250.4373   1.1843233279e+02   2.7097479776e-01    0.2518955   0.07366873  39.66  0.001289765    2.603    0.616
        30 -10.0963    200.9897    248.8506   1.2016890063e+02   1.9973722505e+00    0.4527593    0.1802381  26.51   0.00206591    2.455    0.593
        31  -7.2359     48.3425    250.3120   1.4598774381e+02   2.0966077194e+01   0.08159398   0.07113794  18.45 0.0007046228    1.701    0.412
        32  -8.4601    248.2364    233.0930   1.1077472422e+02  -2.6601607509e+00    0.1588589   0.09898365  12.85 0.0006153713    1.229    0.186
        33  -8.0522    204.0718    231.0142   1.1740300726e+02   3.3415069054e+00    0.1743706    0.1015178  16.89  0.001047105    1.663    0.399
        34  -7.1648    123.6922    230.2946   1.3133386055e+02   1.4679875860e+01    0.1090688   0.06809933  55.65 0.0003460284    1.586    0.370
        35  -8.1070    195.1117    229.1422   1.1864042512e+02   4.7812011261e+00    0.1725073    0.1141249  19.34 0.0008516794    1.312    0.238
        36  -7.1465    158.3178    229.2721   1.2500369392e+02   9.9764173195e+00    0.1081728   0.07157937  19.76 0.0003167684    1.563    0.360
        37  -7.8302    100.5430    229.4905   1.3548489272e+02   1.7877776465e+01    0.1088393   0.08252638  45.03 0.0001745146    1.034    0.033
        38  -8.1667    236.7995    226.0448   1.1149680502e+02  -5.8831374649e-01    0.2000744    0.1170471   2.44  0.001342989    1.684    0.406
        39  -8.3298    187.1126    226.7501   1.1967846656e+02   6.1720271867e+00    0.2184832    0.1205339  24.69  0.000915225    1.644    0.392
        40  -7.2097    175.3154    228.2763   1.2190419273e+02   7.6770246230e+00    0.1097418   0.06994615  18.89 0.0002553195    1.566    0.362
        41  -8.7733    247.3986    224.9771   1.0972907601e+02  -1.8657426778e+00    0.2622596    0.1320563   1.59  0.001559256    2.271    0.560
        42  -7.4080    229.5423    226.4871   1.1268759466e+02   3.2966503883e-01    0.1099638   0.07574356  18.53 0.0002829969    1.057    0.054
        43  -7.7272     70.1382    225.8530   1.4079298612e+02   2.2200050531e+01    0.1315137     0.112883  36.60 0.0007130699    1.331    0.249
        44  -7.2072    223.6700    224.6776   1.1335629953e+02   1.2904019173e+00     0.114026   0.06416164  14.78 0.0007049431    1.696    0.410
        45  -7.7374    200.0448    223.4624   1.1704800048e+02   4.6960856151e+00    0.1585456   0.07309353  23.18 0.0008068391    2.373    0.579
        46  -7.7448     51.4293    221.7567   1.4398030928e+02   2.4975855613e+01    0.1207032    0.0915076 -69.22 0.0009363814    1.630    0.386
        47  -8.2836    182.2730    219.7672   1.1958789271e+02   7.6725877400e+00    0.2294396    0.1181206  31.11 0.0008447767    1.591    0.371
        48  -7.5968     40.4974    220.4663   1.4591789493e+02   2.6347166178e+01    0.1040734   0.07546587  56.52 0.0001889611    1.010    0.010
        49  -7.6725    217.4681    219.4532   1.1360200731e+02   2.6613443756e+00    0.1128308   0.08054212  20.45 0.0001421338    1.042    0.040
        50  -7.8322    130.0938    220.4761   1.2913282060e+02   1.5161238670e+01    0.1775348   0.08825774  38.29  0.001008465    1.555    0.357
        51  -8.5221    239.8547    218.1691   1.0986622494e+02  -2.7221125072e-01    0.1589139   0.09477624  16.99 0.0007273972    1.363    0.266
        52  -7.2820    227.5013    217.4727   1.1169702108e+02   1.4674327983e+00    0.1140571   0.07834206  17.55 -2.137833e-05    1.109    0.098
        53  -7.6592    203.9879    216.4813   1.1540328647e+02   4.8894948818e+00    0.1615899   0.07468239  23.07 0.0007144126    2.386    0.581
        54  -8.3071    193.6676    215.5054   1.1702227542e+02   6.5008823537e+00     0.245818    0.1350387  20.15  0.000764969    1.907    0.476
        55  -7.3779    179.2955    215.3264   1.1951023733e+02   8.6439509755e+00    0.1142242   0.07546762  13.55 0.0004987562    1.627    0.385
        56  -7.3362     83.6703    215.2909   1.3744610120e+02   2.2222921592e+01    0.1163121   0.06474304  57.39  0.000701872    1.624    0.384
        57  -8.1794    122.1161    213.2030   1.2984305980e+02   1.7356282222e+01    0.1754048     0.133702  28.51 0.0006880329    1.284    0.221
        58  -8.4695    248.2796    211.3677   1.0753889422e+02  -7.6750047395e-01    0.2341705    0.1272613  14.08  0.001133619    1.683    0.406
        59  -8.0474    232.5237    211.4688   1.0999326114e+02   1.3630474613e+00    0.1805402   0.09056561 -13.77  0.001022923    2.328    0.570
        60  -7.5220    143.6471    211.6895   1.2556742625e+02   1.4439724403e+01    0.1161066   0.08100395  14.74  0.000704434    1.724    0.420
        61  -7.7465    186.3203    210.3468   1.1757059847e+02   8.2006364295e+00    0.1761248    0.1113783  14.79 0.0008297721    1.691    0.409
        62  -7.0625    133.2920    209.6746   1.2729412368e+02   1.6262099881e+01    0.1138513   0.07886684  60.32 0.0005372796    1.617    0.382
        63  -7.9439    163.1114    207.8979   1.2143187303e+02   1.2032573811e+01    0.1799493    0.1220112  15.98 0.0006089965    1.627    0.385
        64  -7.8230    246.6590    205.5150   1.0686353944e+02  -4.4262374021e-03    0.1720654   0.09047912 -24.12  0.001079817    1.929    0.482
        65  -7.8456    205.3071    205.2848   1.1352029100e+02   5.9470889746e+00    0.2294981    0.1165687  -1.06 0.0009647674    3.971    0.748
        66  -9.2138    124.0100    205.9851   1.2865863976e+02   1.8180658079e+01    0.1670488     0.133027  42.79  0.001158618    1.003    0.003
        67  -7.6986    215.8257    205.1918   1.1173257506e+02   4.3980576665e+00    0.1641555    0.1043939  18.99 0.0008178337    1.357    0.263
        68  -8.1780    117.4418    205.0148   1.2983860830e+02   1.9285789544e+01    0.2189914    0.1413507  28.83 0.0008857023    1.545    0.353
        69  -7.1528     48.3059    205.3613   1.4358667038e+02   2.8066652711e+01   0.09305159   0.08248525 -33.78 0.0007039102    1.733    0.423
        70  -7.5415    237.4972    204.4172   1.0810685135e+02   1.3663963497e+00    0.1128981   0.08233137  16.80 0.0003633143    1.014    0.014
        71  -7.5519    148.6774    204.6781   1.2371846709e+02   1.4683317492e+01    0.1171905   0.08356674  12.70 0.0005224649    1.677    0.404
        72  -7.4309     86.4701    204.5185   1.3595218801e+02   2.3635939218e+01     0.114029   0.09146547  50.37 0.0001566376    1.034    0.033
        73  -8.2773    250.4888    199.9719   1.0538672448e+02  -4.4514140976e-04    0.2575006   0.09642782 -26.22  0.001352854    2.705    0.630
        74  -7.9313    196.1272    200.6027   1.1439360992e+02   7.8913673773e+00    0.2431899    0.1176154  29.07  0.001270436    1.901    0.474
        75  -8.0451    159.3201    200.3176   1.2109620279e+02   1.3661845046e+01    0.1198158   0.08357094  13.13 0.0004005906    1.661    0.398
        76  -7.5778    243.1896    199.0781   1.0635791063e+02   1.0970956800e+00    0.1351144    0.0761568 -21.07 0.0004224246    1.761    0.432
        77  -7.5357    229.5108    198.5461   1.0843337496e+02   3.1073157244e+00    0.1161118     0.086707  16.68  5.67644e-06    1.007    0.007
        78  -7.1518     42.6584    198.6646   1.4428714510e+02   2.9853464360e+01   0.09471031   0.08331224 -30.62 0.0005141562    1.759    0.432
        79  -8.4366    166.0746    197.3831   1.1939548866e+02   1.3012751621e+01    0.2587287    0.1199757  32.47  0.001013137    1.972    0.493
        80  -8.2523    193.1312    194.6238   1.1399227214e+02   9.0975826904e+00    0.3185041    0.1755492 -13.78   0.00159745    2.660    0.624
        81  -7.2225     80.6604    196.6956   1.3640498487e+02   2.5735712586e+01    0.1038911   0.08896192   0.99 0.0007040158    1.676    0.403
        82  -7.7660    237.4069    194.3891   1.0648905996e+02   2.3945025429e+00    0.2135841   0.09025621 -14.56 0.0009564542    3.371    0.703
        83  -7.2123    124.3007    193.3545   1.2706098305e+02   2.0140533505e+01    0.1156342   0.09084363   3.19 0.0004390917    1.703    0.413
        84  -7.2564    150.3415    192.3275   1.2169925402e+02   1.6243766773e+01    0.1239184   0.08783815  11.37 0.0007051345    1.738    0.425
        85  -7.6747     90.0791    192.4306   1.3403124840e+02   2.5237557889e+01    0.1808273   0.09912521  37.10 0.0006389422    1.585    0.369
        86  -7.1545    231.5259    191.5000   1.0694460062e+02   3.5605873079e+00    0.1191276   0.08790094  14.40 0.0001029865    1.057    0.054
        87  -7.8631    224.6881    189.6337   1.0774493265e+02   4.7913587991e+00    0.1255587   0.07450899  10.44 0.0007038334    1.762    0.433
        88  -7.6998     64.2786    189.5802   1.3918348785e+02   2.9063466868e+01    0.1503911    0.1013115  29.35 0.0009431638    1.603    0.376
        89  -7.3969    148.6788    185.6734   1.2105877260e+02   1.7532136858e+01    0.1242185    0.0906641   9.93 0.0007047624    1.685    0.407
        90  -7.1420    231.3383    184.3058   1.0574744266e+02   4.3725576999e+00    0.1247407   0.07383701  13.60 0.0003771378    1.676    0.404
        91  -7.6871    130.5241    182.9764   1.2438606627e+02   2.0888417489e+01    0.1564404    0.1049082 -21.15 0.0008073725    2.365    0.577
        92  -7.7977    249.6214    182.2296   1.0251314391e+02   1.8754576387e+00    0.1522216   0.09053006 -10.24 0.0003994194    1.580    0.367
        93  -7.5835    224.7015    180.6227   1.0619178661e+02   5.8126684402e+00    0.1276887   0.07718554   9.00 0.0007025262    1.756    0.430
        94  -7.2516    183.6672    180.6629   1.1345133908e+02   1.2481632680e+01    0.1309222   0.08645961  11.75 0.0007052026    1.741    0.425
        95  -7.7577     96.7900    178.1981   1.3099366230e+02   2.6868307859e+01    0.1504685    0.1399347  10.50 0.0002798167    1.326    0.246
        96  -7.6685    173.4504    177.4702   1.1486263115e+02   1.4655786890e+01    0.1275226    0.1066452  26.48 0.0002282667    1.016    0.015
        97  -7.4614    122.2924    177.3524   1.2533435244e+02   2.3156033683e+01    0.1204562    0.0964336  -1.42 0.0007029843    1.679    0.404
        98  -7.4669     69.0312    178.0000   1.3710400763e+02   3.0654981319e+01    0.1882005   0.05928659  34.56 0.0007893141    2.852    0.649
        99  -7.7517    205.0204    175.1693   1.0860191173e+02   9.6560098937e+00     0.213579    0.1186393  20.92   0.00107149    1.988    0.497
       100  -7.4429     46.8465    175.3824   1.4178837154e+02   3.3767081802e+01    0.1498292    0.1045867  23.74 0.0009430967    1.736    0.424
       101  -7.8088    148.9616    174.5261   1.1928109094e+02   1.9262592846e+01    0.2017109    0.1107211  37.29  0.001019639    1.594    0.373
       102  -8.2227    176.9725    167.9769   1.1253639633e+02   1.5455100149e+01    0.2124681    0.1435134  11.30  0.001122926    1.766    0.434
       103  -7.9281    168.4210    163.8982   1.1349899090e+02   1.7589078580e+01    0.2468104    0.1558452  10.43  0.001163036    2.267    0.559
       104  -7.7516    159.7000    160.2951   1.1463132643e+02   1.9724854964e+01    0.2414255    0.1666643 -11.04  0.001228682    1.980    0.495
       105  -7.6985    152.6643    156.6943   1.1545858180e+02   2.1592680663e+01    0.1358954   0.09988638  10.51 0.0007040113    1.670    0.401
       106  -7.3831    123.1697    162.5866   1.2293498065e+02   2.5667047782e+01    0.1815495    0.1154332  30.69 0.0009003163    1.609    0.378
       107  -7.4814    205.2861    152.3178   1.0425105529e+02   1.2666458490e+01    0.1331982   0.09056927   9.78 0.0002858605    1.590    0.371
       108  -7.8809    138.3289    158.3071   1.1885278355e+02   2.3858929514e+01    0.1324091    0.1011991   7.72 0.0002892268    1.658    0.397
       109  -7.4513    107.1740    151.6462   1.2490483785e+02   3.0383133075e+01    0.1873843     0.117505  30.99  0.000522666    1.680    0.405
       110  -8.0080    133.3148    147.9157   1.1813305985e+02   2.6645299341e+01    0.1837807    0.1778412 -35.18   0.00106555    1.133    0.117
       111  -7.4048    119.9796    148.5253   1.2134270829e+02   2.8865742816e+01    0.1818909    0.1162155  16.40 0.0008075026    2.374    0.579
       112  -7.4280    214.3191    146.3190   1.0144521452e+02   1.1856345619e+01    0.1370765   0.08984917  11.80 0.0007042083    1.662    0.398
       113  -9.4825     66.9428    144.4754   1.3385807411e+02   3.7751746455e+01    0.4414622    0.2561503  61.49  0.002274174    1.804    0.446
       114  -7.1494    176.2974    143.3220   1.0794900900e+02   1.9411108530e+01    0.1392528    0.1005631   9.02 0.0002229697    1.621    0.383
       115  -8.5897    136.1073    135.9309   1.1518832331e+02   2.8397748466e+01    0.2013088    0.1895984  42.08 0.0003289297    1.015    0.015
       116  -7.0233    125.3154    135.3180   1.1763450034e+02   3.0511308143e+01    0.1376515    0.1095243  -0.31 0.0002851974    1.652    0.395
       117  -7.6732     55.0315    135.4620   1.3583893188e+02   4.1191627601e+01    0.1595371    0.1111466  -7.98  0.000610075    2.453    0.592
       118  -8.2331      5.0721    134.0924   1.4888898861e+02   4.6117719615e+01    0.2374415    0.1338902 -21.65  0.001227998    3.339    0.701
       119  -8.5988     23.5816    130.0389   1.4373950026e+02   4.5590507156e+01    0.3304517    0.1906959 -27.11  0.001626581    3.139    0.681
       120  -7.5105    152.5484    124.4517   1.0896159429e+02   2.7341574563e+01    0.1438543    0.1317557  19.74 0.0002350663    1.072    0.067
       121  -8.2016    133.1888    124.6049   1.1352158715e+02   3.1144119562e+01    0.2071771    0.1297053  33.27   0.00094817    1.684    0.406
       122  -9.4807     13.6549    119.9065   1.4563451307e+02   4.8643748501e+01    0.4094844     0.193786 -42.36  0.001968314    3.010    0.668
       123  -7.2509     84.4461    121.5266   1.2564518438e+02   4.0326482418e+01    0.1335988    0.1264439  82.46 0.0002250378    1.027    0.027
       124  -7.7401    118.7938    119.2215   1.1594797505e+02   3.4965891742e+01    0.2282145    0.1117222  31.88  0.000871585    2.488    0.598
       125  -7.9870     99.7446    118.9638   1.2093941619e+02   3.8421694212e+01    0.2806923    0.1835197   9.12 0.0009929017    2.715    0.632
       126 -10.1009    246.3262    114.6349   8.9540062658e+01   1.0112088239e+01    0.2628098    0.2204836  24.26 0.0002526266    1.178    0.151
       127  -7.2360    142.6826    111.6639   1.0827706236e+02   3.1755820013e+01    0.1503921    0.1148628   4.48 0.0004196102    1.699    0.411
       128  -8.7904      2.1262    109.7965   1.4818902736e+02   5.1681251943e+01    0.2819945    0.1390551 -52.43  0.001535801    2.185    0.542
       129  -7.9252    123.7949    107.3777   1.1194434627e+02   3.6438301246e+01     0.211227    0.1341827  33.45 0.0009444049    1.710    0.415
       130  -7.2330     34.5418    107.5169   1.3817400423e+02   4.9753864233e+01    0.1264035    0.1074084  88.12 0.0001147796    1.032    0.031
       131  -7.7826    133.7941    106.4367   1.0916929970e+02   3.4608261527e+01     0.206579    0.1361677  32.90 0.0007206229    1.646    0.392
       132  -7.6164    109.3313    106.3257   1.1556056247e+02   3.9437306081e+01    0.1458573    0.1152257  -6.76 0.0007050908    1.707    0.414
       133  -8.6813     14.0265    105.9644   1.4432210283e+02   5.1795195796e+01    0.2492989    0.1364669 -45.62 0.0009014226    2.142    0.533
       134  -7.8470     17.3660    103.3173   1.4302880082e+02   5.2168844859e+01    0.1924391    0.1387582 -25.84  0.000959795    1.870    0.465
       135  -7.9881     59.6635    113.6815   1.3143693052e+02   4.5558949222e+01    0.1310817   0.09870785 -32.94 0.0007049086    1.702    0.413
       136  -7.8763     93.8129    103.3872   1.1928169802e+02   4.2846170970e+01     0.200054    0.1351665  26.08 0.0009422029    1.773    0.436
       137  -7.8762    129.8192     97.3838   1.0787287421e+02   3.7231559867e+01    0.2178989    0.1357393  34.89 0.0009454017    1.743    0.426
       138  -9.5513      8.8490     96.3084   1.4503708755e+02   5.4368697266e+01    0.3670987     0.206459  -3.97  0.001955906    2.699    0.629
       139  -8.2527    248.6317     95.2006   8.4798258820e+01   1.2060762621e+01    0.1688067    0.1549988 -14.25 0.0006126871    1.123    0.110
       140  -8.6608     44.5569     91.5033   1.3246784875e+02   5.2511238194e+01    0.2910979    0.1671099 -34.75  0.001359928    2.353    0.575
       141  -8.1026     96.2598     90.4977   1.1544118083e+02   4.5258518000e+01    0.3243029    0.2140934  14.28  0.001373874    2.367    0.577
       142  -8.9965     21.1290     90.6969   1.4033701485e+02   5.4842812389e+01    0.2716939    0.1739022 -32.53  0.001508984    2.000    0.500
       143  -8.5849     67.4154     85.7184   1.2349510969e+02   5.1009868136e+01    0.3637999    0.1670067  30.75  0.001505784    2.493    0.599
       144  -9.3539     35.7871     81.8352   1.3380441262e+02   5.5691230679e+01    0.4742031    0.2559943 -33.95  0.002189582    2.513    0.602
       145  -7.4518    127.3616     83.3247   1.0464075894e+02   4.0542117265e+01    0.1583171    0.1189158   8.30 0.0007041692    1.785    0.440
       146  -9.0346     48.6174     77.2115   1.2817885700e+02   5.5426593997e+01    0.4155142    0.2586159 -33.97  0.002045482    1.970    0.492
       147  -9.5553      8.0654     77.3846   1.4329129544e+02   5.8834099635e+01    0.3948913    0.1633918 -46.96  0.001882658    2.486    0.598
       148  -7.8685    184.4953     78.0644   9.0408822071e+01   2.8235538348e+01    0.2202158    0.1421585 -31.46 0.0005147737    1.511    0.338
       149  -8.3740     90.1688     78.0558   1.1397423811e+02   4.9071284770e+01    0.5315348      0.17324  38.36  0.001753354    3.337    0.700
       150  -7.9799     74.6862     74.9113   1.1825651333e+02   5.2380818206e+01    0.2982066    0.2023391 -20.67  0.001361675    2.108    0.526
       151  -9.6419     24.2153     72.9619   1.3655207634e+02   5.8799003692e+01    0.7804974    0.3106442 -33.70  0.002818887    4.377    0.772
       152  -8.0608     23.4638     69.4975   1.3623244504e+02   5.9675816374e+01    0.2348545    0.1822344 -69.01 0.0006336276    1.090    0.083
       153  -7.4883    215.9380     74.5555   8.4258722598e+01   2.1486653987e+01     0.195399    0.1051812  33.55 0.0006149653    2.301    0.565
       154  -8.2434     80.7413     67.9437   1.1414222429e+02   5.2922779369e+01    0.2460746    0.2075474 -27.84  0.000693046    1.254    0.203
       155  -8.6117     84.2721     63.9396   1.1167518704e+02   5.3163551745e+01    0.3819029    0.2643231  11.96  0.001328552    2.072    0.517
       156  -8.5886     43.4900     67.8238   1.2796370666e+02   5.8201386554e+01    0.2497687    0.1902732 -29.16  0.001005541    1.490    0.329
       157  -7.6203    106.4817     67.4444   1.0566335414e+02   4.8140772228e+01    0.1479392    0.1418354  -6.30 0.0001736392    1.056    0.053
       158  -7.9968     61.8079     67.0190   1.2070281148e+02   5.6087998581e+01    0.2176912     0.186321 -32.62 0.0007253819    1.210    0.173
       159  -9.6964     65.3841     60.9642   1.1757116506e+02   5.6920813353e+01    0.4645482    0.3675292 -16.29  0.002511345    1.497    0.332
       160  -9.5770     17.6306     62.4282   1.3731824305e+02   6.1763430224e+01    0.4783548    0.2074082 -50.21  0.002060698    2.046    0.511
       161  -7.5862    147.7836     63.4439   9.3504138965e+01   3.9466846739e+01    0.2059646    0.1395836  40.84 0.0003479162    1.521    0.342
       162 -10.6890     38.1693     57.8411   1.2764449387e+02   6.1082066653e+01     0.540754    0.3283694 -24.12  0.002637403    2.212    0.548
       163  -9.0936     51.3311     60.5877   1.2295980756e+02   5.8944649760e+01    0.3684486    0.3082048  70.83  0.001379108    1.405    0.288
       164  -9.3779      2.2492     55.6641   1.4274264133e+02   6.4201662640e+01      0.62491    0.1415484 -65.37  0.002542533    2.843    0.648
       165  -7.1984    111.4801     58.5329   1.0120534098e+02   4.8809436414e+01    0.1499851    0.1427004  -0.48 0.0002236014    1.054    0.052
       166  -8.0261     99.4414     54.3429   1.0338707916e+02   5.2174489399e+01     0.277665    0.1410888 -37.10  0.001118964    1.979    0.495
       167  -8.7852    197.9994     53.2834   8.1036936647e+01   2.8552570169e+01    0.2298314    0.1981426 -22.41 0.0005176142    1.122    0.109
       168  -9.4934     75.0148     50.6752   1.1049323430e+02   5.7561627166e+01    0.4573692    0.3114901 -11.66 0.0005247255    2.105    0.525
       169  -7.5562    118.7872     51.3742   9.6608266944e+01   4.8465216852e+01    0.2148684    0.1358751  41.33 0.0004376175    1.630    0.386
       170 -10.3403     45.3437     49.0660   1.2203061185e+02   6.2266784901e+01     0.268073    0.2273203 -25.27 0.0005418673    1.217    0.178
       171  -9.8769     11.2530     46.7779   1.3710472752e+02   6.5807087931e+01    0.5234128    0.2704139 -32.23  0.001570528    2.204    0.546
       172  -8.2578    106.8610     48.1145   9.8819158998e+01   5.1743384735e+01    0.2062941     0.199486 -58.61            0    1.107    0.097
       173 -10.3988     26.9011     46.1694   1.2956169575e+02   6.4821972530e+01    0.8215606    0.3761816  -2.41  0.003010982    4.624    0.784
       174  -7.8581     92.4981     42.5322   1.0120021215e+02   5.5822867852e+01    0.1453024    0.1370204  -9.42 0.0004501333    1.019    0.018
       175  -8.8514      1.9969     45.5137   1.4124820450e+02   6.6559897072e+01    0.2583629    0.1650804 -58.45 0.0009608859    1.263    0.208
       176 -10.0653     83.2530     40.0517   1.0340176375e+02   5.8129315760e+01    0.2850457    0.2429746  16.30  0.001564868    1.237    0.192
       177  -9.5452     17.8981     38.0630   1.3174925058e+02   6.7365461872e+01    0.5414922    0.1330442 -44.51  0.001917134    3.824    0.738
       178  -9.0039      3.6596     40.1044   1.3943666563e+02   6.7727373466e+01    0.3499074    0.1091111 -76.84 0.0009699329    3.159    0.683
       179  -9.1920      6.4337     34.1058   1.3670114074e+02   6.8956141050e+01    0.3202742    0.2478571 -49.32  0.002156505    1.120    0.107
       180  -7.4708    123.5112     40.5075   9.1323419835e+01   4.9155430896e+01    0.1525515    0.1419182  16.32 0.0008095119    1.072    0.067
       181  -9.0678     91.5279     37.1243   9.9335474310e+01   5.6989060691e+01    0.3460692    0.2486742  34.03  0.001142332    1.463    0.316
       182  -9.0304     96.0147     33.3319   9.6280271011e+01   5.6676424086e+01    0.3143588    0.2379023   2.99 0.0003187828    1.555    0.357
       183  -8.5023    106.6395     36.5856   9.4386646017e+01   5.3768963615e+01    0.3365565    0.2208832  19.91  0.001446596    2.022    0.506
       184  -8.5903     69.5117     36.5936   1.0718936187e+02   6.1309242644e+01    0.2862209    0.1834309 -14.72  0.001274789    2.168    0.539
       185  -9.3758     54.6325     36.5101   1.1344073700e+02   6.3705866726e+01    0.3013449    0.2527478  11.78  0.001162008    1.287    0.223
       186  -8.6565     37.2960     35.9569   1.2134008603e+02   6.6055814546e+01    0.3285467    0.2077991  -4.68  0.001641964    2.192    0.544
       187  -7.6608     66.3219     35.3057   1.0794622944e+02   6.2102064581e+01    0.1409897    0.1037905  -7.81 0.0002612665    1.639    0.390
       188  -7.7073     77.3043     33.6660   1.0292310963e+02   6.0437977946e+01    0.1377542    0.1125995 -73.34 0.0007038149    1.663    0.399
       189  -7.9475     81.9826     32.3083   1.0060867644e+02   5.9772151769e+01    0.1958283    0.1791037  17.19 0.0003970984    1.086    0.079
       190  -8.1388    127.6768     30.4278   8.6393364122e+01   4.9627385287e+01    0.2440485    0.1747338   3.38 0.0006069531    1.686    0.407
       191  -7.8239    105.1529     31.1935   9.2590321879e+01   5.4968080779e+01    0.1958101    0.1751325 -64.84 0.0005378612    1.301    0.231
       192  -9.0881      1.5600     29.9293   1.3836287190e+02   7.0119038484e+01    0.2867008    0.1167876 -67.58  0.001433964    1.911    0.477
       193  -8.2620    112.3674     29.9289   9.0038457212e+01   5.3463959757e+01    0.3744441    0.1700525  40.84  0.001390916    2.421    0.587
       194  -8.1530    184.0304     27.8823   7.5308852313e+01   3.5260365187e+01    0.2327145    0.1646486  28.55 0.0006128886    1.644    0.392
       195  -7.2865    246.6746     27.6696   6.8477058942e+01   2.0238498298e+01    0.1300999   0.09420185  23.42 0.0006079309    1.705    0.413
       196  -7.4880    123.8044     26.9548   8.5916760121e+01   5.1081606263e+01    0.2197466    0.1479474  36.02 0.0004833494    1.567    0.362
       197 -10.1990     72.0232     25.8082   1.0144253659e+02   6.2814162433e+01    0.4903716    0.2668331  43.82  0.000802064    1.913    0.477
       198  -9.1109     61.4452     26.8179   1.0628777731e+02   6.4509884587e+01    0.3346011    0.2209175 -30.05   0.00151962    1.474    0.321
       199  -8.5207     57.4723     25.4659   1.0741800786e+02   6.5408328741e+01    0.2436904    0.2040573  44.36 0.0008777459    1.370    0.270
       200  -8.4914     60.1581     22.8768   1.0500200523e+02   6.5433378250e+01      0.22972    0.1922873 -22.59 0.0002668417    1.090    0.083
       201 -10.9660     48.2334     25.5405   1.1176330312e+02   6.6793477328e+01    0.2732338    0.2354241  -2.47 0.0003711829    1.171    0.146
       202  -7.5359    102.7685     25.2163   9.0709353662e+01   5.6420713403e+01    0.2436407   0.09793405  45.66 0.0008884679    2.468    0.595
       203  -8.1104    110.6553     24.6743   8.8276545174e+01   5.4633087906e+01    0.1590433    0.1075322  23.24  0.000625234    1.742    0.426
       204  -8.5794     80.0246     23.2581   9.7213484481e+01   6.1677210585e+01    0.4730103    0.2218193  39.36   0.00194756    2.282    0.562
       205  -8.7155     84.6434     21.6621   9.4822037988e+01   6.0972218722e+01    0.3453206    0.2418418  42.26  0.001127608    1.426    0.299
       206  -8.1227     27.5035     22.0152   1.2108666424e+02   7.0013995171e+01    0.3114204    0.1287827 -40.04   0.00138932    2.275    0.560
       207  -8.4554    183.9935    250.0000   1.2304730647e+02   4.1206838695e+00    0.1811407   0.04333386  38.57 0.0008094936    2.992    0.666
       208  -7.5299    130.8386     22.1395   8.2384816509e+01   4.9922393343e+01     0.207184    0.1634947  30.89  0.000396087    1.310    0.237
       209  -8.2004    146.1626     20.1507   7.8593086265e+01   4.6153548315e+01    0.2595773    0.1998895   2.88  0.001276596    1.450    0.310
       210  -8.4068     92.2941     20.8339   9.1900283965e+01   5.9439071343e+01    0.2703008    0.2262854  30.34 0.0008749076    1.171    0.146
       211  -8.7565    150.8925    249.5105   1.2849653306e+02   8.5795835059e+00    0.1658112   0.07598767  37.65 0.0008245629    1.554    0.357
       212  -7.9320    116.5794     20.0316   8.4767350783e+01   5.3805953261e+01    0.2179485    0.1407104 -26.88  0.000318677    1.553    0.356
       213  -8.1875     45.4536     20.0084   1.1055440307e+02   6.8232775897e+01    0.2416296    0.1712627 -37.04  0.001370375    1.250    0.200
       214  -7.4497    161.6758     19.2556   7.5672779879e+01   4.2130726629e+01    0.1480733    0.1089419 -66.86 0.0001654567    1.548    0.354
       215  -7.6671     36.3341     19.6783   1.1516704960e+02   6.9497694114e+01    0.1192546    0.1017721  88.06  0.000705008    1.705    0.413
       216  -8.2679    127.8283     16.9136   8.0896552656e+01   5.1334772789e+01    0.2219186    0.1870951  30.16 0.0003801321    1.189    0.159
       217  -7.8927    189.4149     15.7623   7.0791151896e+01   3.5183060891e+01    0.1964252    0.1368615  -4.34  0.000946929    1.636    0.389
       218  -9.8294    192.4126    244.5452   1.2103233798e+02   3.5514784164e+00    0.3188032    0.1838123 -23.37  0.001818444    2.246    0.555
       219  -8.5039     50.4843     15.3015   1.0569022295e+02   6.8325473608e+01    0.2611494    0.1950581  -1.48 0.0007237531    1.452    0.311
       220  -8.3085    146.6586     14.1615   7.6233230270e+01   4.6691992596e+01    0.2293507    0.1962157  85.39  0.000312075    1.225    0.183
       221  -7.7695    141.3277    248.3404   1.3000398637e+02   9.9872466145e+00    0.1024866   0.06963681  16.41 0.0007051533    1.736    0.424
       222  -7.9681     18.1675    247.6042   1.5082265623e+02   2.4321526118e+01    0.1178708   0.07459616  31.12 0.0006604699    1.697    0.411
       223  -8.7244    243.2149    245.0009   1.1316186141e+02  -3.0154503412e+00    0.2132273    0.1202155 -14.26  0.001566598    1.845    0.458
       224  -8.4421     88.6349     13.1484   8.9357657177e+01   6.1321583361e+01    0.2919447    0.1596958  37.36 0.0009100116    1.917    0.478
       225  -8.8988    233.7253    244.6043   1.1453210391e+02  -1.8131387507e+00    0.2283665    0.1212483 -16.65  0.001582209    2.096    0.523
       226  -7.6429     88.5035    246.4740   1.3895121983e+02   1.6973202177e+01     0.103484   0.07452083  46.02 0.0008098555    1.035    0.034
       227  -7.8309    123.7581    250.4194   1.3319653418e+02   1.2034117645e+01    0.1455021   0.07659411  32.01 0.0008287007    1.611    0.379
       228  -8.7450    176.5111    242.9949   1.2347625704e+02   5.8573001732e+00    0.2157159    0.1052069  16.63   0.00103518    3.426    0.708
       229  -8.3866     95.2693    243.5871   1.3756535008e+02   1.6544091300e+01     0.145386   0.07976533  32.39 0.0009453971    1.638    0.389
       230  -8.7788    249.4712    238.4596   1.1134471402e+02  -3.2517373554e+00    0.1888915    0.1037996  -1.69  0.001310508    1.793    0.442
       231  -7.9698    201.4952    240.9997   1.1911847383e+02   2.6896502836e+00    0.2015234    0.0956508 -25.61  0.001212555    2.777    0.640
       232  -9.4001    170.0152    240.3261   1.2426251504e+02   7.0383847480e+00    0.2846667      0.17595   2.73  0.001750592    2.399    0.583
       233  -7.7753     25.8668    241.1380   1.4935319482e+02   2.4559346908e+01    0.1196529   0.09689412  45.80 0.0007599685    1.327    0.246
       234  -9.0205    242.1779    236.8189   1.1220270848e+02  -2.2154737512e+00    0.2656429    0.1379514  -1.15  0.001141287    2.152    0.535
       235  -7.9317    167.9281     13.2239   7.2655314274e+01   4.1105032087e+01    0.2020165     0.117773  71.39 0.0008849738    1.707    0.414
       236  -7.1404    214.3280    239.2961   1.1684198767e+02   1.1484602531e+00    0.1086588   0.06119924  17.26 0.0003498402    1.632    0.387
       237  -7.7246    121.6987    239.0356   1.3252952897e+02   1.3767135996e+01    0.1532059    0.0975139  25.21 0.0006655894    1.654    0.395
       238  -9.6524    158.2139    244.9639   1.2678268872e+02   8.1199914698e+00    0.2183932    0.1182176  41.49  0.001446512    1.394    0.283
       239  -7.8378     79.0228    238.5101   1.4005660417e+02   1.9238527666e+01    0.1620616   0.07848696  37.99  0.001028758    1.585    0.369
       240  -8.1581    195.8772    236.2045   1.1942900205e+02   3.9328099195e+00    0.1612513    0.1135936  34.03 0.0007028808    1.163    0.140
       241  -9.6293    189.1296    234.6181   1.2034909582e+02   5.0277265701e+00      0.24202    0.1894675  38.21  0.001562861    1.289    0.224
       242  -8.5175    183.6555    235.7851   1.2141376123e+02   5.6594718394e+00    0.1556687     0.104931  27.35 0.0007640964    1.132    0.117
       243  -7.5797    138.3072    235.2899   1.2921775222e+02   1.2013217070e+01    0.1031441   0.07258472  19.00 0.0004745082    1.576    0.365
       244  -8.2464    161.9293    234.2510   1.2495068640e+02   8.8623244250e+00    0.1986894     0.116075  28.03 0.0006293615    1.479    0.324
