#   1 NUMBER                 Running object number                                     
#   2 MAG_AUTO               Kron-like elliptical aperture magnitude                    [mag]
#   3 X_IMAGE                Object position along x                                    [pixel]
#   4 Y_IMAGE                Object position along y                                    [pixel]
#   5 X_WORLD                Barycenter position along world x axis                     [deg]
#   6 Y_WORLD                Barycenter position along world y axis                     [deg]
#   7 A_WORLD                Profile RMS along major axis (world units)                 [deg]
#   8 B_WORLD                Profile RMS along minor axis (world units)                 [deg]
#   9 THETA_WORLD            Position angle (CCW/world-x)                               [deg]
#  10 FWHM_WORLD             FWHM assuming a gaussian core                              [deg]
#  11 ELONGATION             A_IMAGE/B_IMAGE                                           
#  12 ELLIPTICITY            1 - B_IMAGE/A_IMAGE                                       
         1 -12.2039     70.6165     29.0973   9.8402934632e+01   6.2173110032e+01    0.4589558    0.2383063 -33.54  0.001357064    1.789    0.441
         2 -11.6484     58.4861     19.3065   9.8523578700e+01   6.5571358809e+01    0.3600727     0.199742 -45.69  0.001820907    2.180    0.541
         3 -11.7684     34.1013     17.7257   1.0819817111e+02   6.9112380420e+01    0.3061045    0.2045258 -36.45  0.001309033    1.295    0.228
         4 -10.3255      6.6811     16.5243   1.2133344431e+02   7.1809817608e+01    0.4045762    0.1376811 -27.31  0.001553991    4.650    0.785
         5 -11.8260     42.1726     13.9296   1.0271000270e+02   6.8682725427e+01    0.4287969    0.2185558 -33.38  0.002257338    1.712    0.416
         6 -12.5129     49.0454     10.4226   9.7993764816e+01   6.8205708622e+01    0.4825347     0.406824 -65.79  0.003060114    2.072    0.517
         7 -10.8556     26.3820     15.4416   1.1080756852e+02   7.0313718345e+01    0.3233497    0.1293894 -33.51  0.001581687    2.275    0.561
         8 -11.1618     13.0237     13.8385   1.1685140301e+02   7.1798444550e+01    0.2673356    0.1208893 -41.58 0.0006502437    1.691    0.409
         9 -11.8911     16.8954      7.5392   1.1182254339e+02   7.2468632756e+01    0.3005921    0.1885913  -0.33   0.00159618    1.666    0.400
        10 -11.6479    178.0324     12.9140   6.7657828441e+01   3.9358137764e+01    0.4286758    0.2275454  79.90   0.00185476    1.958    0.489
        11 -10.9726     78.0203     11.6034   8.7920349032e+01   6.3171214320e+01    0.2825774    0.1712839 -22.49 0.0007842446    1.590    0.371
        12 -10.5237     33.6289     12.1105   1.0571173283e+02   7.0018027059e+01    0.1703078    0.1459637   9.51 0.0004534206    1.252    0.201
        13 -11.0768     74.4532      9.5785   8.8111790702e+01   6.4070255130e+01    0.4134932    0.1041174 -30.39   0.00150376    3.636    0.725
        14 -10.5401      2.4278     10.6801   1.2118628192e+02   7.3087881820e+01    0.1529292    0.1176201  20.99 0.0005472159    1.617    0.382
        15 -11.8897    176.2570      7.3411   6.6169655293e+01   4.0375365035e+01    0.2938535    0.2191367  56.01 0.0009716693    1.293    0.226
        16 -11.5707    107.6946      7.4438   7.7908322169e+01   5.7397357973e+01    0.2530872     0.229448  63.11 0.0005645249    1.185    0.156
        17 -11.1027     24.6459      6.9195   1.0747240097e+02   7.1788271257e+01    0.1771621    0.1502182 -18.85 0.0005169788    1.213    0.176
        18 -10.2108     61.0285      6.4736   9.1251610311e+01   6.6800813302e+01    0.1755807    0.1109322  40.45  0.001016873    1.551    0.355
        19 -11.3561     30.6356      3.7298   1.0279024753e+02   7.1550363956e+01    0.2942968    0.2484693 -66.15  0.001944547    2.296    0.564
        20 -10.7798    134.6004      4.0958   7.1168349102e+01   5.1302678641e+01    0.2641656    0.1742858  57.22 0.0006214317    1.350    0.259
        21 -10.0531    138.3141      1.3146   6.9521576725e+01   5.0616690039e+01    0.2067655    0.1153112  51.13 0.0006732118    1.603    0.376
        22 -11.4337     68.7361      3.9882   8.7260387369e+01   6.5724085528e+01    0.2299541    0.1422451  25.81 0.0006058258    1.570    0.363
        23 -10.1646      1.8686      4.1733   1.1855357025e+02   7.4194308138e+01    0.1563055   0.09186735 -29.06 0.0007212426    1.341    0.254
        24 -10.4620    233.3842      2.7883   5.9377340433e+01   2.6507671338e+01    0.1621277    0.1234194 -17.06 0.0003834542    1.592    0.372
        25  -9.6472    118.6835      3.3161   7.3831489817e+01   5.5225319617e+01    0.1316301     0.100356 -63.08 0.0007037863    1.650    0.394
        26 -11.0108     91.3973      2.5523   7.9782972694e+01   6.1412163649e+01    0.2132931    0.1945133  61.76  0.000777765    1.263    0.208
        27 -11.3259     75.2352      2.5880   8.4446041243e+01   6.4656059079e+01    0.3203543    0.2171534  68.31   0.00175579    2.063    0.515
        28 -10.9525     38.1235      2.4158   9.8530735478e+01   7.0762550385e+01    0.1908864    0.1667354 -47.99 0.0004009944    1.748    0.428
        29 -11.2464    217.7244      3.0439   6.0697892935e+01   3.0260388473e+01    0.2632899    0.2301077 -11.61 0.0009931191    1.396    0.284
        30 -11.3602    159.7356      1.8614   6.6552804749e+01   4.5141046942e+01    0.3515434     0.174224  63.47  0.001369626    1.757    0.431
        31 -10.4343     86.2839      2.0096   8.0911701845e+01   6.2523580266e+01    0.1726821    0.1481477  12.74 0.0001964155    1.050    0.047
        32 -10.6631    180.0116      1.4720   6.3944734299e+01   3.9952563124e+01    0.2092618    0.1229912  72.94  0.000322179    1.543    0.352
        33 -10.5520     53.0596      1.5132   9.1689716641e+01   6.8664011157e+01    0.2884434    0.1096395  46.50   0.00135048    2.680    0.627
        34 -12.6558    117.0775    218.7939   1.3007460594e+02   1.4898335378e+01    0.5328764     0.311529 -89.71  0.001744024    2.527    0.604
        35 -10.8777    160.7267    249.2597   1.2580341371e+02   3.0973037000e+00    0.2317208    0.1944883 -59.50  0.001699503    1.550    0.355
        36 -11.3388    150.4733    248.6201   1.2751163125e+02   4.8033667770e+00    0.2953703    0.2022853  23.50  0.001513984    1.792    0.442
        37 -12.8475    147.2773    240.5993   1.2712344494e+02   6.4711342211e+00    0.3843973    0.3276666  61.11  0.002767059    1.162    0.140
        38 -11.3367    138.3461    249.4945   1.2972320271e+02   6.5771990757e+00    0.2657098    0.1797636  54.01  0.001034653    1.231    0.187
        39 -12.1402    142.0806    244.5272   1.2850919182e+02   6.7185612169e+00    0.3896331    0.3215237 -67.44  0.002021889    1.503    0.335
        40 -12.7430    128.1211    250.2662   1.3158079439e+02   8.0422225108e+00    0.3410567    0.2161157  67.73  0.002125416    1.717    0.418
        41 -11.9810    122.2128    249.0112   1.3247561250e+02   9.1323630661e+00    0.2894273    0.2521873 -40.97  0.001012945    1.643    0.391
        42 -12.3038    118.9923    248.6656   1.3299934935e+02   9.6735206105e+00    0.2591234    0.2270246  40.33 0.0008206469    1.313    0.238
        43 -13.7194     92.3338    224.4250   1.3534977451e+02   1.7708425054e+01     1.769397    0.6487306  55.70  0.007837098    2.694    0.629
        44 -13.6323     68.2849    189.9064   1.3647889440e+02   2.7862546020e+01    0.6030835    0.4616703  86.13  0.003893106    1.123    0.110
        45 -13.2330     75.0735    183.1131   1.3428644192e+02   2.8349236067e+01     1.296518    0.6429619  87.33  0.005546358    2.826    0.646
        46 -13.1586     80.2376    206.5992   1.3583820202e+02   2.2813425935e+01      1.28838    0.7433068  50.51  0.007414388    1.472    0.321
        47 -12.7157     73.4162    205.2300   1.3703274202e+02   2.4045124163e+01     0.340223     0.252398 -77.93 0.0003186306    1.315    0.240
        48 -12.4529     71.8322    198.8765   1.3670161693e+02   2.5533365915e+01     1.336518    0.6472895  30.86  0.006268801    2.808    0.644
        49 -13.3447     89.0799    244.2173   1.3776251208e+02   1.4771531782e+01    0.4220918     0.203785  49.27 0.0007116357    1.582    0.368
        50 -12.7819     83.1799    229.8238   1.3753488728e+02   1.8066889346e+01    0.4320405     0.343219  24.85  0.002878924    1.864    0.464
        51 -12.3508     78.3884    222.0261   1.3769726577e+02   2.0148887655e+01    0.2728669    0.2064164  57.27 0.0003663973    1.116    0.104
        52 -12.3080     70.1805    213.1922   1.3841692032e+02   2.2941478340e+01    0.5070899    0.2948919  79.84 0.0006973615    1.710    0.415
        53 -13.9007     75.0328    240.1527   1.3984671272e+02   1.7398579809e+01    0.4844508    0.2387427  57.76  0.001766142    1.639    0.390
        54 -12.9244     67.7990    234.3778   1.4064443130e+02   1.9367807900e+01    0.3517377    0.2425861 -85.11  0.001780218    1.402    0.287
        55 -14.7286     73.8626    228.5002   1.3909342562e+02   1.9597655068e+01     0.713995    0.4465719 -74.85  0.004638249    1.639    0.390
        56 -12.9314     62.5305    219.7016   1.4040575008e+02   2.2727156873e+01    0.2338087    0.1823698  67.10 0.0005870343    1.070    0.065
        57 -12.1592     59.2552    215.4681   1.4065740231e+02   2.3952132808e+01    0.7145365    0.5344859 -56.63  0.003688406    1.782    0.439
        58 -12.8853    112.7906    225.9981   1.3171572536e+02   1.4318883173e+01    0.4726623    0.3520493 -35.58  0.002881296    2.115    0.527
        59 -13.1145    107.2465    225.5568   1.3269907551e+02   1.5257425051e+01     0.493663    0.2838275  65.84  0.001521251    1.800    0.444
        60 -13.6532    113.7730    239.0646   1.3294020031e+02   1.1979773713e+01    0.5527294    0.3598461  46.58  0.001901488    1.246    0.197
        61 -13.1854     96.9708    238.6033   1.3588105082e+02   1.4569342972e+01    0.4078488    0.3617955   7.29  0.002298294    1.830    0.454
        62 -13.6581     88.3575    236.2755   1.3719158421e+02   1.6207895094e+01    0.8831453    0.4221279  33.99  0.003521715    2.531    0.605
        63 -11.2897     91.5324    249.9051   1.3782665738e+02   1.3501641869e+01    0.2727194    0.1583109  45.75  0.001271103    1.393    0.282
        64 -12.4189     95.5212    247.4926   1.3693948950e+02   1.3321125960e+01    0.3416376    0.2010663  73.94   0.00142139    1.786    0.440
        65 -10.5262     83.6826    250.6640   1.3921188532e+02   1.4474006994e+01    0.1408517   0.07730765  50.11 0.0008920941    1.372    0.271
        66 -11.8559     52.5346    250.4988   1.4432386354e+02   1.8561795119e+01    0.2001189   0.08537549  52.24 -4.027796e-05    1.698    0.411
        67 -14.5864     47.6392    199.1344   1.4149335581e+02   2.8613403139e+01     1.292277     0.911343  32.55  0.008323718    1.812    0.448
        68 -13.2207     47.2436    229.7386   1.4386680809e+02   2.2800117681e+01    0.2641278    0.1788021  62.20 0.0007207561    1.108    0.097
        69 -14.3207     23.8131    198.9597   1.4600632365e+02   3.1313661342e+01     1.075825    0.7223919  56.02  0.004870371    1.298    0.229
        70 -14.7783     33.2943    225.3521   1.4597697589e+02   2.5225681932e+01     1.436266    0.5996032  47.14  0.008563113    1.897    0.473
        71 -14.3849     33.4248    215.6720   1.4535030719e+02   2.7018840039e+01     1.085495    0.5395749  70.69  0.005129101    1.714    0.416
        72 -12.6774     46.9164    244.0666   1.4483973794e+02   2.0324897042e+01    0.2585035     0.185918 -89.63 0.0009061554    1.310    0.237
        73 -14.0633     42.1362    239.1427   1.4532515989e+02   2.1741778945e+01     0.582571     0.505426 -18.01  0.003470419    2.459    0.593
        74 -14.1314      3.8228    200.2311   1.4970733993e+02   3.2992958351e+01    0.6931143    0.2817701 -78.95  0.004091613    1.992    0.498
        75 -15.9951      9.8747    217.0052   1.4949040720e+02   2.9224538837e+01     1.629009    0.6881946 -78.16   0.01002185    2.013    0.503
        76 -14.7563     36.1518    248.8656   1.4683916960e+02   2.0777008175e+01    0.8178112     0.231676  39.89  0.004167826    3.022    0.669
        77 -14.6691      4.4394    235.2585   1.5116717553e+02   2.6458767664e+01    0.4077905    0.3108824  44.53  0.003423536    1.616    0.381
        78 -16.4099     19.8389    247.8488   1.4932405392e+02   2.2743904047e+01     1.017136    0.7824729  40.81  0.008379137    1.713    0.416
        79 -16.0937      6.0778    245.6762   1.5132085948e+02   2.4514977001e+01    0.9520455    0.5957907 -62.05  0.007144005    2.294    0.564
        80 -11.8008    108.7963    215.7754   1.3130496797e+02   1.6760245484e+01    0.3114008    0.2254263  48.66  0.000934904    1.194    0.163
        81 -11.8009    112.3819    214.1815   1.3042395871e+02   1.6480171866e+01    0.3461062    0.1877424 -68.71  0.001801441    2.172    0.540
        82  -9.9283    211.6461    228.1885   1.1396711259e+02  -2.3136676000e+00     0.146758    0.1045648 -15.44 0.0003755011    1.585    0.369
        83 -10.7915    201.7801    226.5950   1.1544575127e+02  -5.0469980637e-01     0.224047    0.1637368 -17.41  0.001415796    1.590    0.371
        84  -9.7215    193.5109    248.4753   1.2005145503e+02  -1.9580368564e+00    0.1157887   0.08982923  35.54 0.0008098094    1.036    0.035
        85 -11.8164    158.0714    224.4718   1.2307141552e+02   7.1413483642e+00    0.2487694    0.2047112  34.53 0.0003258541    1.152    0.132
        86 -10.1417    170.9267    225.4573   1.2083637446e+02   4.8162089109e+00    0.1707717   0.09258416  58.85 0.0008058001    2.377    0.579
        87 -11.8273    162.6281    221.9329   1.2186728241e+02   6.7613987915e+00    0.3929715    0.2578302 -71.25     0.001176    2.377    0.579
        88 -10.9291    162.4525    217.5395   1.2126678056e+02   7.4804226680e+00    0.2276515    0.1443891  42.69 0.0006767507    1.327    0.246
        89  -9.4427     52.2511    225.2699   1.4268234270e+02   2.3001530540e+01    0.1506853   0.09543774  73.89  0.000226973    1.279    0.218
        90 -11.0202     53.2434    220.8654   1.4217936108e+02   2.3694560097e+01    0.2748415    0.1707126  84.64  0.001278699    1.411    0.291
        91 -10.6194    180.0666    222.8081   1.1877368276e+02   3.6558765989e+00    0.3544132    0.2003515  15.26  0.001442725    3.335    0.700
        92  -9.8358    184.4462    222.5424   1.1793438101e+02   2.9506198548e+00    0.1847236   0.09959317  34.40  0.000474621    1.686    0.407
        93 -10.1560    250.4413    220.4642   1.0618180723e+02  -7.4061449126e+00    0.1521175   0.09744678 -14.11 5.073281e-05    1.541    0.351
        94 -10.0671    149.2191    223.5600   1.2459778266e+02   8.7797042160e+00    0.1639531    0.1035019  35.99 0.0002806254    1.484    0.326
        95 -11.7422    189.3454    207.3541   1.1462417392e+02   4.3438925492e+00    0.3580318    0.3523362 -18.36  0.002462299    1.200    0.167
        96 -11.8802    193.3039    214.5286   1.1506563325e+02   2.5902038617e+00    0.3220428    0.2521476 -64.83            0    1.865    0.464
        97 -10.0472    243.6949    221.0136   1.0737591657e+02  -6.4596478875e+00    0.1560185    0.1265159   7.58  0.000575764    1.074    0.069
        98 -10.6500    129.9120    206.8879   1.2604785277e+02   1.4908797593e+01      0.25446    0.1886918 -62.27 0.0006985356    1.513    0.339
        99 -10.8300    124.7939    219.9735   1.2874746889e+02   1.3440898593e+01    0.2407692     0.167644 -85.76 0.0008785021    1.747    0.428
       100 -12.0162    132.8815    217.6401   1.2690765802e+02   1.2507368873e+01    0.5082754    0.3342641  67.76  0.001757518    1.691    0.408
       101 -11.1712    130.1599    211.9631   1.2668596499e+02   1.3955798715e+01     0.343715    0.2339432  69.42  0.001564412    1.610    0.379
       102 -10.3509    128.2941    217.6960   1.2779351715e+02   1.3260534938e+01    0.1998555    0.1571574  69.57 0.0001737856    1.236    0.191
       103 -10.6855    124.5149    216.0777   1.2831413797e+02   1.4167923691e+01    0.2898532    0.2072962  62.99  0.001126822    1.305    0.234
       104 -11.3633    140.6220    218.6229   1.2555893726e+02   1.1040082830e+01    0.2989812    0.2107052  63.50 0.0007501731    1.446    0.308
       105  -9.9409    221.2876    219.6784   1.1093144259e+02  -2.7917289934e+00    0.1049488   0.09509189  66.48 0.0003925609    1.600    0.375
       106 -11.1338    206.2600    218.9822   1.1344979098e+02  -2.3114991515e-01    0.2117121    0.1516487  42.37 0.0003227491    1.274    0.215
       107 -11.9237    176.6834    216.4372   1.1843424632e+02   5.1851200595e+00    0.3090383    0.2192743  25.50 0.0006187861    1.456    0.313
       108 -10.8937    229.1491    216.8539   1.0911127431e+02  -3.6999015985e+00    0.2372009    0.1756563  33.11 0.0009331025    1.183    0.155
       109 -10.9491    230.6756    211.7685   1.0798297181e+02  -3.3059826607e+00    0.3027686     0.213443 -42.18   0.00184942    1.796    0.443
       110 -11.0387     49.9275    216.2968   1.4243242738e+02   2.4966233831e+01    0.2126661     0.163843 -66.10  0.001162793    1.575    0.365
       111 -10.2743    145.9001    214.9473   1.2404676285e+02   1.0759419206e+01    0.1732074    0.1609307  30.24 0.0006095732    1.199    0.166
       112 -11.9529    217.0618    212.7505   1.1050986524e+02  -1.1986548716e+00    0.2804521    0.2137022  33.53  0.000792451    1.139    0.122
       113 -12.1592    211.3455    207.8949   1.1069545654e+02   4.2798498815e-01    0.4592102    0.2781577  41.17  0.002551466    1.467    0.318
       114 -11.1989    206.0244    207.9909   1.1166859746e+02   1.3298222520e+00    0.2153259    0.2032601  71.21  0.001113633    1.386    0.279
       115 -10.5362    160.8346    212.5068   1.2083065570e+02   8.5709820475e+00    0.1932633    0.1593402  65.63 0.0005956066    1.298    0.230
       116 -10.5184    153.0011    212.7455   1.2236808535e+02   9.9003087410e+00    0.1723836    0.1438612  46.88 0.0002427672    1.018    0.018
       117 -11.8197    238.0000    210.5914   1.0653736302e+02  -4.3314184707e+00    0.2572758    0.1934768  -6.26  0.001676083    1.265    0.210
       118 -10.8130    142.8368    210.8312   1.2406018877e+02   1.1989664938e+01    0.1749697    0.1304386  62.41            0    1.325    0.245
       119 -11.8527    198.4546    219.7969   1.1497433857e+02   9.6722499933e-01    0.4352357    0.3227921  47.47  0.002718604    1.325    0.245
       120 -11.8735    112.2939    205.3488   1.2934747858e+02   1.8133969046e+01    0.2697509    0.1959391  71.91            0    1.352    0.260
       121 -12.1661    183.3054    204.3859   1.1526617765e+02   5.8783980410e+00    0.2724302    0.2291135 -37.46 0.0002092517    1.352    0.260
       122 -10.1944    145.2386    205.6550   1.2284177393e+02   1.2473380461e+01     0.187758    0.1570028 -48.47 0.0002608552    1.395    0.283
       123 -10.1825    145.9395    202.4671   1.2222772931e+02   1.2913127897e+01    0.1803558    0.1703309  76.48 0.0004339863    1.122    0.108
       124 -10.4638    135.5973    205.7430   1.2476124530e+02   1.4139765293e+01    0.2890816    0.1599935  65.89 0.0009702242    2.446    0.591
       125 -11.9528    199.4906    204.7881   1.1231309822e+02   2.9345999350e+00    0.2324992    0.1937608  33.53  0.000354408    1.053    0.050
       126 -10.6151    117.6128    204.7245   1.2820446509e+02   1.7377283606e+01    0.2876035      0.24909  89.19  0.001866928    1.166    0.143
       127 -10.8818    115.8235    200.4293   1.2799410028e+02   1.8489504983e+01    0.2940188    0.2655302  31.06  0.001350314    1.338    0.253
       128  -9.8215    152.5893    204.5012   1.2122109965e+02   1.1373568766e+01    0.1294354    0.1136785  50.13 0.0001903115    1.017    0.017
       129 -11.3193    234.6418    202.3547   1.0564574263e+02  -2.7415927419e+00    0.3361554    0.2557129  77.14  0.001187332    2.767    0.639
       130 -11.0410    208.8070    202.8327   1.1027438699e+02   1.5834324736e+00    0.1928891      0.15569  18.12 0.0006893933    1.143    0.125
       131 -10.2714    122.0312    203.5289   1.2716011231e+02   1.6863193940e+01    0.1995908    0.1034652  51.46 0.0009709872    1.727    0.421
       132 -11.2534    121.5162    199.0613   1.2665070062e+02   1.7794368438e+01    0.2460742    0.2149291 -87.63 0.0005879474    1.168    0.144
       133 -13.2066     42.6699    210.9746   1.4336019063e+02   2.6860447735e+01    0.7963269    0.3465246  47.35  0.004511057    1.899    0.474
       134 -12.7548    241.2060    200.0281   1.0411353392e+02  -3.5128731694e+00    0.3301707    0.2991868 -41.33 0.0007937651    1.499    0.333
       135 -11.6285    247.1533    199.9495   1.0310900291e+02  -4.4586625410e+00    0.2357772    0.1935738  47.33 0.0004388401    1.534    0.348
       136 -10.5050    220.4456    201.2721   1.0791611677e+02  -2.1151490990e-01     0.161338    0.1189761 -43.69 0.0009474825    1.659    0.397
       137 -10.6337    166.9588    201.5211   1.1793713463e+02   9.2968053240e+00    0.2010598    0.1152859  44.78 0.0009638013    1.529    0.346
       138 -12.7068    216.1033    194.6533   1.0749165873e+02   1.4816266594e+00     0.568876    0.3259542 -12.33  0.002607825    2.549    0.608
       139 -11.9033    139.4583    197.5081   1.2277868017e+02   1.4963740228e+01    0.4194819     0.326989 -87.48  0.001870431    1.504    0.335
       140 -11.9465    139.9445    194.2439   1.2217892908e+02   1.5482667808e+01    0.3744523    0.2300895 -42.64 0.0007300785    1.969    0.492
       141 -11.9899    205.8326    198.0877   1.0997746338e+02   2.8019953190e+00     0.327539    0.2813251  50.89  0.002052842    1.296    0.228
       142 -11.5007    194.7780    186.5175   1.0993832588e+02   6.6233729070e+00     0.392875    0.2957729  85.76   0.00125204    2.227    0.551
       143 -10.8877    190.5055    186.9494   1.1083671410e+02   7.3568773122e+00    0.2575924    0.2131562  27.41  0.001043763    1.137    0.121
       144 -13.3555    188.4204    196.4065   1.1293403163e+02   6.2130833988e+00    0.4787745    0.3101373  36.20 0.0005828655    1.406    0.289
       145 -12.1286    188.7839    191.1593   1.1193376023e+02   6.9910542850e+00    0.2375123    0.2043729  40.73  0.000385514    1.080    0.074
       146 -11.2497    106.9356    194.8147   1.2906351172e+02   2.1050387761e+01    0.3177506    0.2709188  -5.66  0.001879178    1.837    0.455
       147 -11.7538    100.5468    198.5692   1.3085973544e+02   2.1332257901e+01    0.4731408    0.2237019  50.19  0.001221616    1.870    0.465
       148 -11.3261     94.7433    195.3681   1.3165017184e+02   2.2879531041e+01     0.285499    0.2052669  28.35 0.0009783349    1.815    0.449
       149 -13.5781     17.2349    209.3240   1.4782495191e+02   2.9952067007e+01    0.4510123    0.2375449  59.64  0.002356319    1.479    0.324
       150 -10.7624    223.8551    198.1388   1.0675031812e+02  -3.6230006680e-01    0.1824614    0.1347351  12.98  0.000894327    1.324    0.244
       151 -10.7268    170.0135    196.5601   1.1652085658e+02   9.5756660504e+00    0.2557042    0.1814092 -33.52 0.0009182433    1.667    0.400
       152 -12.1303    248.5648    182.9003   9.9661714335e+01  -2.4750863949e+00    0.6242912    0.2395357 -42.47 0.0008397651    3.211    0.689
       153 -12.4586    250.5679    194.6762   1.0157392065e+02  -4.3377404744e+00    0.2597828    0.1525405 -26.27 0.0005705103    1.653    0.395
       154 -13.0086    246.1796    190.8857   1.0158594292e+02  -3.1385586610e+00    0.3583198    0.3095458  31.88 0.0006665949    1.256    0.204
       155 -10.9271    198.8566    195.1041   1.1073489652e+02   4.5106278340e+00    0.1824896    0.1661821  43.64 0.0003377159    1.161    0.138
       156 -11.6282    113.0454    193.9589   1.2768262586e+02   2.0211624740e+01    0.3818658    0.2678174  61.64  0.002081885    1.325    0.245
       157 -11.2860    233.7151    193.8793   1.0425270753e+02  -1.4591985358e+00    0.2289682    0.1789277  14.52 0.0006088892    1.145    0.127
       158 -11.9897    154.5679    192.2197   1.1887785853e+02   1.3189608726e+01    0.3033133    0.2370102  26.46 0.0003062769    1.411    0.291
       159 -11.8912    149.3401    191.2336   1.1977913444e+02   1.4333300000e+01    0.3218612    0.2536319 -87.03 0.0005620656    1.546    0.353
       160 -10.2958     89.7380    193.9958   1.3251396261e+02   2.3925258537e+01    0.1711067    0.1401729  86.07 0.0001870855    1.110    0.099
       161 -10.8174     87.6241    189.7011   1.3242932322e+02   2.5125831735e+01      0.32683    0.1793266 -52.71  0.001656536    2.105    0.525
       162 -10.8568     91.5306    188.0945   1.3140601341e+02   2.4862009513e+01    0.2173984    0.1770748  66.73 0.0004334072    1.052    0.049
       163 -11.6049    209.7356    192.1415   1.0818465147e+02   2.9890725931e+00    0.2240275    0.1638006 -37.51  0.001282774    1.494    0.331
       164 -12.4670    163.9708    190.9664   1.1677245837e+02   1.1666456477e+01    0.4319158    0.3906547 -66.99  0.001895086    1.253    0.202
       165 -10.9454    178.3137    190.1689   1.1378820965e+02   9.1148579942e+00    0.3604175    0.1876601 -48.88  0.001660389    2.230    0.551
       166 -10.7595    124.1672    191.8701   1.2507391011e+02   1.8726408658e+01    0.2052392    0.1803212  59.70 0.0004916425    1.031    0.030
       167 -10.8431    120.4937    188.5276   1.2534743836e+02   2.0021774303e+01    0.3071101    0.1638209 -74.55  0.001299468    2.727    0.633
       168 -13.1996      2.3531    189.6936   1.4942802285e+02   3.5208207827e+01    0.3355431    0.1768689  64.37   0.00203835    1.507    0.337
       169 -12.0960      7.3543    186.5414   1.4831919155e+02   3.5405879792e+01    0.2721267    0.1573833  55.41 0.0008215113    1.483    0.326
       170 -12.7649      1.5191    182.8961   1.4921446105e+02   3.6654292276e+01    0.3391461     0.111194 -82.59 0.0009247392    2.472    0.595
       171 -12.8818    106.4478    187.5427   1.2817429727e+02   2.2594783756e+01    0.7118552    0.3613143  54.68 0.0005362013    1.912    0.477
       172 -11.6073    103.4953    181.9908   1.2802207540e+02   2.4226499814e+01    0.3233319    0.2410809  54.18 0.0008265763    1.212    0.175
       173 -12.6403    104.0039    178.0123   1.2733358523e+02   2.4977812885e+01    0.5702704    0.3231274  68.61  0.002100896    2.197    0.545
       174 -11.5290     81.9212    189.3585   1.3358192890e+02   2.6046344547e+01    0.3004672    0.2221172 -53.66  0.000933429    1.619    0.383
       175 -10.6680     35.7023    178.0213   1.4207397019e+02   3.4387579988e+01    0.1709429    0.1422487 -78.24 0.0004098654    1.260    0.207
       176 -11.0664     30.9845    177.0399   1.4296754415e+02   3.5102456399e+01     0.173024    0.1353561 -85.63  0.000522843    1.140    0.123
       177 -10.5353     33.4923    189.5387   1.4347744828e+02   3.2203112204e+01    0.2094744   0.09121212 -70.49 0.0008475417    2.018    0.504
       178 -13.0504     32.3354    182.7431   1.4316439413e+02   3.3748003617e+01    0.4956361    0.2810179  79.10 0.0009583663    1.544    0.352
       179 -11.7618     26.9206    179.4932   1.4400083083e+02   3.5001355865e+01    0.4086584    0.1860543 -74.71  0.002251551    1.844    0.458
       180 -11.1176    234.0455    185.9726   1.0270110218e+02  -4.2570660953e-01      0.19367    0.1652409   9.59 0.0003426996    1.007    0.007
       181 -11.1342    231.5048    182.4602   1.0246171648e+02   5.1603744871e-01     0.227698    0.2003551  11.73 0.0007072945    1.038    0.037
       182 -11.7261    229.4846    179.5324   1.0224121419e+02   1.2986280298e+00    0.3897745    0.2457614 -16.42  0.002009608    1.764    0.433
       183 -11.1933    138.1857    185.0354   1.2107739783e+02   1.7554578748e+01    0.3838007    0.2347466  23.96  0.001471691    2.455    0.593
       184 -12.2741    124.1598    183.4444   1.2379522669e+02   2.0396524419e+01     0.527623    0.3299527  63.70  0.002588885    1.748    0.428
       185 -12.2925    118.6761    177.9845   1.2411962195e+02   2.2477003765e+01    0.3158929    0.2758062  34.64 0.0006281536    1.292    0.226
       186 -10.9320    114.0084    178.5343   1.2522366853e+02   2.3175956877e+01    0.2497793    0.1885211  59.31 0.0003591287    1.221    0.181
       187 -11.2738     61.6628    179.0107   1.3668509207e+02   3.1060512319e+01    0.3901003    0.2296164 -87.28  0.002120247    1.654    0.395
       188 -10.5117     47.4748    185.8396   1.4035282973e+02   3.1379388733e+01    0.4222528    0.1393991  44.60  0.001953152    2.600    0.615
       189 -12.1289     23.7532    184.6799   1.4502921762e+02   3.4233567895e+01     0.226617    0.1573474 -77.90   0.00155671    1.289    0.224
       190 -11.3552    175.6514    184.0656   1.1321778014e+02   1.0670102926e+01    0.3296181    0.2388924 -35.16  0.000985377    1.542    0.352
       191 -10.1226    225.4520    183.5040   1.0372417290e+02   1.4408775597e+00    0.1332381    0.1122632  10.55 -4.765127e-06    1.071    0.067
       192 -10.5878    130.5013    183.0032   1.2237315638e+02   1.9351115631e+01     0.190567    0.1341502 -57.15  0.000388068    1.523    0.343
       193 -10.6786    190.3837    180.9658   1.0974161828e+02   8.3745779659e+00    0.2785488    0.1646587 -52.36  0.001300797    2.113    0.527
       194 -12.0932     92.8303    180.0961   1.3007138479e+02   2.6337816646e+01    0.4524931    0.2430871 -49.39  0.001672679    2.217    0.549
       195 -12.8660    106.6750    248.4189   1.3510570608e+02   1.1551949696e+01    0.5103931    0.4217576  54.00  0.001618941    1.161    0.138
       196 -12.1884     42.4202    179.7617   1.4083316568e+02   3.3263151410e+01    0.6113418    0.4057503  11.22  0.003264062    2.979    0.664
       197 -11.1956     48.1928    180.3764   1.3968469224e+02   3.2454693135e+01    0.2883059    0.2099209  25.68  0.001769928    1.927    0.481
       198 -11.1751     54.9880    175.2651   1.3771322246e+02   3.2727354750e+01    0.3648578    0.2939063  80.43  0.001631407    1.012    0.012
       199 -11.9531     48.5255    174.5380   1.3903079492e+02   3.3675845940e+01    0.2159878    0.1646421  84.20  0.001356008    1.061    0.057
       200 -12.1552     50.0850    170.2182   1.3823834595e+02   3.4434624157e+01    0.3780978    0.2490756  46.72  0.001014444    1.500    0.333
       201 -11.8737     12.3530    179.0299   1.4688515546e+02   3.6504418538e+01    0.6630171    0.2309272 -52.19  0.002721185    4.780    0.791
       202 -11.4576      3.2856    167.0360   1.4791712682e+02   3.9807337953e+01    0.2148479    0.1639669 -87.76 0.0006859571    1.129    0.114
       203 -12.0823      7.8554    165.9556   1.4690521456e+02   3.9661084288e+01    0.3653892    0.1837667 -73.46 0.0005659867    1.610    0.379
       204 -11.2452     17.4917    181.4961   1.4603826383e+02   3.5511191821e+01    0.2175693    0.1472326  74.97 0.0008124681    1.144    0.126
       205 -11.8027     18.9007    177.3456   1.4546095547e+02   3.6248113946e+01    0.3856674    0.1745734  86.99 0.0006711124    2.002    0.500
       206 -11.2851    218.9486    179.8889   1.0418180374e+02   3.1590807136e+00    0.3241664    0.2631429  89.29  0.001341433    2.033    0.508
       207 -10.0791    143.1065    180.4798   1.1927803267e+02   1.7529079284e+01    0.2000438     0.126237  45.09 0.0002852298    1.453    0.312
       208 -12.5973    103.7164    236.6184   1.3448978489e+02   1.3903483444e+01    0.6370251    0.3710386  86.06  0.003580997    2.201    0.546
       209 -10.5449    216.9507    183.9941   1.0533839605e+02   2.9044008320e+00    0.1933222    0.1717915   7.62            0    1.036    0.035
       210 -10.7140     88.4017    177.5945   1.3069933944e+02   2.7559224338e+01     0.254424    0.1953088 -21.72 0.0006856275    2.284    0.562
       211  -9.8040    198.9953    177.3463   1.0738743921e+02   7.3217182396e+00    0.2377932    0.0983262  28.95  0.000704632    4.537    0.780
       212 -11.5476    170.1889    176.8333   1.1298309387e+02   1.3019043406e+01    0.2083991    0.1854058  69.47 0.0007504747    1.216    0.178
       213 -10.6854    129.4514    175.7342   1.2140419989e+02   2.1005644067e+01    0.2631605    0.1923004  70.81 0.0008793633    1.490    0.329
       214 -11.2618    204.5667    174.7309   1.0581658468e+02   6.6787355505e+00    0.2695967    0.2374275  77.51  0.001153816    1.475    0.322
       215  -9.9088    125.4963    175.5662   1.2223883098e+02   2.1759534560e+01    0.1383228    0.1243801  64.61 8.731899e-05    1.014    0.013
       216 -11.0117     60.2166    184.7570   1.3760954221e+02   3.0019764779e+01    0.4245674    0.3251192 -58.38  0.002705127    1.532    0.347
       217 -12.3996    243.3543    172.4273   9.8454106271e+01  -1.3904211346e-01    0.3212942    0.2540778  48.20 0.0005702155    1.463    0.317
       218 -12.2852    236.7012    173.0257   9.9698634989e+01   9.5366578200e-01    0.3964767    0.2067191  42.16  0.001368868    1.874    0.467
       219 -10.7475    194.8125    173.0486   1.0734681748e+02   8.8535620465e+00    0.3003478    0.1830356 -31.14  0.001427299    1.817    0.450
       220 -11.7514    136.4900    176.1001   1.1994082739e+02   1.9631281313e+01    0.2519209    0.2437516 -42.99 0.0003257421    1.184    0.155
       221 -12.0791    157.1984    172.8279   1.1493006027e+02   1.6311576932e+01    0.4195946    0.2803786  54.60  0.001407902    1.495    0.331
       222 -10.0516     76.8018    173.7912   1.3275592668e+02   3.0111700850e+01    0.1809117    0.1285453  74.82 0.0003184337    1.323    0.244
       223 -11.2964     60.5251    173.1547   1.3627180570e+02   3.2482537725e+01    0.3400027    0.1800182 -87.67  0.001184139    2.019    0.505
       224 -11.9260     61.1295    167.5503   1.3547761861e+02   3.3641251840e+01    0.2352884    0.2027355  81.14 0.0004089525    1.083    0.077
       225 -11.2713     25.1378    170.7783   1.4366326602e+02   3.7044734213e+01    0.5138945    0.1878028 -62.66  0.002321243    2.465    0.594
       226 -10.1374    219.4753    172.9217   1.0270409655e+02   4.1303202101e+00    0.1892371    0.1284014 -33.53 0.0005496994    1.493    0.330
       227  -9.7564    183.2329    172.9678   1.0960828583e+02   1.1148173077e+01    0.1679699    0.1173779 -41.91 0.0003296113    1.527    0.345
       228 -12.2469     87.0614    171.2562   1.3012221043e+02   2.9139001484e+01    0.3640019    0.2834156  78.01  0.002138096    1.184    0.155
       229 -11.2323     31.4772    169.7028   1.4222498859e+02   3.6634620375e+01    0.2120812    0.1778328  85.34  0.000427988    1.137    0.121
       230  -9.5771     11.7017    172.6971   1.4658556204e+02   3.7894429759e+01    0.1026706   0.07515271 -61.18 0.0001887899    1.583    0.368
       231 -10.1171    208.5197    170.8286   1.0429348327e+02   6.5518664728e+00    0.2573444    0.1405074  27.10  0.001089972    2.282    0.562
       232 -10.8504    108.1753    170.0238   1.2518074887e+02   2.5978152744e+01    0.3348779    0.2313592 -14.54  0.001401032    3.223    0.690
       233 -11.1138    132.1964    169.8294   1.1978561851e+02   2.1709179671e+01    0.2408569    0.1953798  41.57 0.0009456911    1.229    0.186
       234 -10.4334    135.5463    168.5439   1.1881744282e+02   2.1343439656e+01    0.2087177    0.1611002  75.73 5.478313e-05    1.439    0.305
       235 -10.7317    123.8126    170.0808   1.2168770167e+02   2.3203983831e+01    0.2552283    0.1916045  11.82  0.001239567    2.074    0.518
       236 -11.7614     71.8983    168.8971   1.3321957448e+02   3.1885939464e+01    0.3243228    0.2131924  39.10  0.001797023    1.627    0.385
       237 -11.5122     77.1025    166.2718   1.3168739021e+02   3.1726912197e+01    0.2245619    0.1684197 -79.06 0.0002363506    1.219    0.180
       238 -11.5677     66.2513    169.6515   1.3458446682e+02   3.2495788137e+01    0.2347593    0.1848955 -86.35  0.000750007    1.102    0.093
       239 -10.3337    217.3170    167.5609   1.0200482586e+02   5.3821966050e+00    0.3318833    0.1231726 -33.19  0.001239919    2.916    0.657
       240 -11.9828    170.6415    168.6476   1.1132019263e+02   1.4441493569e+01    0.3095321    0.2272449  42.55 0.0009400274    1.283    0.220
       241 -10.1398     13.1858    169.1600   1.4603037933e+02   3.8515194981e+01     0.166407    0.1013102  76.20  0.001063429    1.339    0.253
       242 -11.0389    193.1055    168.0784   1.0668335985e+02   1.0044522502e+01    0.2093749    0.1967797  38.66 0.0004962728    1.068    0.064
       243 -12.6594    186.1501    164.0342   1.0723510901e+02   1.2158297678e+01    0.6182936    0.2832602 -46.97  0.002488357    2.407    0.585
       244 -10.8806     37.6890    160.5536   1.3997613187e+02   3.7995220582e+01    0.2675448    0.1845136 -76.94  0.001282749    1.222    0.182
       245 -10.4012     33.7997    157.6269   1.4055509207e+02   3.9061228163e+01     0.241255    0.1197849  47.61  0.000980887    1.953    0.488
       246 -12.3229     40.3737    166.0160   1.3993780398e+02   3.6486975262e+01    0.2312438    0.1972814  87.52 0.0004031533    1.132    0.117
       247 -11.2317     36.4753    165.5431   1.4074964597e+02   3.7017974083e+01    0.2143969    0.1547515  83.05 0.0005148199    1.131    0.116
       248 -11.2707    140.2617    165.4375   1.1720789246e+02   2.1079106950e+01    0.2617207    0.2281544  68.87 0.0005914719    1.127    0.113
       249 -11.5362     35.0446    172.8035   1.4174528279e+02   3.5583135974e+01    0.2667246    0.1504391 -84.35  0.001540344    1.515    0.340
       250 -11.3902     45.9233    163.2502   1.3840750303e+02   3.6471877850e+01    0.4932292    0.2050063  83.91  0.001731303    3.915    0.745
       251 -10.7843    119.8168    164.8572   1.2168506014e+02   2.5036292645e+01     0.245486    0.1834761  62.68 0.0005113846    1.322    0.244
       252 -10.8030    239.3300    164.3004   9.7468890111e+01   1.7579544792e+00    0.1377808   0.09468372   9.43  0.000228713    1.645    0.392
       253 -10.2243    203.9868    164.4552   1.0384209449e+02   8.4969574130e+00    0.2080327    0.1982571 -70.25 0.0004356178    1.248    0.198
       254 -10.3582    203.0302    160.9944   1.0330121462e+02   9.2757081260e+00    0.2563981    0.1970387  43.79 0.0008728719    1.271    0.213
       255 -10.8906    203.9380    157.4954   1.0238623393e+02   9.6914908521e+00    0.2849752    0.2103269  -0.04 0.0009899664    1.664    0.399
       256 -11.0553    195.7411    164.4113   1.0541897128e+02   1.0153681143e+01    0.2645399    0.1319854  49.61 0.0007345772    2.028    0.507
       257 -11.5622    100.7605    163.4426   1.2581648098e+02   2.8664188322e+01    0.2261756    0.1976629  86.24 0.0005040936    1.040    0.039
       258 -12.3089      5.5423    175.7250   1.4801608955e+02   3.7793082658e+01    0.6069122    0.2715921  60.79  0.002334289    1.944    0.486
       259 -10.5824     55.2199    162.8988   1.3625824395e+02   3.5433436480e+01    0.2504324    0.1130923  59.65 0.0006553572    2.446    0.591
       260 -11.7180     21.0521    160.7931   1.4369424941e+02   3.9612948852e+01    0.3932182    0.2910334  33.28  0.002397009    1.689    0.408
       261 -11.5850     11.4110    156.2676   1.4542724283e+02   4.1458816264e+01    0.2940375    0.1786199  71.21 0.0007788889    1.433    0.302
       262 -11.8869     18.4244    154.0510   1.4368715332e+02   4.1340591545e+01    0.3997337    0.2973516   1.46  0.001797403    2.280    0.561
       263 -10.7268     20.4878    150.4282   1.4288876961e+02   4.1962407882e+01     0.182353    0.1566719 -86.16 0.0006433621    1.178    0.151
       264 -11.6277     11.6785    151.9037   1.4501407696e+02   4.2395285039e+01    0.2032642    0.1571069  72.92 0.0002730907    1.161    0.139
       265 -10.6403      8.0039    149.9916   1.4567971237e+02   4.3113974277e+01    0.1715583     0.129015  85.66            0    1.041    0.039
       266 -12.0631    223.8298    161.4854   9.9568197080e+01   5.0936011521e+00    0.2580247    0.2308124  24.56 0.0003422258    1.081    0.075
       267  -9.7647    212.9809    162.7500   1.0180163586e+02   7.0015014330e+00    0.1708467    0.1135056  42.65  0.000493205    1.464    0.317
       268  -9.9978    169.3312    162.2869   1.1032492845e+02   1.5907699334e+01    0.1440734     0.112289  11.80 0.0002851445    1.619    0.382
       269 -10.5338    132.7119    162.1588   1.1828138834e+02   2.3209646941e+01    0.2629085    0.1772611  54.88  0.001226936    1.458    0.314
       270 -10.0013     87.1893    162.6109   1.2883418704e+02   3.1031702534e+01    0.1756182    0.1287632  30.58 0.0006145329    1.675    0.403
       271 -10.5520     50.0200    162.2397   1.3736622753e+02   3.6215865330e+01    0.2191834    0.1124813  63.04  0.001079267    2.038    0.509
       272 -11.0134      3.7339    160.9249   1.4741707845e+02   4.1074912159e+01    0.2679814     0.117147  76.18  0.001212989    2.133    0.531
       273 -11.0551    196.9338    159.9064   1.0424677636e+02   1.0698104845e+01    0.2145702     0.202982  12.53 0.0006192524    1.013    0.013
       274 -10.2634    109.9205    160.1647   1.2314483966e+02   2.7819427315e+01    0.2108111    0.1708736  78.59 0.0004399181    1.224    0.183
       275 -11.2908    128.7282    158.5314   1.1850775253e+02   2.4736396853e+01    0.2499962    0.1981075 -55.92 0.0007568676    1.294    0.227
       276  -9.7954     66.4806    158.4548   1.3308310760e+02   3.4974950484e+01    0.1323796    0.1102292  85.26 0.0001300881    1.019    0.019
       277 -10.3203    213.0491    157.5382   1.0068618064e+02   7.8481272072e+00    0.2175609    0.1334766  45.17  0.001037004    1.611    0.379
       278 -11.8311     36.7468    153.2221   1.3941150588e+02   3.9744195320e+01    0.5016109    0.2405334  78.28  0.002318946    2.463    0.594
       279 -11.1255    145.7100    154.8600   1.1394244405e+02   2.2187168563e+01    0.3855177    0.2607277 -65.22  0.001792187    1.739    0.425
       280 -10.7181    123.8144    156.2972   1.1921991799e+02   2.6143753018e+01    0.2435887    0.1864435 -74.42  0.001252871    1.396    0.284
       281 -10.7232    171.2819    156.3985   1.0870166109e+02   1.6634888100e+01    0.2004074    0.1345704  54.39 0.0004267194    1.533    0.348
       282 -11.4236    156.2324    155.4638   1.1173587872e+02   1.9926576174e+01    0.2259886    0.1764741 -56.48 0.0009315861    1.360    0.265
       283 -10.6408    139.0189    156.1734   1.1571135208e+02   2.3245120170e+01    0.3231937    0.1844216  38.83 0.0009629627    1.814    0.449
       284 -10.5470     43.6916    155.5370   1.3805350496e+02   3.8461949699e+01    0.2266887   0.09753926 -71.29  0.001073976    2.010    0.503
       285  -9.9948    200.1471    154.8285   1.0254034803e+02   1.0929493836e+01    0.1916979    0.1594961  -2.74 0.0003380354    1.303    0.233
       286 -10.5703    176.4526    154.9643   1.0731838257e+02   1.5832417443e+01    0.2148296    0.1881175  42.35 0.0003318308    1.100    0.091
       287 -11.8263    114.8533    154.4648   1.2097454717e+02   2.8195947732e+01    0.4875131    0.2926449  67.34  0.002103792    2.131    0.531
       288 -12.2303    107.1035    154.3188   1.2278243257e+02   2.9606901945e+01    0.3841555    0.2524094 -43.58  0.001858835    1.775    0.437
       289 -11.6382     95.8167    157.5031   1.2600546289e+02   3.0802868092e+01    0.2975887    0.2149829  61.31 0.0002762189    1.354    0.262
       290 -10.9227     27.5381    153.8898   1.4160692914e+02   4.0527576301e+01    0.2281376    0.1411504  69.86 0.0005811978    1.496    0.332
       291  -9.7513      4.7073    152.9649   1.4663888532e+02   4.2720682527e+01    0.1356898   0.07862861 -80.53 0.0002473975    1.319    0.242
       292 -12.1974    248.0151    150.8946   9.3203899563e+01   2.1540328621e+00    0.3773561    0.2899573 -27.74  0.001624834    1.201    0.167
       293 -11.4269    225.7508    152.0679   9.7213332535e+01   6.2201186739e+00    0.2468888    0.1932007  35.30 0.0004501578    1.266    0.210
       294 -10.5415    166.1335    152.1305   1.0889287895e+02   1.8539315446e+01     0.196167    0.1720103  84.99 0.0003793901    1.288    0.223
       295 -10.9932    137.9810    151.9200   1.1510008357e+02   2.4348637489e+01    0.2163949    0.2052731  63.27  0.000352941    1.031    0.030
       296  -9.6989    134.3021    151.3099   1.1582362375e+02   2.5205332908e+01    0.1405486    0.1182493  -4.62 0.0001815289    1.605    0.377
       297 -11.4740    178.0863    149.6774   1.0583970920e+02   1.6494781837e+01    0.2476508    0.2028442 -54.38  0.000645745    1.319    0.242
       298 -10.3431    104.1616    148.8744   1.2250701539e+02   3.1341808688e+01     0.223844     0.180533  81.38 0.0006867901    1.254    0.202
       299 -11.2180    202.1901    147.8208   1.0061166039e+02   1.1737096705e+01    0.3583139    0.2572475  82.44  0.001590369    2.282    0.562
       300 -10.4339     91.7948    147.8820   1.2535096803e+02   3.3639974564e+01    0.2018723    0.1805499 -57.88  0.000428841    1.201    0.168
       301 -10.3779     51.7847    148.5895   1.3527687745e+02   3.9108228610e+01    0.1667507    0.1061207  54.32 0.0002833328    1.561    0.359
       302 -11.3712    228.0688    147.6805   9.5847287019e+01   6.4668807237e+00    0.2699689    0.1295068  55.14  0.001091344    2.555    0.609
       303 -10.8171     36.1088    146.0827   1.3875927336e+02   4.1435374185e+01    0.2734374    0.1637859  80.99  0.001508203    1.630    0.386
       304 -11.7757    161.5367    144.8154   1.0830516540e+02   2.0969465552e+01    0.4865867     0.296622  67.67  0.001934926    2.355    0.575
       305 -11.5295    238.2970    145.5427   9.3634548582e+01   4.8011419915e+00    0.2478335    0.1361535  52.79  0.001134043    2.079    0.519
       306 -12.7011    178.4138    142.6673   1.0421301591e+02   1.7768703071e+01    0.4970329    0.4021578  21.47  0.001718254    1.396    0.284
       307 -10.9478    181.1620    137.3013   1.0241217171e+02   1.8201821456e+01    0.3891587    0.2663018  81.00  0.001599109    2.351    0.575
       308 -12.2250    132.0052    141.1116   1.1425479380e+02   2.7866667117e+01     0.525838    0.3577218 -70.14  0.001117953    1.749    0.428
       309 -12.1786    128.7216    140.3408   1.1487501298e+02   2.8687452641e+01     0.581377    0.3588241  80.26  0.001685884    2.815    0.645
       310 -11.3971    225.2347    143.3773   9.5386721121e+01   7.7328762753e+00    0.2500159    0.2292098 -12.64 0.0003163598    1.022    0.021
       311 -11.5551    219.6696    143.0851   9.6307451023e+01   8.9164308010e+00    0.2903167    0.2179942  53.60 0.0007659785    1.457    0.314
       312  -9.9128     84.8211    143.8167   1.2637758607e+02   3.5680058028e+01    0.1852535    0.1444121  82.27 0.0002326162    1.278    0.217
       313 -10.7847     52.8424    144.1424   1.3442072478e+02   4.0008299289e+01    0.1790444     0.134324 -58.83  0.001062237    1.336    0.251
       314  -9.9121     27.3399    144.2937   1.4066635434e+02   4.2713263971e+01    0.1154191   0.08295517 -49.32 0.0007028633    1.653    0.395
       315 -10.3021     13.5795    143.5241   1.4384904209e+02   4.4101166127e+01    0.2000184   0.08094497  44.73   0.00103427    2.447    0.591
       316 -11.9241    241.5549    141.6163   9.2229966664e+01   4.7804464260e+00    0.2515813    0.2321412 -36.64 0.0006649276    1.176    0.149
       317 -11.3845     60.5944    141.3133   1.3207415579e+02   3.9700244733e+01    0.3525248    0.2511902  30.98  0.001917619    1.706    0.414
       318 -11.4876     23.7242    135.1349   1.4054552160e+02   4.5135654773e+01    0.6004782    0.2079758  52.10  0.002578586    3.272    0.694
       319 -10.8477     21.6203    130.4860   1.4054876878e+02   4.6384562877e+01    0.2419156    0.1757792 -75.06 0.0008985486    1.106    0.096
       320 -12.0627     21.7725    141.0774   1.4166462784e+02   4.3954467887e+01    0.3163632    0.2437096  74.78   0.00176119    1.178    0.151
       321 -11.2618     25.5276    138.5910   1.4048443004e+02   4.4182283273e+01    0.2195219    0.1527277  29.92 0.0001041077    1.796    0.443
       322 -12.1695     47.4299    139.4453   1.3513009933e+02   4.1734278457e+01    0.4830081    0.2154323  50.16  0.002250431    2.368    0.578
       323 -11.2695    207.1360    138.2037   9.7494621448e+01   1.2384089017e+01    0.2349033    0.2013939 -40.19 0.0002906806    1.175    0.149
       324 -10.2125     96.6347    139.2609   1.2257890455e+02   3.4824130175e+01    0.1469788    0.1024326  72.03 0.0005498477    1.640    0.390
       325 -10.7492    231.0000    142.0328   9.4087719827e+01   6.7911040716e+00    0.2363789   0.07532483 -35.41 0.0008091971    2.989    0.665
       326 -11.0463    104.6963    137.2025   1.2014225547e+02   3.3905126300e+01    0.3295067    0.2271391  82.19 0.0005763684    1.830    0.454
       327 -12.0231     36.6714    137.5792   1.3759450434e+02   4.3333441532e+01    0.3100349    0.2369446  13.68  0.001008504    1.895    0.472
       328 -10.1216    114.0000    136.9565   1.1776157201e+02   3.2270570907e+01    0.2362737   0.08093937 -52.80 0.0003718657    2.863    0.651
       329 -10.8391     57.0189    137.0000   1.3233515817e+02   4.1160380868e+01    0.2352376    0.1723253  50.35 0.0009964334    1.418    0.295
       330 -11.5811     59.2408    133.8616   1.3127322610e+02   4.1616646706e+01    0.2925096    0.2535805 -26.24  0.001473453    1.543    0.352
       331 -11.9559      7.6566    134.7686   1.4445289512e+02   4.6524861691e+01      0.33796    0.1781334 -55.36 0.0007131797    1.893    0.472
       332 -10.3909    249.0000    136.4995   8.9900792517e+01   4.1344914990e+00    0.1857798    0.1342508  47.47  0.000393068    1.513    0.339
       333 -10.1216    195.8133    135.8081   9.9110749083e+01   1.5266124767e+01     0.202482    0.1766974 -76.35 0.0008335477    1.370    0.270
       334 -10.8098    155.5434    135.3645   1.0751044297e+02   2.4189426617e+01    0.4339273    0.2608549  70.02  0.001633347    2.579    0.612
       335 -10.9706     77.6466    134.9418   1.2665415971e+02   3.8834106157e+01    0.2667196    0.1940735  67.36 0.0003212058    1.446    0.309
       336 -10.3587    214.0201    132.1107   9.4807155172e+01   1.1970563846e+01    0.4144477    0.1523046 -29.80   0.00110229    3.377    0.704
       337 -10.7064     98.8941    132.8501   1.2074666344e+02   3.5919478333e+01    0.2045058    0.1898741 -37.99 0.0003441335    1.241    0.194
       338 -10.5293     40.1922    132.7884   1.3606977495e+02   4.4079085735e+01    0.2271887     0.109975  71.37 0.0009587415    2.867    0.651
       339 -10.1113    199.2843    131.7186   9.7473247538e+01   1.5250308659e+01    0.1995273      0.16702   6.31 0.0006336657    1.343    0.255
       340 -10.6943    227.9422    135.1776   9.3060067180e+01   8.5249210795e+00    0.1991662    0.1908328 -82.45 0.0003725484    1.236    0.191
       341 -11.4271     48.9922    131.5196   1.3359608935e+02   4.3405541444e+01    0.2544116    0.1697611  69.03  0.001100356    1.585    0.369
       342 -11.4239    128.4828    130.2955   1.1273010947e+02   3.0951578408e+01    0.2597685    0.2357517  83.05 0.0002779949    1.106    0.096
       343 -10.7526    113.0171    130.6137   1.1666402330e+02   3.3891916562e+01    0.2327012    0.1898568 -69.02 0.0003388027    1.212    0.175
       344 -10.9014     35.5049    128.9944   1.3677577478e+02   4.5443409316e+01    0.2093851    0.1352151 -57.09  0.001208366    1.454    0.312
       345 -11.5759    248.0353    129.2066   8.8414721632e+01   5.4381889455e+00    0.3187571    0.2287805  61.06  0.001129838    1.733    0.423
       346  -9.6690    162.3126    130.2788   1.0480255055e+02   2.3756907743e+01    0.1497182    0.1213194   9.95 0.0002651896    1.565    0.361
       347 -10.8503     86.5805    129.8702   1.2336717136e+02   3.8651012188e+01    0.2008578     0.197382  29.36 0.0003630245    1.211    0.174
       348 -11.3919     61.2014    128.9879   1.2996003714e+02   4.2511807457e+01    0.2141048    0.1980877  44.49 0.0004578871    1.264    0.209
       349 -11.2168     50.6773    128.4485   1.3268262279e+02   4.3930896171e+01    0.2391498    0.2070549 -54.53 0.0006707179    1.253    0.202
       350 -11.3801    190.7722    125.5368   9.7655879462e+01   1.8292825754e+01     0.318782    0.2365246 -57.65 0.0008114625    1.538    0.350
       351  -9.7358    152.8347    125.8138   1.0587322312e+02   2.6770376034e+01    0.2099027    0.1789849 -88.41 0.0006669183    1.327    0.246
       352 -10.6980     93.1104    125.5700   1.2076862312e+02   3.8589525285e+01    0.2874711      0.18819 -50.61 0.0009022959    1.483    0.326
       353 -12.3715     68.8175    124.0117   1.2702377281e+02   4.2667741191e+01    0.3228644    0.2440448  46.48 0.0003525767    1.416    0.294
       354 -10.5850    224.3569    130.8226   9.2672876253e+01   9.9916311755e+00    0.2012103    0.1289622 -24.47 0.0004120546    1.623    0.384
       355 -11.1128    124.9885    123.9551   1.1213654982e+02   3.3062550680e+01    0.2203074    0.2131493 -73.27 0.0003024353    1.035    0.034
       356 -10.0565    109.3127    123.2865   1.1599770709e+02   3.6252554783e+01    0.1411674    0.1183851 -13.06 0.0002450873    1.580    0.367
       357 -10.4986    238.5093    122.4711   8.8366933294e+01   8.4096384142e+00    0.1414734     0.128143 -14.95 0.0001080475    1.036    0.035
       358 -11.1322     84.4336    121.1342   1.2218699157e+02   4.1034979184e+01    0.3272671    0.2178493 -75.68  0.001065417    1.632    0.387
       359 -10.2289     58.0440    119.5522   1.2918565021e+02   4.5136818894e+01    0.2212532    0.1510503 -66.08 0.0007337161    1.269    0.212
       360 -10.5257     48.1189    119.2693   1.3190426030e+02   4.6382862687e+01    0.3317581      0.20328  50.57  0.001774074    1.786    0.440
       361 -10.1279    226.4775    119.4937   8.9635004205e+01   1.1432286273e+01    0.1442927    0.1346681 -24.58 4.759764e-05    1.011    0.011
       362 -11.3437    171.0778    119.1838   1.0016172857e+02   2.4016534998e+01    0.2285027    0.2094059  20.26 0.0003616088    1.175    0.149
       363 -10.4661     92.1012    118.3369   1.1949258766e+02   4.0440630656e+01    0.2507818    0.1816831 -49.32 0.0006877002    1.342    0.255
       364 -10.8030     26.1177    118.2011   1.3782814258e+02   4.8829692045e+01    0.2141022     0.144154  60.70 0.0006953994    1.591    0.371
       365 -11.9541    182.7052    115.2090   9.6709845849e+01   2.2101773902e+01    0.5123603    0.4219508 -68.50  0.001577684    1.395    0.283
       366 -12.3673     87.7058    114.8318   1.1993095787e+02   4.1981838967e+01    0.3211671    0.2727123  70.72 0.0003520031    1.240    0.194
       367 -10.5368     60.6376    115.6805   1.2774307598e+02   4.5721174048e+01    0.2669324    0.1495104 -66.39 0.0008515284    1.615    0.381
       368 -11.3019    106.0473    118.5764   1.1578239550e+02   3.7932878364e+01    0.4895278    0.2706679  32.19  0.002007575    2.272    0.560
       369 -11.4317    125.9957    114.1118   1.0949499923e+02   3.5038412531e+01    0.2400873    0.2119277 -53.82  0.001250897    1.102    0.092
       370 -11.5871     19.2700    118.4604   1.3972468692e+02   4.9343038280e+01    0.3323927    0.2491348 -12.97  0.002106096    1.987    0.497
       371 -10.4662     23.3562    113.7070   1.3797617118e+02   5.0105713057e+01    0.2009813    0.1282022  47.12   0.00063026    1.750    0.429
       372 -12.8331     21.5017    109.9281   1.3797259048e+02   5.1130319587e+01    0.5624141    0.3254342 -40.03  0.003092719    2.087    0.521
       373 -10.0115     95.6023    112.2525   1.1714771322e+02   4.1251638263e+01    0.2014203    0.1279243 -45.15  0.000361289    1.571    0.363
       374 -10.7237     74.9382    112.0643   1.2293364920e+02   4.4605803934e+01    0.2045249    0.1809378 -74.37 0.0003191769    1.038    0.037
       375  -9.9588      6.6786    112.6638   1.4244711952e+02   5.1585690629e+01    0.1207305   0.06962503 -51.49 0.0007050228    1.709    0.415
       376 -10.8852    238.9982    110.7773   8.5529096910e+01   1.0181514894e+01    0.2318244    0.1857322 -31.37 0.0003037208    1.142    0.124
       377 -11.0471    232.7062    110.7734   8.6516049397e+01   1.1528025565e+01    0.2807853    0.2181217 -61.81  0.001440206    1.517    0.341
       378  -9.5582    140.6953    111.7390   1.0522283797e+02   3.2418352484e+01    0.1475668     0.123092   8.20 0.0002289722    1.520    0.342
       379 -10.0049     85.5759    109.7465   1.1938287742e+02   4.3508005450e+01    0.1865329    0.1287961 -67.83 0.0002273441    1.464    0.317
       380 -10.2360     79.7691    110.3545   1.2117821508e+02   4.4279950232e+01     0.173079    0.1363876  27.25 0.0003270581    1.521    0.343
       381 -10.8879      4.1722    109.6440   1.4279121524e+02   5.2429953972e+01    0.2019182    0.1474294   9.27   0.00136524    1.941    0.485
       382 -10.6269    146.7933    116.9119   1.0508218151e+02   2.9976205512e+01    0.2789476    0.2286743  49.35  0.001377058    1.228    0.186
       383 -10.4274    115.8493    108.9455   1.1083235960e+02   3.8236482833e+01    0.2429333    0.2099519  31.05 0.0003540575    1.291    0.225
       384 -10.8605    112.0457    107.6177   1.1151219811e+02   3.9279322209e+01    0.2763448    0.2089001 -47.84 0.0004775178    1.275    0.216
       385 -10.6704    153.0328    107.1554   1.0107997430e+02   3.0602763323e+01    0.4089975    0.1945928 -52.82   0.00144206    2.438    0.590
       386 -10.9760     36.9436    108.0497   1.3321966361e+02   5.0190899137e+01    0.1920953    0.1590158 -71.86 0.0004415917    1.011    0.011
       387 -10.6682    209.9553    106.9621   8.9398927369e+01   1.7266881322e+01    0.2191741    0.2072269 -41.78            0    1.033    0.032
       388 -13.2274    166.2737    102.9100   9.6951514541e+01   2.8361067551e+01    0.4991536      0.35997 -25.79  0.001413869    1.569    0.363
       389 -12.1798    137.4722    103.3140   1.0378202592e+02   3.4916006872e+01    0.5665205    0.4117062 -81.80   0.00167369    1.898    0.473
       390 -11.0172     26.4247    108.2400   1.3631377607e+02   5.1111890861e+01    0.2133913    0.1527291 -72.05 0.0009432468    1.121    0.108
       391 -10.5505    173.5632    105.2514   9.6014222003e+01   2.6172574957e+01    0.2744548    0.1932124  28.72  0.001186216    1.759    0.431
       392 -10.2409     91.3458    104.6976   1.1653767646e+02   4.3716526455e+01    0.2279997    0.1675226  85.95  0.001088168    1.755    0.430
       393 -10.5373     16.9865    104.8150   1.3855180643e+02   5.2655749775e+01    0.2032916    0.1542096 -34.07 0.0008987711    1.610    0.379
       394 -11.0801    233.8704    102.7788   8.4388688229e+01   1.2575397034e+01    0.3056537    0.2173808 -45.92  0.001124601    1.369    0.270
       395 -11.1131    190.0241    102.0159   9.1813617830e+01   2.2850801170e+01    0.4227349    0.2043688 -39.48  0.001458336    1.996    0.499
       396 -11.8798     82.4351    103.8681   1.1891503131e+02   4.5368367680e+01    0.2830479     0.238012 -58.81 0.0004143689    1.081    0.075
       397 -11.8784     85.0055     99.9682   1.1721213810e+02   4.5850781373e+01    0.3398328    0.3007821  54.66  0.001936272    1.218    0.179
       398 -12.0582     67.1916    101.1977   1.2282451682e+02   4.8241161422e+01    0.4007553    0.2810635  77.53 0.0004354164    1.850    0.460
       399 -12.2322     46.0325    100.5655   1.2913258654e+02   5.0995341038e+01    0.4474553    0.2997688 -41.02  0.002472177    1.597    0.374
       400 -10.1494    100.4199    103.2514   1.1359990628e+02   4.2449180478e+01    0.2070749    0.1351575 -61.31 0.0009405222    1.584    0.369
       401 -11.5834     57.7104    102.9624   1.2607023605e+02   4.9073693036e+01    0.2023118    0.1926703  55.14 0.0002099584    1.194    0.162
       402 -10.4992    208.0495    101.8559   8.8430581139e+01   1.8602282420e+01    0.2273888    0.1962063 -68.86 0.0002865024    1.280    0.218
       403 -11.6834     75.0142    101.9009   1.2064037091e+02   4.6959642523e+01    0.3210886    0.2358015  11.15  0.001422184    1.919    0.479
       404 -10.6014      2.2485    102.2632   1.4247510486e+02   5.4210994412e+01    0.1639498    0.1463301   8.28  0.001244719    1.527    0.345
       405 -11.2094    149.6271    101.1982   1.0026321047e+02   3.2606575620e+01    0.5595285     0.254603  52.29  0.002025548    2.288    0.563
       406 -10.7776    122.1142     99.6482   1.0671616041e+02   3.9002850765e+01    0.2036998    0.1989881 -31.27 0.0005229171    1.065    0.061
       407 -10.8163    109.0197     99.5478   1.1023081550e+02   4.1660543271e+01    0.3447527    0.2423488  24.08   0.00113366    1.859    0.462
       408 -10.2471     32.7997     98.8141   1.3286310282e+02   5.2729178000e+01    0.2182934    0.1267419 -64.66 0.0005509019    1.393    0.282
       409 -10.9123     33.8735     94.0173   1.3164661977e+02   5.3735771812e+01    0.3340685    0.2040477 -25.79  0.001564296    2.322    0.569
       410 -10.6159     16.3556     99.1225   1.3791449420e+02   5.4005012902e+01    0.1737083    0.1519574 -44.07 0.0004992554    1.300    0.230
       411 -11.2954      9.3709     97.8815   1.3982913055e+02   5.4764649350e+01    0.2980816    0.1653784 -83.60   0.00145268    1.623    0.384
       412  -9.5977     99.2728     98.3120   1.1264274288e+02   4.3766821853e+01     0.143325    0.1133185 -21.52 0.0002180923    1.553    0.356
       413 -10.1365    172.1371     96.8094   9.4023062614e+01   2.8138109130e+01    0.2117706    0.1836002  18.00 0.0004187802    1.322    0.244
       414 -10.6288    118.7541     96.4106   1.0671865281e+02   4.0397293499e+01      0.28165    0.1988534 -44.65 0.0008726929    1.369    0.270
       415 -10.9358     90.3441     96.0006   1.1462565252e+02   4.5859955956e+01    0.2389725    0.2028161  53.72 0.0004080138    1.275    0.216
       416 -11.4150     52.4110     94.8805   1.2597383018e+02   5.1589342505e+01    0.2988656    0.2030338  89.98 0.0008941126    1.827    0.453
       417 -10.2771     23.0283     95.7835   1.3535327883e+02   5.4263009106e+01    0.1721725    0.1134116  88.39  0.000325115    1.593    0.372
       418  -9.4722    102.6320     95.2752   1.1086929837e+02   4.3820572900e+01    0.1493189    0.1149473  82.32 0.0007005554    1.676    0.403
       419 -10.3454     49.7812    103.8411   1.2863793461e+02   4.9814349389e+01    0.2217551    0.1615411  56.90 0.0006963559    1.560    0.359
       420  -9.8930    154.5194     94.4547   9.7241712413e+01   3.2819054765e+01    0.1539809    0.1525555 -15.18 0.0002187742    1.040    0.038
       421 -10.3396     83.9750     93.9634   1.1599086230e+02   4.7379607344e+01    0.2255239    0.1710777  89.54   0.00112284    1.685    0.406
       422 -10.8806    225.2534     92.8471   8.3256343603e+01   1.6128563578e+01    0.2367912    0.2183521 -45.60 0.0002713681    1.035    0.034
       423 -10.9280    136.0318     90.9900   1.0068423822e+02   3.7798406094e+01    0.5151273    0.2265142 -44.93  0.001865376    2.233    0.552
       424 -10.3869    114.5976     92.3426   1.0670395591e+02   4.2121033398e+01    0.2995183    0.1392225 -50.74  0.001122731    2.172    0.540
       425 -11.0489    143.5553     92.2045   9.9183127590e+01   3.5834315930e+01    0.3825692    0.1816405  47.22  0.001426206    2.141    0.533
       426  -9.7925    106.3318     92.3378   1.0900643459e+02   4.3759707478e+01    0.1525042    0.1177905 -10.31 0.0007051981    1.740    0.425
       427 -10.2939      9.5120     91.9856   1.3894337719e+02   5.6089161976e+01    0.1870414    0.1227327 -87.69 0.0003383143    1.433    0.302
       428 -10.1430      6.6372     89.3186   1.3944595525e+02   5.6865413574e+01    0.1593289    0.1056417  52.27 0.0008786372    1.799    0.444
       429 -11.7323    203.2682     89.2700   8.5963251318e+01   2.1926609462e+01    0.3935458    0.2903323 -20.42  0.001176643    1.505    0.336
       430 -11.5966     77.9223     88.2071   1.1632478273e+02   4.9631299833e+01     0.307245    0.1880904 -42.49 0.0002118005    1.576    0.366
       431 -11.1544     80.3919     84.3292   1.1449281902e+02   5.0100004210e+01    0.3452027    0.2269577  34.95  0.001712277    1.704    0.413
       432 -10.1283     24.3314     90.6515   1.3405693486e+02   5.5331632569e+01    0.1257264   0.08430969  77.34 0.0007048745    1.768    0.434
       433 -10.1302    231.3136     88.9946   8.1357514989e+01   1.5367471575e+01    0.2029632    0.1695052 -36.51 0.0002751642    1.105    0.095
       434 -11.9572    191.8284     87.9292   8.7662110020e+01   2.4954466705e+01    0.2710803    0.2435095 -50.66 0.0002458994    1.092    0.084
       435 -10.4691    111.1724     88.8647   1.0665496365e+02   4.3554080528e+01     0.219035    0.1928509 -69.00  0.000329671    1.197    0.165
       436 -11.4994     43.9819     88.9759   1.2737786220e+02   5.3886986226e+01    0.1908899    0.1606018 -60.73 -0.005334738    1.005    0.005
       437 -11.0259    123.1494     87.1848   1.0289585551e+02   4.1418639469e+01    0.2862712    0.2289499 -57.01  0.001242145    1.290    0.225
       438 -10.2988     88.3383     88.3256   1.1315700503e+02   4.7909736030e+01    0.1471374    0.1106815 -17.12 0.0005873315    1.725    0.420
       439 -11.6313     63.4958     86.9833   1.2057894428e+02   5.1995178669e+01    0.3428898    0.2662412 -21.72 0.0004471185    1.546    0.353
       440 -11.5675     69.8049     85.0730   1.1805440524e+02   5.1544695951e+01    0.2346113    0.2195007 -22.31 0.0002859478    1.149    0.130
       441 -10.8786    180.6796     86.7449   8.9467273989e+01   2.7917630374e+01    0.2769327    0.2385867 -89.51 0.0003332421    1.284    0.221
       442 -11.0255    129.0954     86.3189   1.0107876018e+02   4.0299680346e+01    0.4864841    0.2489418  62.84  0.001693576    2.856    0.650
       443  -9.9729     52.2833     87.3576   1.2430670985e+02   5.3325154309e+01     0.138155   0.08865821 -37.29 0.0007018371    1.670    0.401
       444 -11.5099     16.5454     85.1082   1.3559341074e+02   5.7172430215e+01    0.3944878    0.1517865 -53.30 0.0007806745    2.036    0.509
       445 -10.7001     11.0873     86.0480   1.3752598842e+02   5.7325958467e+01    0.1875515    0.1424679 -66.03 0.0005879338    1.022    0.021
       446 -10.3377    154.7906     85.4193   9.4570077809e+01   3.4513497915e+01    0.2177993    0.1450424  41.08 0.0002926554    1.609    0.379
       447 -10.5508     27.7459     85.5127   1.3198310456e+02   5.6218374519e+01     0.191586    0.1275828  14.71 0.0007799084    1.968    0.492
       448 -10.2068      3.6394     84.8414   1.3973422937e+02   5.8037860956e+01    0.1573591   0.08821658 -80.88  0.000907768    1.567    0.362
       449 -10.9482    170.1048     84.1435   9.0866774955e+01   3.1008315603e+01    0.2389785    0.2096924  19.48 0.0004202139    1.292    0.226
       450 -11.5825    118.9193     83.8246   1.0303051262e+02   4.3012133947e+01    0.2781675    0.2572154  41.52 0.0006816029    1.123    0.110
       451 -12.2363    132.3246     82.0390   9.8962117947e+01   4.0436192746e+01     0.421493    0.3076769 -64.61  0.001332586    1.649    0.393
       452 -10.9428     85.1338     82.7558   1.1256780011e+02   4.9667408118e+01    0.2136969    0.1925897 -86.49  0.001211562    1.243    0.196
       453 -11.6050     53.6045     82.4782   1.2268612738e+02   5.4267336878e+01    0.2351205    0.1753139 -58.78 0.0004842124    1.173    0.148
       454 -10.4769    193.9721     82.1150   8.5662234443e+01   2.5438515462e+01    0.2254315    0.2176164 -43.21  0.000396592    1.024    0.023
       455 -10.2327     24.3257     82.0417   1.3243900543e+02   5.7281228015e+01    0.1699646    0.1285749 -61.71 0.0004557699    1.052    0.050
       456 -11.1809     95.3282     80.1070   1.0866797308e+02   4.8449237978e+01    0.3333095    0.2474369  -9.83  0.001571854    1.819    0.450
       457 -10.2242     46.1888     81.3541   1.2489820923e+02   5.5372788002e+01    0.1704384    0.1163969  43.65 0.0009495663    1.729    0.422
       458 -10.3642    185.8139     79.7545   8.6499080821e+01   2.7879299752e+01    0.2613081    0.1648419  18.08 0.0009488257    2.751    0.637
       459 -10.4279    148.9170     80.1168   9.4336549014e+01   3.6935221607e+01     0.240632    0.2062645 -69.18 0.0005196813    1.280    0.219
       460 -10.4853    105.2733     84.5429   1.0706265994e+02   4.5635451262e+01    0.2626847    0.1459571  48.51  0.001111435    1.937    0.484
       461 -10.9457    113.2206     79.4029   1.0325307146e+02   4.5107132449e+01    0.2040972    0.1438738  58.24  0.000666841    1.614    0.380
       462 -10.1186    107.8376     77.8493   1.0429614142e+02   4.6519228283e+01    0.1955787    0.1726706 -77.55 0.0003980628    1.287    0.223
       463 -12.3856     51.6202     76.7455   1.2188944851e+02   5.5777200592e+01    0.4568866    0.3832443  83.48 0.0008783821    1.443    0.307
       464 -11.0785      4.2419     77.5994   1.3840572175e+02   5.9610516535e+01    0.2509073    0.1932791 -12.35  0.001764523    1.663    0.399
       465 -12.2547      2.2483     72.0082   1.3815228925e+02   6.0942619346e+01    0.4051545    0.1379604 -59.27  0.002032383    1.998    0.499
       466 -12.6049     57.4731     73.1632   1.1890032728e+02   5.5837663855e+01    0.6971177     0.387147  55.36  0.001606905    2.752    0.637
       467 -11.7567     53.3601     69.0199   1.1916163456e+02   5.7243539563e+01    0.4138268    0.2459381 -34.72  0.001489393    1.760    0.432
       468 -11.0766    113.9231     74.2081   1.0142812294e+02   4.6002618813e+01    0.3223023    0.2529208  26.16 0.0008677162    1.451    0.311
       469 -10.9519     91.9601     74.8814   1.0809700368e+02   5.0151974156e+01    0.2582828    0.2016224   8.79   0.00107725    1.604    0.377
       470 -10.4311     82.1396     75.2138   1.1128393567e+02   5.1778112295e+01    0.2044589    0.1777751 -24.60 0.0004688939    1.173    0.147
       471 -10.7013     68.9248     73.8435   1.1520058733e+02   5.4124157791e+01    0.1950048    0.1794812 -47.91 0.0003760629    1.051    0.048
       472  -9.8567     29.4419     74.4584   1.2906658153e+02   5.8548690208e+01    0.1262122   0.09964751 -53.48 0.0002476377    1.047    0.045
       473 -11.2375    231.2359     72.7002   7.7236863158e+01   1.7940250312e+01    0.2414194    0.2250169 -26.91 0.0002894384    1.106    0.096
       474 -11.2873     17.6868     72.2960   1.3276388211e+02   5.9945202141e+01    0.2317215     0.172252 -34.46 0.0009757931    1.401    0.286
       475 -10.9913    166.8090     70.8088   8.7595161011e+01   3.4213195835e+01    0.3332478    0.2399402  -6.68  0.001443865    1.860    0.462
       476 -10.7302    200.0343     70.9438   8.1498674317e+01   2.5794357113e+01     0.219457    0.2121466 -49.79  0.001203229    1.030    0.029
       477 -11.7375     87.8553     69.2956   1.0761144312e+02   5.2025995403e+01    0.2817136    0.2157403  68.51  0.001424764    1.756    0.430
       478 -10.3578    152.8539     69.5979   9.0198178716e+01   3.7905050562e+01    0.2216999     0.148644  70.62 0.0008728124    1.778    0.438
       479 -11.9133     35.2587     72.0473   1.2643011306e+02   5.8552967822e+01    0.3311664    0.2203106  29.82 0.0006168346    1.791    0.442
       480 -11.4491     75.9814     67.4746   1.1088729588e+02   5.4384529264e+01    0.3788242    0.2272723  67.00  0.001467196    3.441    0.709
       481 -10.8828    201.6470     66.5464   8.0006270143e+01   2.6094393619e+01    0.2591812    0.2279709 -29.40 0.0004708694    1.158    0.136
       482 -10.1596    132.9940     68.0000   9.4372397656e+01   4.2959467158e+01    0.2431438   0.08661143  51.88 0.0004196205    2.847    0.649
       483 -11.0718     93.4530     67.1259   1.0514983558e+02   5.1449379491e+01    0.2243612    0.1957236  15.47 0.0004733375    1.238    0.192
       484  -9.3897     69.6823     67.7121   1.1308584455e+02   5.5303791601e+01    0.1360496    0.1001363 -18.27 0.0002636969    1.593    0.372
       485  -9.8108    217.0480     66.0297   7.7506008004e+01   2.2355207759e+01    0.1732924    0.1605458 -51.53 0.0003120436    1.013    0.013
       486  -9.8714     36.0290     66.4986   1.2473769852e+02   5.9683771746e+01    0.1491314    0.1253358  19.90 -0.0002278119    1.414    0.293
       487 -10.7510     14.5439     65.3715   1.3243446152e+02   6.1668467344e+01    0.2505018    0.1459578 -21.92  0.001416671    2.171    0.539
       488 -10.7317    142.2818     64.9796   9.1139809707e+01   4.1299325111e+01    0.2087649    0.2061529 -44.97 0.0004855404    1.012    0.012
       489 -11.4882     88.5933     63.7021   1.0553412577e+02   5.3007837056e+01    0.2826692    0.2318147 -48.57  0.000882845    1.204    0.170
       490 -11.8224     29.2141     64.7504   1.2681385040e+02   6.0684085323e+01    0.2544505    0.2166951 -89.41            0    1.387    0.279
       491 -10.2483      6.0499     64.9900   1.3549809795e+02   6.2264158087e+01    0.1871609    0.1010099 -44.86 0.0007180257    1.613    0.380
       492 -10.9018      6.1239     60.6118   1.3457924607e+02   6.3198640718e+01    0.2773256    0.1341365 -63.43 0.0008684027    1.562    0.360
       493 -11.5644      2.2482     60.8643   1.3609854784e+02   6.3347830785e+01    0.3391427    0.1500976 -51.85  0.001891574    1.685    0.407
       494 -10.4407    109.9239     64.1020   9.9236877277e+01   4.8784285630e+01    0.2257652    0.2021276 -79.10  0.001004064    1.312    0.238
       495 -10.3873    119.9895     62.9623   9.6068494475e+01   4.6829611056e+01    0.2266823    0.1822858 -76.69 0.0006071111    1.599    0.374
       496 -11.4846     75.0552     63.2773   1.0983693899e+02   5.5382038277e+01    0.1794524    0.1686451 -27.16 0.0003202248    1.055    0.052
       497 -10.2916     77.9731     60.4710   1.0791346641e+02   5.5466260432e+01    0.1981825    0.1366065  37.80    0.0010259    1.574    0.365
       498 -12.0700     19.2695     55.0908   1.2815261482e+02   6.3524866959e+01    0.4233844    0.2382917  85.01  0.001785742    4.052    0.753
       499 -10.5978     15.9027     59.4908   1.3057630811e+02   6.2836826018e+01    0.1948514    0.1406721 -69.60  0.000632317    1.294    0.227
       500 -12.3312     16.1650     46.7804   1.2715357822e+02   6.5455969378e+01    0.4290849    0.2945382 -42.17  0.002837042    1.185    0.156
       501 -11.2805     20.7125     44.9430   1.2468869479e+02   6.5488165966e+01    0.2740175    0.1500891 -57.85 0.0004018154    1.560    0.359
       502 -11.2890     12.8734     55.3867   1.3077100614e+02   6.3902935474e+01    0.2691852      0.17336 -70.66  0.000532951    1.479    0.324
       503 -12.0030     10.8298     50.1585   1.3028841167e+02   6.5118414412e+01    0.5292472    0.1483457 -60.12  0.002324399    2.603    0.616
       504 -10.6119    173.7723     58.8546   8.2585273548e+01   3.4426517429e+01    0.2200557    0.2030089  16.20 0.0004947534    1.195    0.163
       505 -10.9684     38.6838     58.4948   1.2150480177e+02   6.1111609645e+01    0.2667167    0.1833085 -44.91 0.0007951745    1.205    0.170
       506 -11.2070     45.3842     55.5418   1.1802949137e+02   6.0992472898e+01    0.2268088    0.2010225 -38.00 0.0006264701    1.066    0.062
       507 -12.6294     41.1063     50.8424   1.1817963919e+02   6.2411856783e+01    0.3142489    0.2644946  74.14 0.0006623697    1.701    0.412
       508 -10.5480    108.3103     56.8458   9.7188991248e+01   5.0446487590e+01    0.3915778     0.221116  31.66  0.001618394    2.209    0.547
       509 -10.4368    104.2026     56.2018   9.8149645527e+01   5.1412130589e+01    0.2065821    0.1871507   1.80 0.0002568456    1.114    0.102
       510 -11.0736     52.6207     55.9532   1.1541827755e+02   6.0042687968e+01    0.3099898    0.1972996 -46.62  0.001095071    1.350    0.259
       511 -12.0657     93.6048     54.6307   1.0079075923e+02   5.3789723760e+01    0.3363216    0.3001818  18.84 0.0008658305    1.144    0.126
       512 -10.0067    133.0225     55.0312   9.0029955154e+01   4.5216343448e+01    0.1762162    0.1724551  -6.48 0.0004287426    1.010    0.010
       513 -11.1064     28.5059     54.4748   1.2430628605e+02   6.2909881829e+01    0.2294006    0.1872669 -33.56 0.0007138388    1.141    0.124
       514 -10.4425     76.3517     53.8188   1.0614222024e+02   5.7008850687e+01    0.2126125    0.1846917  44.65 0.0007415636    1.311    0.237
       515 -11.8228      3.4669     52.7650   1.3390946511e+02   6.4994394717e+01    0.3903323     0.234804 -11.26  0.002442002    2.087    0.521
       516 -10.4036      1.8685     48.1697   1.3350011584e+02   6.6026353392e+01    0.2375359    0.1109609 -53.33 0.0008092764    1.529    0.346
       517  -9.4736    191.4701     53.5296   7.7922916981e+01   3.0689298736e+01    0.1477445    0.1436411 -77.88 6.472245e-06    1.029    0.028
       518 -11.3845    120.5721     51.4669   9.1919608500e+01   4.8694103077e+01    0.2490634    0.2317529  10.96 0.0001540712    1.073    0.068
       519 -12.7480     61.8661     44.5515   1.0791231329e+02   6.0970094458e+01    0.6481066    0.2357492 -43.79  0.002659598    2.460    0.594
       520 -10.8466     32.3967     51.4661   1.2185565284e+02   6.3171053059e+01    0.2773706    0.1913797 -84.69  0.001410676    2.276    0.561
       521 -11.6545    149.6985     50.5845   8.4732125547e+01   4.1853327016e+01     0.352061    0.2574489  38.47 0.0006436874    1.454    0.312
       522 -10.1161    106.0276     48.7985   9.4936084377e+01   5.2313503276e+01    0.1899583    0.1770743   8.54  0.001086088    1.043    0.041
       523  -9.9864    134.3128     48.3522   8.7407845006e+01   4.5983575574e+01    0.1566798    0.1133413  17.63 0.0007045551    1.728    0.421
       524  -9.6646     89.2645     46.6118   9.9194222466e+01   5.6022909517e+01    0.1372688     0.106493 -62.60  0.000570987    1.699    0.412
       525 -11.0975    180.6366     44.3653   7.6944765757e+01   3.4824798210e+01    0.2556828     0.217227  80.72 0.0005944521    1.180    0.152
       526 -10.2846    137.9948     45.0323   8.5398322152e+01   4.5599034529e+01    0.1738145    0.1706215  20.36 0.0003261554    1.008    0.008
       527  -9.8936    126.7156     45.3098   8.8153482147e+01   4.8260201596e+01    0.1442232    0.1139115 -66.56 0.0002129519    1.570    0.363
       528 -10.0232     67.6452     45.7233   1.0622819904e+02   5.9889418314e+01     0.134533   0.09628143  -4.71 0.0007007821    1.649    0.394
       529 -10.2550     34.8787     44.8851   1.1871752589e+02   6.4235489486e+01    0.1595826    0.1380101 -73.51 -0.0006383859    1.462    0.316
       530 -11.1846     37.5734     40.6708   1.1611854325e+02   6.4761850931e+01    0.3062159       0.1886 -30.02  0.001488728    1.537    0.350
       531 -10.8303     25.8886     44.6253   1.2239581690e+02   6.5126632607e+01    0.2032133    0.1319564 -43.24 0.0005581963    1.228    0.186
       532  -9.9280     80.4527     43.5653   1.0091520096e+02   5.8147461589e+01    0.1351142    0.1215076 -14.07 0.0001267952    1.004    0.004
       533 -11.2394    104.6786     41.8217   9.2695596043e+01   5.3725737742e+01    0.2521352    0.1760772 -39.74 0.0006689992    1.446    0.308
       534 -10.6944      9.0461     40.3718   1.2838387862e+02   6.7207494489e+01     0.156526    0.1265396 -42.76 0.0006584142    1.076    0.071
       535 -10.2249    175.1986     39.2111   7.6248581960e+01   3.6953639130e+01     0.203195    0.1652126 -67.46 0.0003591792    1.298    0.229
       536 -10.8044    157.0150     38.7504   7.9312309599e+01   4.1724619349e+01    0.2477836     0.208294 -32.31  0.000632921    1.219    0.179
       537 -10.2919    137.2131     38.3196   8.3202516264e+01   4.6765376714e+01    0.2654993    0.1670166 -49.24  0.001104821    1.805    0.446
       538 -10.0240     93.6456     40.7195   9.5541607073e+01   5.6153025806e+01    0.1432329    0.1021925  13.26 0.0003433653    1.657    0.396
       539 -10.5888     25.5575     38.5203   1.2051246436e+02   6.6341273698e+01    0.2250046    0.1497996 -32.30  0.001102133    1.317    0.241
       540 -10.9217     21.9840     37.7805   1.2183451795e+02   6.6787166998e+01    0.2215881    0.1942776  -4.41  0.001144769    1.259    0.206
       541 -10.5492    193.2218     37.3371   7.2916544103e+01   3.2518441691e+01    0.2288093    0.1962541 -19.42 0.0005183996    1.284    0.221
       542 -10.2991    147.8886     38.1674   8.0898476275e+01   4.4127759292e+01     0.207323    0.1929812 -73.24 0.0002719056    1.134    0.118
       543 -11.0404    111.1413     37.3436   8.9182672107e+01   5.3006820233e+01    0.2309685    0.1944862 -23.06 0.0004279454    1.171    0.146
       544 -11.5701      3.6540     35.5703   1.2941130810e+02   6.8463235291e+01     0.410197    0.1877994 -67.37  0.001888453    2.205    0.546
       545 -11.5436     40.8872     35.9674   1.1296029466e+02   6.5260146008e+01    0.2527921    0.2102841 -62.38 0.0009298045    1.535    0.349
       546 -10.3795     13.1803     37.0183   1.2552319755e+02   6.7597909121e+01    0.1869885    0.1143467 -39.00 0.0009399147    1.330    0.248
       547 -10.1234    129.2554     36.4322   8.4316225127e+01   4.8959296371e+01    0.1873046     0.140309  69.47 0.0004684541    1.476    0.322
       548 -11.9747    106.7570     32.2992   8.8393056721e+01   5.4689184016e+01    0.4247614    0.2462931 -35.22  0.001223909    1.720    0.419
       549 -11.2318     55.7394     34.3340   1.0623222610e+02   6.3641173455e+01    0.2707168    0.2253321  -9.19  0.001131775    1.106    0.096
       550 -12.0739     77.1365     32.6635   9.7637426660e+01   6.0502265783e+01     0.526274    0.2949217  42.22  0.002243301    1.841    0.457
       551 -11.4576     76.0644     27.1043   9.5625865362e+01   6.1522850370e+01    0.2561892    0.1825285 -12.19 0.0003726723    1.405    0.288
       552 -10.2889    134.9392     32.6703   8.1666363725e+01   4.8092289023e+01    0.1989884    0.1795519  56.55 0.0004624157    1.087    0.080
       553  -9.8407    117.5645     33.4835   8.6029024318e+01   5.2109300438e+01    0.1416179    0.1318023  16.18 0.0001425204    1.026    0.025
       554  -9.8467    200.5051    249.4409   1.1899571968e+02  -3.1549728529e+00    0.1152126   0.08798517  32.47 0.0001537165    1.012    0.011
       555 -10.6878     24.1988     31.0308   1.1841953699e+02   6.7859957792e+01    0.1767275    0.1510198 -12.07 0.0002647385    1.186    0.157
       556 -10.6734     17.9533     31.4620   1.2146214764e+02   6.8304059503e+01    0.1503388    0.1092389   9.94 0.0008878715    1.558    0.358
       557 -10.3370    123.1153     28.6518   8.2832344432e+01   5.1460123058e+01     0.200094    0.1719909  48.17 0.0005752571    1.118    0.105
       558  -9.8863     32.3548     28.6797   1.1378487728e+02   6.7489720254e+01    0.1065472   0.09468342 -85.49 0.0007046381    1.754    0.430
       559 -11.3417    187.3584     27.0134   7.0685036852e+01   3.5348368720e+01    0.2617731    0.2005467  73.19 0.0004737593    1.251    0.201
       560 -10.3848    153.3466     26.3446   7.5799668951e+01   4.4263446690e+01    0.2328848    0.1570183  31.42 0.0006649531    1.715    0.417
       561 -10.7106    100.8418     25.8774   8.7416065129e+01   5.6829427853e+01    0.2207705    0.1763429  18.52 0.0009960899    1.244    0.196
       562 -10.1304    134.4977     24.9936   7.8949884435e+01   4.9168082331e+01     0.202586    0.1397134 -26.10 -0.0003440072    1.502    0.334
       563 -10.7454      4.7941     23.4108   1.2493222819e+02   7.0701424453e+01    0.2234891    0.1262756  20.75  0.001437842    2.107    0.525
       564 -11.4997     65.8485     24.1625   9.7960980230e+01   6.3698879420e+01    0.2503399      0.18197  35.85 0.0007531541    1.414    0.293
       565 -10.8148     55.1136     21.6887   1.0096529917e+02   6.5739343800e+01    0.2102858    0.1640455   1.63 0.0003550171    1.199    0.166
       566 -10.8948    189.4439    242.5176   1.1993541098e+02  -5.7645082663e-01    0.1827645    0.1574025  15.23 0.0007195186    1.191    0.160
       567 -10.6255     50.2214     23.5719   1.0381844488e+02   6.6156893253e+01    0.2214997    0.1513304 -34.62 0.0009347652    1.311    0.237
       568 -10.1329     31.4608     23.7632   1.1213278766e+02   6.8425798838e+01    0.1675971   0.08994381 -34.50 0.0003378917    1.572    0.364
       569 -11.1666     17.9913     23.0036   1.1822495531e+02   6.9830124026e+01    0.3918149    0.2316332  49.17   0.00211704    3.142    0.682
       570 -10.3276     14.1699     23.6507   1.2035679988e+02   7.0019547249e+01     0.178428    0.1236511 -39.96            0    1.105    0.095
       571 -10.3477    221.3678     23.2230   6.5579295269e+01   2.7148850361e+01    0.2061895    0.1092607 -41.15 0.0009528463    1.720    0.419
       572 -11.3226    109.6714     22.8785   8.3833856789e+01   5.5277051905e+01    0.2439319    0.2040646  38.64 0.0003445043    1.124    0.110
       573 -11.7487     38.0067     21.0104   1.0792842299e+02   6.8136850006e+01     0.235501     0.212851   0.46  0.001702515    1.238    0.193
       574 -11.5951    197.1414    235.0904   1.1753809966e+02  -8.5749730074e-01    0.3363205    0.2318813  -1.52 0.0009220277    1.870    0.465
       575  -9.5954    151.2905     20.3050   7.4086445748e+01   4.5489386237e+01     0.145638    0.1022113  32.89 0.0003251457    1.573    0.364
       576 -10.1504     28.3945     20.0902   1.1196012116e+02   6.9356630913e+01    0.1592886    0.1202267 -10.23 0.0007439569    1.219    0.180
       577 -10.7189    101.6629     18.4869   8.4094367029e+01   5.7566558066e+01    0.2250368    0.1210009 -26.29  0.001056008    1.861    0.463
       578 -10.3000     35.4928     30.9264   1.1329601515e+02   6.6761260984e+01    0.3105109    0.1624469   3.21   0.00127974    3.261    0.693
       579 -11.1655    179.0506    248.6829   1.2255901453e+02   2.8081545816e-01    0.1718419     0.135788  35.04 0.0003647095    1.047    0.045
       580 -11.3908    131.2232     16.8100   7.6567738067e+01   5.0901325305e+01    0.3014863    0.1964208  45.48 0.0006389439    1.448    0.309
       581  -9.6827    145.7260     16.7118   7.3802516221e+01   4.7296875083e+01    0.1410054    0.1000335  33.36 0.0001857093    1.512    0.338
       582 -11.8984    180.9933    244.4188   1.2166150015e+02   5.2385773379e-01    0.2767314    0.2173043 -15.33 0.0006660862    1.610    0.379
       583 -12.2884    186.1536    239.5362   1.2009545743e+02   3.3528322336e-01    0.4086275    0.2702061  18.30  0.001967018    1.747    0.427
       584 -10.7679    112.1435     14.8766   7.9960267071e+01   5.5633553657e+01    0.1931106    0.1821383 -48.99 0.0004150305    1.215    0.177
       585 -10.1644     92.5546     15.0228   8.5098583191e+01   5.9896064423e+01    0.1900246    0.1228749 -24.39 0.0003935212    1.529    0.346
       586 -12.2734    191.2096    235.3234   1.1861168277e+02   7.1237315056e-02    0.2723233    0.2429747  23.68 0.0009469129    1.132    0.116
       587 -10.4138    173.4692     13.9295   6.8577147227e+01   4.0438824809e+01     0.196095    0.1397071 -25.08  0.000347614    1.509    0.337
       588 -10.2086     86.1881     13.8403   8.6425463365e+01   6.1325622378e+01    0.1804474    0.1344815  20.04 0.0003554139    1.290    0.225
       589  -9.6032    196.6515    247.3014   1.1935571898e+02  -2.3039819264e+00    0.1096619   0.08105289  58.21 0.0007038703    1.690    0.408
       590 -10.2409    132.6305    247.2837   1.3047864216e+02   7.7908670352e+00    0.1296781    0.1099868 -48.71 0.0008348852    1.565    0.361
       591 -11.3389    243.1152     12.7748   6.1007019828e+01   2.3154602722e+01    0.2013613    0.1509233 -65.90 0.0004699011    1.170    0.145
       592 -12.1745    136.7667    243.1471   1.2929128053e+02   7.7636156339e+00    0.3161831    0.2626115 -13.65  0.001439992    1.840    0.457
       593 -12.8676    203.0858    241.1184   1.1738501633e+02  -2.5579523111e+00     0.248068    0.2310452  -0.78 0.0006977205    1.272    0.214
       594 -11.2838    128.3822    242.8646   1.3074574889e+02   9.1219181296e+00    0.2186946    0.1893055  -5.95 0.0006503972    1.755    0.430
       595 -12.9655    131.2902    236.4062   1.2950144126e+02   9.6715124490e+00    0.4451598    0.3267444  14.42  0.002566432    2.141    0.533
       596 -10.0310     67.2831     11.2921   9.1392535352e+01   6.5164535613e+01    0.1262512   0.08473577  11.07  0.000267787    1.534    0.348
       597 -10.7380    172.4588    240.4970   1.2263532412e+02   2.4177745566e+00    0.3094442    0.2084881 -65.74  0.001357897    2.309    0.567
       598 -10.8994    168.5134    239.0025   1.2313658377e+02   3.2644061739e+00    0.2264051    0.1721379  69.49 0.0008441033    1.650    0.394
       599 -11.0698    161.3351    241.2730   1.2470531814e+02   4.1083101670e+00    0.2432718    0.1946118  81.66  0.001600167    1.626    0.385
       600 -10.5518    217.7866    240.6493   1.1481900602e+02  -4.7798398313e+00    0.1793456    0.1115127  28.83 0.0008505392    1.328    0.247
       601 -10.0212    237.6380    238.2472   1.1115883821e+02  -7.4835499419e+00     0.135806    0.0941931 -10.04 0.0003419612    1.468    0.319
       602 -12.0668    219.0095    233.2984   1.1349687837e+02  -4.1057121791e+00    0.3201046     0.216926   4.13 0.0005903065    1.627    0.385
       603 -11.7015    176.7054    232.9446   1.2084949810e+02   2.7699825064e+00    0.3944724    0.1841281  33.29  0.001127599    2.114    0.527
       604 -11.7271    160.9053    232.1618   1.2359543438e+02   5.4989549404e+00     0.223469    0.1777261  50.63 0.0004567526    1.117    0.105
       605 -11.2728    183.8257    232.4181   1.1950152037e+02   1.6683854128e+00    0.3563784    0.1858628  30.75  0.001526247    1.920    0.479
       606 -10.3476    156.3395    233.0528   1.2454287610e+02   6.1208766230e+00    0.1558499    0.1372569  51.73 0.0003262424    1.107    0.097
       607 -12.5540    142.7406    231.8551   1.2687152002e+02   8.5398718012e+00    0.3191975    0.1923864  42.20  0.001438732    1.373    0.272
       608 -12.5838    118.7533    233.4592   1.3144471397e+02   1.2126337532e+01    0.3768412    0.2480589  78.05  0.001303572    1.769    0.435
       609 -10.9485     58.5969    230.1416   1.4192702500e+02   2.1317614141e+01    0.2326763     0.123297  71.39  0.001366752    1.713    0.416
       610 -10.9695    100.0728    216.4317   1.3305359229e+02   1.7997964906e+01     0.300542    0.2741851  38.46  0.001679794    1.376    0.273
       611 -12.2747     95.9773    211.4383   1.3328938229e+02   1.9554415047e+01     0.262027    0.2284015  40.57 0.0003248498    1.355    0.262
       612 -11.9426     97.8710    205.0744   1.3218820610e+02   2.0479515649e+01    0.4047646    0.2974948  59.85  0.001385569    1.148    0.129
       613 -12.4653    104.5933    209.1324   1.3133925984e+02   1.8654143883e+01    0.5971054    0.3961015  84.99  0.002433564    1.680    0.405
       614 -11.7583    128.3896    228.3058   1.2908341632e+02   1.1445941312e+01    0.3580152    0.1890689  41.73  0.000450179    1.612    0.380
       615 -11.8727    123.6593    224.9683   1.2956710276e+02   1.2768213041e+01    0.3832929      0.17842  51.38  0.001024186    1.858    0.462
