#   1 NUMBER                 Running object number                                     
#   2 MAG_AUTO               Kron-like elliptical aperture magnitude                    [mag]
#   3 X_IMAGE                Object position along x                                    [pixel]
#   4 Y_IMAGE                Object position along y                                    [pixel]
#   5 X_WORLD                Barycenter position along world x axis                     [deg]
#   6 Y_WORLD                Barycenter position along world y axis                     [deg]
#   7 A_WORLD                Profile RMS along major axis (world units)                 [deg]
#   8 B_WORLD                Profile RMS along minor axis (world units)                 [deg]
#   9 THETA_WORLD            Position angle (CCW/world-x)                               [deg]
#  10 FWHM_WORLD             FWHM assuming a gaussian core                              [deg]
#  11 ELONGATION             A_IMAGE/B_IMAGE                                           
#  12 ELLIPTICITY            1 - B_IMAGE/A_IMAGE                                       
         1 -15.3244      6.8285     69.4089   2.9226111484e+02   6.9363463474e+00   0.07256096     0.046917 -57.38  0.003892299    1.547    0.353
         2 -14.8822    122.8142     36.6609   2.9069550305e+02   6.5883846867e+00   0.06553542   0.03130532  24.40  0.002303216    2.173    0.540
         3 -14.3466     25.4646     31.8965   2.9180696286e+02   7.2470953620e+00   0.08088137   0.05223702 -44.37  0.008247101    1.598    0.374
         4 -15.0469      7.8862     29.4191   2.9199768254e+02   7.3840261021e+00   0.06013837    0.0457663  40.91   0.00668829    1.312    0.238
         5 -14.9403     13.8571     20.3316   2.9187049982e+02   7.4502482272e+00   0.05876232   0.04282732   8.11   0.00431148    1.533    0.348
         6 -14.5036     25.0256     13.7138   2.9169780529e+02   7.4562189833e+00   0.04386927   0.02937389  46.25  0.003697088    1.562    0.360
         7 -13.6998     17.5865     12.2708   2.9177604968e+02   7.5186584067e+00   0.02967094    0.0192194 -66.08  0.002049399    1.645    0.392
         8 -14.3529    166.5235     30.4347   2.9014443383e+02   6.3865649828e+00   0.05583447   0.02922182  28.28   0.00262724    1.870    0.465
         9 -13.6378    189.6890     26.6696   2.8984962059e+02   6.2846422276e+00   0.04305337   0.02642577  74.69  0.002918256    2.583    0.613
        10 -12.4445    243.8467     36.6729   2.8927967064e+02   5.8326043031e+00   0.04007934   0.01068217  37.47  0.002740957    3.369    0.703
        11 -13.4047      8.0414      3.2672   2.9183149477e+02   7.6799028530e+00     0.036759   0.02853833 -78.44  0.004066705    1.457    0.314
        12 -15.4624     99.5142     13.1506   2.9082045982e+02   7.0002039488e+00   0.06662562   0.03995908  22.34   0.00372371    1.724    0.420
        13 -12.8477     39.8772     14.7389   2.9152995855e+02   7.3525579305e+00   0.02487165   0.01547983  15.68  0.001911301    1.793    0.442
        14 -14.4110     42.4244      5.6808   2.9144306956e+02   7.4395563231e+00   0.04945774   0.04243479 -59.20  0.005431037    1.186    0.157
        15 -12.2772    218.6914     15.2473   2.8943838867e+02   6.2328720308e+00   0.01755017    0.0144892 -84.75  0.001383699    1.370    0.270
        16 -12.1314    214.5145      9.9910   2.8945404131e+02   6.3185778766e+00    0.0195671   0.01245706  30.22  0.001986722    1.525    0.344
        17 -12.1812    186.3587     13.9369   2.8980825641e+02   6.4498380391e+00    0.0133805   0.01099127 -43.37 0.0005766966    1.238    0.192
        18 -11.0946    188.7203     11.3090   2.8976404339e+02   6.4648798784e+00     0.010093  0.009430248  58.47 0.0005185935    1.116    0.104
        19 -11.1557    201.8548     11.8288   2.8961367888e+02   6.3769020242e+00  0.009864158  0.008802342 -13.47 0.0003514511    1.174    0.148
        20 -12.6464     46.9267     20.6157   2.9148421289e+02   7.2421458553e+00   0.02576009   0.02182347 -50.60  0.003020605    1.187    0.158
        21 -12.3742    223.7523      4.9940   2.8931450087e+02   6.3174221306e+00    0.0226506   0.01039736 -41.76  0.001856877    2.510    0.602
        22 -11.0189    153.9551      8.0246   2.9015025468e+02   6.7191744452e+00  0.009905047   0.00962459  12.60 0.0003274013    1.008    0.008
        23 -12.0068    121.9732      4.4134   2.9050214385e+02   6.9595062028e+00    0.0213022  0.008567498  41.02  0.001705402    2.489    0.598
        24 -11.2376    232.5488      1.6786   2.8919075780e+02   6.2999387193e+00   0.01273859  0.008870894  26.65 0.0008205633    1.417    0.294
        25 -11.8771     81.3269      1.7776   2.9096207395e+02   7.2423247199e+00   0.02632656    0.0102644  19.91  0.001869611    3.317    0.699
        26 -11.3416     62.4740      1.5038   2.9118150800e+02   7.3625466791e+00   0.01171025  0.006464775  27.97 0.0006891846    1.775    0.437
        27 -12.0565    133.5890    201.7381   2.9160639844e+02   4.6456325603e+00   0.01977423   0.01634329  41.09  0.001830808    1.208    0.172
        28 -14.2377     97.6831    238.2012   2.9225421826e+02   4.4540170479e+00   0.05284311   0.04376253  35.97  0.006129752    1.186    0.157
        29 -14.4573     91.5922    231.6799   2.9228464780e+02   4.5659710571e+00   0.09635564   0.04664715  57.26  0.007191135    3.305    0.697
        30 -11.4269     41.1729    249.8656   2.9298749847e+02   4.6715810839e+00   0.01253298  0.009049723 -52.76  0.001347006    1.384    0.277
        31 -13.6254     28.3115    245.8907   2.9311305268e+02   4.7963850029e+00   0.03483013   0.02559653  89.34  0.003653963    1.696    0.410
        32 -11.8458      2.7671    249.9880   2.9343716719e+02   4.9076969936e+00     0.017932   0.01284119  36.56  0.001880302    1.365    0.267
        33 -14.1132      9.0876    245.7837   2.9333710493e+02   4.9164713713e+00   0.04567027   0.03250797  53.49  0.002989864    1.558    0.358
        34 -13.6915     39.4429    195.1437   2.9266618160e+02   5.3047870662e+00   0.02363817   0.02336527  58.51  0.001821526    1.040    0.038
        35 -10.6467    250.4798    200.4959   2.9023363326e+02   3.9318544327e+00  0.006607323   0.00647202  25.89 0.0008102784    1.016    0.016
        36 -10.9951    212.4657    200.5144   2.9067732703e+02   4.1686040661e+00   0.00665959  0.006409915 -11.23 0.0001050001    1.040    0.038
        37 -12.9204    164.8248    195.5690   2.9120269666e+02   4.5214780204e+00   0.03772232   0.02197114  85.09  0.003051551    3.013    0.668
        38 -13.6617     30.0185    169.8931   2.9261865356e+02   5.6503651870e+00   0.04794792     0.028964 -17.98  0.003430193    2.431    0.589
        39 -15.0171     13.9443    157.5647   2.9272977204e+02   5.8900554859e+00     0.151638   0.06871735 -32.39   0.01064422    3.698    0.730
        40 -14.3574     22.7128    181.1365   2.9277444304e+02   5.5676795848e+00   0.04562429   0.03373271 -26.55  0.004204661    1.540    0.351
        41 -15.1255      8.7274    183.4786   2.9295276394e+02   5.6275327179e+00   0.06805033   0.05473493   7.64  0.007701792    1.328    0.247
        42 -14.3653     15.6253    175.4725   2.9282201507e+02   5.6759554107e+00   0.05119118    0.0297004  50.14  0.004621717    1.959    0.489
        43 -12.8584    201.4913    191.6154   2.9074959995e+02   4.3380873174e+00   0.02472661   0.01803977 -29.54  0.002492962    1.544    0.352
        44 -10.7722    107.5280    192.9835   2.9185624870e+02   4.9071105305e+00    0.0102381   0.00650758 -58.37  0.001024547    1.579    0.367
        45 -11.2097     81.0507    193.3829   2.9216841342e+02   5.0669269560e+00   0.01500059  0.006264289  28.32  0.001223087    2.336    0.572
        46 -13.1292     97.9781    187.9971   2.9193670985e+02   5.0231173589e+00   0.02097557   0.01404545  35.88  0.002185007    1.452    0.311
        47 -12.3349    110.3803    183.0612   2.9176074321e+02   5.0022194965e+00   0.02432755   0.01353268  -1.90  0.001910641    3.044    0.671
        48 -13.3639     86.0179    180.1649   2.9202757283e+02   5.1864306287e+00   0.02578424   0.01684077  48.23  0.002607586    1.641    0.391
        49 -11.5015    249.6698    182.1377   2.9012774327e+02   4.1453738199e+00   0.01345638   0.00655463 -70.69   0.00109862    2.574    0.611
        50 -11.2606    199.0014    183.4753   2.9072757695e+02   4.4460888687e+00   0.01056763  0.006498892  27.01  0.001036437    1.605    0.377
        51 -11.5678    122.7102    182.0411   2.9161016181e+02   4.9372008195e+00   0.02083015   0.01221986  70.90  0.001722932    2.817    0.645
        52 -11.9865    194.8319    177.5532   2.9073909180e+02   4.5393563667e+00   0.01374222   0.01192559 -50.56  0.001132721    1.161    0.138
        53 -12.2440    132.0525    172.8407   2.9144323877e+02   4.9837200524e+00   0.02061427   0.01678879  19.06  0.002355505    1.238    0.192
        54 -13.0066     48.7458    181.3578   2.9247115056e+02   5.4039846347e+00   0.02818931   0.01581862 -44.61   0.00265717    1.864    0.463
        55 -13.3681    124.1448    167.1997   2.9150034236e+02   5.0970190590e+00   0.03469596   0.02250702 -84.75  0.003314089    2.059    0.514
        56 -11.0982    177.4029    167.7925   2.9088142981e+02   4.7588482412e+00  0.009814173  0.005905328 -48.98 0.0008858127    1.668    0.401
        57 -11.2616    208.3386    167.6851   2.9051936155e+02   4.5672896944e+00  0.007087082  0.004991024  60.53 0.0004006202    1.699    0.411
        58 -12.9722    238.1647    159.7139   2.9012104076e+02   4.4717958251e+00    0.0244837  0.008703382  34.69  0.001901954    2.580    0.612
        59 -12.8507     24.3785    156.3223   2.9259982023e+02   5.8396324778e+00   0.02789632   0.02140158  26.34  0.003108985    1.283    0.221
        60 -12.4862    122.4260    156.0237   2.9145035287e+02   5.2347601418e+00    0.0212451   0.01620114 -25.47  0.002309336    1.475    0.322
        61 -12.9656    111.5640    155.8239   2.9157617124e+02   5.3045531905e+00   0.02884757   0.01738754  65.94  0.002541758    2.440    0.590
        62 -12.4082     85.4549    153.9323   2.9186983476e+02   5.4882341581e+00   0.02909601   0.02006127 -32.32  0.002993369    1.644    0.392
        63 -12.8092     77.7972    157.0903   2.9197924913e+02   5.4998522059e+00   0.02269843    0.0161486  18.18  0.001135466    1.465    0.317
        64 -13.5723     74.1440    153.5152   2.9199960984e+02   5.5631745459e+00   0.03933647   0.02483254  20.83  0.003052304    1.652    0.395
        65 -12.3532     55.4480    156.0745   2.9223449814e+02   5.6500157534e+00   0.02430762   0.01415982   6.42  0.001794776    2.329    0.571
        66 -13.1075    209.2509    155.3377   2.9043111709e+02   4.7018646275e+00    0.0418245   0.01115498  30.29  0.002833208    3.426    0.708
        67 -12.7129    246.3559    149.3620   2.8996034212e+02   4.5382178265e+00   0.02816119   0.01899519  68.91   0.00274553    1.981    0.495
        68 -11.1899    188.3974    156.2109   2.9068021816e+02   4.8219483444e+00  0.009330312  0.006540499 -77.03  0.000948143    1.668    0.401
        69 -12.1379    103.5604    149.6488   2.9163109393e+02   5.4244928349e+00   0.01721414   0.01361503 -25.86  0.001415523    1.391    0.281
        70 -11.6086     44.6772    145.2782   2.9229300979e+02   5.8395459347e+00    0.0120281   0.01050942  12.86 0.0005469518    1.160    0.138
        71 -11.7316     38.4730    145.5552   2.9236739782e+02   5.8748292358e+00   0.01185562   0.01138623 -15.26 0.0006876693    1.044    0.043
        72 -11.3064    149.1079    141.2030   2.9104523966e+02   5.2372184165e+00   0.01350214  0.008861231  46.83  0.001363332    1.606    0.377
        73 -11.3788     88.8431    140.9442   2.9174875432e+02   5.6148736720e+00   0.01078824  0.008998035 -25.98 0.0007610176    1.283    0.220
        74 -13.1267     43.4553    138.8900   2.9226731421e+02   5.9197631101e+00   0.03422712   0.01935647 -29.33  0.002977617    2.397    0.583
        75 -11.9652    230.0731    136.8486   2.9007169677e+02   4.7819439408e+00    0.0157694  0.009490913 -54.44  0.001555374    1.646    0.392
        76 -13.2652    246.1152    135.5755   2.8987641451e+02   4.6962459049e+00   0.03136979   0.01823814  51.76   0.00291249    2.012    0.503
        77 -11.7808     62.8381    134.0818   2.9201019918e+02   5.8542840951e+00   0.02199576   0.01241873  34.08  0.002112601    1.699    0.411
        78 -12.6684    134.2155    132.3861   2.9116406829e+02   5.4301121003e+00   0.02878147   0.01717578  46.52  0.002778965    1.785    0.440
        79 -12.4179    110.5409    131.9452   2.9143833095e+02   5.5823676891e+00   0.02562133   0.01771401   6.90  0.002610392    1.689    0.408
        80 -11.7029    109.8860     96.1618   2.9122126630e+02   5.9931111374e+00   0.01099589  0.009411341 -83.30 0.0003535704    1.291    0.225
        81 -14.5107    105.7361    123.2940   2.9144026740e+02   5.7105691986e+00    0.1124546   0.04929917  24.39  0.009263786    2.398    0.583
        82 -13.0290    111.5025    101.2664   2.9123441566e+02   5.9250563797e+00   0.02409801   0.01363801  43.46  0.001954291    1.816    0.449
        83 -11.3183     85.1328    110.2214   2.9159944347e+02   5.9871667710e+00   0.00989506  0.008757128 -21.01 0.0007253395    1.182    0.154
        84 -14.7878    106.2524    108.2190   2.9133956241e+02   5.8786935648e+00   0.05981284   0.05587072  61.58  0.006903701    1.124    0.110
        85 -12.5286     25.5248    127.2721   2.9240458929e+02   6.1629164039e+00   0.01317438   0.01167867 -14.30 0.0008748645    1.184    0.156
        86 -11.0578    184.7790    124.5615   2.9052357595e+02   5.2040633223e+00  0.009482156  0.005934437  39.88 0.0004339837    1.579    0.367
        87 -13.5507     83.7332    116.0002   2.9165210370e+02   5.9301740478e+00   0.06550284   0.03139625  11.86  0.004939701    3.139    0.681
        88 -11.9091    180.7853    121.2696   2.9054956214e+02   5.2663568743e+00   0.01682892   0.01110415  18.93  0.001310737    1.600    0.375
        89 -12.4795      4.1923    119.9060   2.9260842964e+02   6.3786455233e+00   0.03073596   0.01025196  27.77  0.002079848    2.955    0.662
        90 -12.5246      8.0495    115.4887   2.9253557229e+02   6.4050225558e+00    0.0128232   0.01027627  64.18 0.0006687649    1.421    0.296
        91 -13.4365    248.8781    106.0864   2.8965851679e+02   5.0137232141e+00   0.03250303   0.01995475 -74.59  0.003097667    1.972    0.493
        92 -13.4599     22.4167     86.1851   2.9218353650e+02   6.6492506327e+00   0.04587142   0.02748272  12.00  0.003571067    2.007    0.502
        93 -14.0861      2.7545     96.7939   2.9248055215e+02   6.6503027100e+00   0.04688658   0.02634159 -65.45  0.004181541    1.909    0.476
        94 -15.1417     17.0299    109.6816   2.9239395603e+02   6.4154965018e+00   0.06692123   0.04856186  70.74  0.003843643    1.737    0.424
        95 -15.0406     26.5267     94.5478   2.9218779509e+02   6.5287556648e+00    0.1027437   0.04627507  18.09  0.008048931    2.782    0.641
        96 -13.0597     32.3943    111.1935   2.9222337270e+02   6.3031973818e+00   0.02313326   0.01650507  73.41  0.002354301    1.815    0.449
        97 -12.0745    121.1405    111.8289   2.9118795022e+02   5.7450824265e+00   0.01791002  0.008962314  46.94  0.001546199    2.225    0.551
        98 -11.6540     62.9444    111.2234   2.9186562421e+02   6.1134998485e+00   0.02232077   0.01079769  51.13  0.001813215    2.622    0.619
        99 -13.2681    236.4369    108.1862   2.8981699158e+02   5.0676198198e+00   0.03287958   0.01964932  82.19  0.002739987    2.837    0.647
       100 -10.9084    222.5079    109.5094   2.8998799655e+02   5.1395893834e+00  0.006623602  0.006459307  35.70 4.311865e-05    1.028    0.028
       101 -12.9155    134.3491    103.1542   2.9097883812e+02   5.7614549860e+00   0.04647738   0.01391491  31.94  0.003248199    3.013    0.668
       102 -12.4203    122.9304    102.8041   2.9111029047e+02   5.8364972690e+00   0.01769191    0.0135007  20.42  0.001951293    1.327    0.246
       103 -12.0536    137.0787     96.2555   2.9090351810e+02   5.8228348472e+00   0.02065128   0.01471264 -67.27  0.001979728    1.495    0.331
       104 -12.6916     62.6580     99.9595   2.9179830581e+02   6.2433100766e+00   0.03170779   0.02049765  68.43  0.002977601    2.152    0.535
       105 -13.2819     47.0125    100.2328   2.9198334745e+02   6.3372253525e+00   0.02761804   0.01972531  47.40  0.002944355    1.467    0.318
       106 -11.3592     76.0013     95.8497   2.9161617949e+02   6.2072081166e+00  0.009677697  0.009303857  14.12 0.0002876102    1.022    0.021
       107 -13.9977     91.2483    109.1164   2.9152088786e+02   5.9617401597e+00   0.04369336   0.03327253  -1.15  0.003748849    1.505    0.336
       108 -12.4947     52.6980     98.1384   2.9190358370e+02   6.3257830147e+00   0.02145068   0.01439464 -11.51  0.002080311    1.957    0.489
       109 -11.8778     46.2999    109.6326   2.9205064906e+02   6.2347915598e+00   0.01835551   0.01183485 -44.25  0.001783152    1.604    0.376
       110 -11.7402    178.4635     85.4792   2.9035151929e+02   5.6873122208e+00   0.02501433   0.01360312  89.85  0.001842903    3.606    0.723
       111 -11.7628     89.5189     87.7205   2.9140676438e+02   6.2156280366e+00   0.02040496    0.0102188  39.88  0.001833172    1.967    0.492
       112 -11.5934    125.4902     86.5654   2.9097823745e+02   6.0050555796e+00    0.0164227   0.01126446  84.44   0.00160298    1.987    0.497
       113 -13.3745    188.3500     84.4016   2.9022911901e+02   5.6378668327e+00   0.03214802   0.01791571  16.96  0.001759994    2.067    0.516
       114 -11.2241    132.5388     86.3384   2.9089429209e+02   5.9637571560e+00   0.01211323  0.006167376  27.25  0.001081735    1.942    0.485
       115 -13.0692    241.7467     83.8796   2.8960187473e+02   5.3102985055e+00   0.02637289    0.0132136  37.03   0.00231921    1.916    0.478
       116 -13.6973    238.3320     79.9062   2.8961671126e+02   5.3767269323e+00   0.02575792   0.01771525  33.71  0.002159587    1.410    0.291
       117 -12.8365    170.7302     77.0441   2.9038886947e+02   5.8313219912e+00   0.03349726   0.02050859 -36.68  0.003227646    1.859    0.462
       118 -10.8862     98.2490     84.1854   2.9128228585e+02   6.2015371680e+00  0.009357991  0.007609925  57.89 0.0005118373    1.346    0.257
       119 -12.9962    217.2664     79.6053   2.8986090201e+02   5.5117742040e+00   0.02934967   0.01852998  20.74  0.001382445    1.657    0.397
       120 -12.2412    210.7938     78.1997   2.8992768575e+02   5.5681561537e+00   0.02100668   0.01399132  61.73  0.002062448    1.889    0.471
       121 -11.8953    113.9841     80.7609   2.9107646557e+02   6.1425906608e+00   0.01564943   0.01461123  27.24   0.00109596    1.051    0.048
       122 -12.9640    177.7359     77.0514   2.9030696631e+02   5.7875398035e+00   0.02873059   0.01807419  20.36  0.001507476    1.670    0.401
       123 -13.0329    135.2634     79.5915   2.9081995596e+02   6.0234257977e+00    0.0366519   0.01553271  31.95  0.002669773    2.221    0.550
       124 -11.6726     90.4790     80.5514   2.9135046843e+02   6.2911156055e+00   0.01572993   0.01247884   0.03 0.0009816801    1.399    0.285
       125 -11.5522     69.3446     80.1106   2.9159533496e+02   6.4273821378e+00   0.03304135   0.01078671 -50.45  0.002445788    2.952    0.661
       126 -13.1158     77.1017     73.5140   2.9146298634e+02   6.4541679006e+00   0.03039537   0.01608872  18.40  0.002686021    2.154    0.536
       127 -12.8034     81.7717     70.2812   2.9138794256e+02   6.4618879075e+00   0.02682481   0.01625953  34.72  0.002506725    1.590    0.371
       128 -13.8074     87.9012     65.4675   2.9128585421e+02   6.4784852349e+00   0.03286282   0.02624561 -23.73  0.002029611    1.380    0.275
       129 -13.4110     92.7864     58.0842   2.9118217625e+02   6.5319795229e+00   0.03192974   0.02446222  55.56  0.002145324    1.439    0.305
       130 -14.0627     38.7465     67.8599   2.9187708055e+02   6.7563468421e+00    0.1064822   0.02656324  30.25  0.007041364    3.616    0.723
       131 -14.2237     62.3698     65.8153   2.9158727800e+02   6.6330804447e+00   0.08019154   0.03450882  20.92  0.006297271    2.708    0.631
       132 -12.8483     56.4699     78.8176   2.9173810668e+02   6.5219613485e+00   0.02141196   0.01476752 -36.43  0.001145772    1.583    0.368
       133 -13.9347     60.8440     75.5093   2.9166606051e+02   6.5324151300e+00   0.03198761   0.02678591  51.59  0.002030836    1.253    0.202
       134 -11.7198    235.3473    248.9095   2.9071393651e+02   3.4763437983e+00    0.0137994   0.01016093  17.93  0.001483295    1.407    0.289
       135 -11.4513    193.5343     75.4717   2.9011226279e+02   5.7068875867e+00   0.01565347    0.0114153  49.85  0.001470688    1.462    0.316
       136 -13.2683    199.7265     70.1226   2.9000616614e+02   5.7289432128e+00    0.0345706   0.01942653  19.95  0.002318913    1.937    0.484
       137 -14.1914    160.8469     80.4251   2.9052578269e+02   5.8545556474e+00   0.06030481   0.03575254 -13.13  0.001454945    2.650    0.623
       138 -10.9957    114.9784     71.2880   2.9100524444e+02   6.2440032859e+00  0.009122255  0.008333261  29.05 0.0003103486    1.073    0.068
       139 -12.7323    135.5838     66.3059   2.9073260284e+02   6.1723079871e+00   0.02135278   0.01660925   4.18  0.001254263    1.421    0.296
       140 -11.6988    100.3807     65.0443   2.9113696916e+02   6.4057178290e+00   0.01277792  0.009992099  14.01 0.0008688687    1.336    0.251
       141 -13.2951     79.2859     60.4887   2.9135551602e+02   6.5885608919e+00   0.02907637    0.0228609 -13.56  0.003213042    1.447    0.309
       142 -13.6437    177.9030     57.9724   2.9018483679e+02   6.0030727724e+00   0.03020765   0.02602011  58.58  0.001931259    1.246    0.198
       143 -11.8550     38.8726     60.5433   2.9182965748e+02   6.8386863772e+00   0.01683007   0.01147657  56.87  0.001703089    1.720    0.419
       144 -12.6321     25.4302     59.5940   2.9198134699e+02   6.9327423112e+00   0.02082123   0.01517731 -23.19  0.002190219    1.604    0.376
       145 -15.0390    119.8111     55.0080   2.9084620211e+02   6.3988036669e+00   0.05191133    0.0286029  12.10  0.001795912    2.326    0.570
       146 -12.3523    109.7291     54.3098   2.9095991285e+02   6.4694742631e+00   0.01906283   0.01786148 -88.65  0.001316797    1.137    0.121
       147 -13.6723    103.1556     50.8313   2.9101504068e+02   6.5498647141e+00   0.01870732   0.01742912 -37.40 0.0009234641    1.084    0.077
       148 -13.3607     97.7702     50.1576   2.9107390806e+02   6.5910058440e+00   0.03878295   0.02324819 -74.23  0.003645428    2.030    0.507
       149 -12.6636     64.0372     57.9721   2.9151844217e+02   6.7118239804e+00   0.01555097   0.01129398  21.41 0.0008524004    1.395    0.283
       150 -10.7858     31.6608     57.9518   2.9189795876e+02   6.9128091252e+00  0.009143154  0.008234715 -50.78 0.0003126718    1.120    0.107
       151 -12.0989    248.5759     56.0209   2.8934649867e+02   5.5836238263e+00   0.01360992  0.008680735  43.72 0.0009506721    1.601    0.376
       152 -12.5066     63.8505     50.8790   2.9147604189e+02   6.7935433232e+00   0.03920047   0.01306755  22.42  0.002603025    3.742    0.733
       153 -10.1474     36.3508     53.2778   2.9181359745e+02   6.9368439553e+00  0.006934585  0.005042474 -18.76 0.0007008726    1.643    0.391
       154 -11.8248     41.8697     77.1531   2.9189880465e+02   6.6313990235e+00    0.0148962   0.01248143  20.90 0.0007885844    1.189    0.159
       155 -10.9741     86.1187     49.6304   2.9120714337e+02   6.6694224982e+00  0.009482108  0.008407452  22.68 0.0006603827    1.111    0.100
       156 -10.9904    250.1382     49.0997   2.8928460015e+02   5.6523367210e+00   0.01004358  0.008772386 -19.69 0.0004433472    1.211    0.174
       157 -12.9665    152.4870     46.8931   2.9041246557e+02   6.2873578510e+00   0.02708537   0.01234863  22.11 0.0009900035    2.424    0.588
       158 -12.6309    158.9995     43.4954   2.9031482431e+02   6.2853081053e+00   0.02532129    0.0148828  21.19  0.001844376    1.795    0.443
       159 -12.5028    198.6090     37.2733   2.8981216731e+02   6.1086470073e+00   0.02380564   0.01295911  49.41  0.002062783    2.104    0.525
       160 -13.9699    217.5291     42.1241   2.8962155763e+02   5.9353867008e+00   0.06170147   0.02384315  28.87  0.004910727    2.508    0.601
       161 -12.8047    205.2752     40.3034   2.8975332621e+02   6.0326254889e+00   0.02758922   0.01342213  44.81  0.001856032    2.195    0.544
       162 -12.7176     10.2948     44.6200   2.9206488590e+02   7.1965098311e+00   0.02457571    0.0160169  -0.00  0.001890477    1.991    0.498
       163 -12.8594      6.5276     41.9608   2.9209239459e+02   7.2500136983e+00   0.02385686   0.01432292  35.63  0.001832659    1.609    0.379
       164 -12.5288     67.5730     42.7948   2.9138156166e+02   6.8622385738e+00   0.01939887   0.01270747 -42.24  0.001974504    1.602    0.376
       165 -10.8252    169.2017     43.2018   2.9019356928e+02   6.2249952911e+00  0.009318825  0.007635033  55.45  0.000598594    1.314    0.239
       166 -12.5351    132.3218     32.9389   2.9056068407e+02   6.5714071846e+00   0.02241089   0.01548906 -17.22  0.002241508    1.822    0.451
       167 -13.0381    110.9340     42.0778   2.9086880295e+02   6.6008528312e+00    0.0272695   0.01413245  22.05  0.001449394    2.062    0.515
       168 -13.9260    170.3833    241.8780   2.9142796353e+02   3.9605506353e+00   0.05262136   0.04036672   9.99  0.005788391    1.406    0.289
       169 -12.8346     75.6845     37.5734   2.9125360895e+02   6.8711499717e+00   0.01710348   0.01174063  26.58 0.0006667404    1.436    0.304
       170 -12.1250     70.7183     36.7133   2.9130642773e+02   6.9117582365e+00   0.01606354   0.01200547  17.02 0.0009252958    1.389    0.280
       171 -13.0180     56.2974     27.8022   2.9141949326e+02   7.1024405216e+00   0.02586437   0.01576306  30.47  0.001597718    1.588    0.370
       172 -11.3846     45.2176     36.5897   2.9160472201e+02   7.0714011610e+00   0.01085081  0.008962854 -31.47 0.0003996083    1.277    0.217
       173 -12.3768     47.7383     31.8934   2.9154562483e+02   7.1090899188e+00   0.02525179   0.01380601 -20.45    0.0019605    3.128    0.680
       174 -12.3890    145.2799    231.5138   2.9165625303e+02   4.2344442245e+00   0.02281111  0.008704632 -54.42  0.001828569    2.491    0.599
       175 -14.1264      9.7518    210.5268   2.9310958466e+02   5.3134798643e+00   0.08656035   0.03751522  37.47  0.007355143    2.200    0.545
       176 -13.0630     15.9807    197.7091   2.9295672709e+02   5.4207907503e+00   0.03412032    0.0134357 -44.46  0.002588657    2.828    0.646
       177 -14.1096     26.6983    226.0650   2.9300829728e+02   5.0319041788e+00   0.05828172   0.02147963 -56.69  0.004619213    2.582    0.613
       178 -14.0445     20.3249    224.4046   2.9307247393e+02   5.0902180808e+00   0.03771528   0.02903075 -58.94  0.003328548    1.315    0.239
       179 -11.1245     51.7447     36.2439   2.9152598740e+02   7.0348474709e+00   0.01624127   0.00808661  16.83  0.001344736    2.454    0.593
       180 -12.9203    236.0076    229.4982   2.9058449591e+02   3.6926879857e+00   0.01832983   0.01061451  52.25   0.00168502    2.043    0.511
       181 -12.6761    152.2764     31.3959   2.9031727645e+02   6.4645353559e+00   0.01911337   0.01321562 -45.06   0.00108809    1.480    0.324
       182 -14.3726    146.4208     30.6702   2.9038126628e+02   6.5092807279e+00   0.05174282   0.02682031  28.31  0.003896806    1.887    0.470
       183 -12.6365     34.7009     33.0038   2.9170555259e+02   7.1773048803e+00   0.02228121   0.01342576  41.55  0.001749564    1.666    0.400
       184 -10.2396    211.4818     33.4628   2.8963761489e+02   6.0714208603e+00  0.006633767  0.006420938  41.25 4.054748e-05    1.041    0.039
       185 -13.0389     53.0250    214.2590   2.9262672092e+02   5.0032237905e+00   0.02669973   0.01919266  59.48  0.002219114    1.627    0.385
       186 -11.5405    194.8848     23.8908   2.8977131387e+02   6.2836977041e+00   0.01697967    0.0131892 -31.60  0.001386986    1.393    0.282
       187 -11.7903     96.7505     30.7942   2.9096398089e+02   6.8171732762e+00   0.01258599   0.01195025  59.10  0.001079065    1.095    0.087
       188 -14.4133     57.5350    204.0052   2.9250990380e+02   5.0919167664e+00   0.04557968   0.03039081 -67.02   0.00426035    1.604    0.377
       189 -11.4547    121.0381     27.5392   2.9065885138e+02   6.7029680025e+00   0.01025065  0.006478813  26.93 0.0006094274    1.561    0.359
       190 -14.0931     67.5739    222.8704   2.9251038282e+02   4.8151130250e+00   0.04817604   0.03577786  -1.23   0.00512826    1.573    0.364
       191 -14.6999     63.2095    215.3230   2.9251426255e+02   4.9280125328e+00   0.05047242   0.04144898  62.98  0.005484971    1.359    0.264
       192 -13.5890     94.5135    218.7762   2.9216982770e+02   4.6945937615e+00    0.0231233   0.01764109  25.18  0.002158437    1.296    0.228
       193 -13.7493     98.8645    216.7415   2.9210623586e+02   4.6907283378e+00    0.0383517   0.02146518 -46.96  0.003640366    1.823    0.451
       194 -12.3185    139.2407     21.6470   2.9040848149e+02   6.6564174085e+00   0.01790483   0.01159457  27.94 0.0006267813    1.514    0.339
       195 -11.7888    215.2184     20.4608   2.8951189454e+02   6.1954901838e+00   0.01327406  0.009933525 -30.33 0.0007849538    1.481    0.325
       196 -11.1067     70.9292     17.0018   2.9117990469e+02   7.1341923269e+00   0.00999081  0.009353537  40.56 0.0004084392    1.070    0.065
       197 -12.8496    146.3407    238.1158   2.9168518584e+02   4.1527997066e+00   0.03247186   0.01954233  55.74   0.00269264    2.052    0.513
       198 -11.6113    249.0197    225.4839   2.9040754679e+02   3.6571970858e+00   0.01550016   0.01259151  26.37  0.001769625    1.210    0.174
       199 -12.1620     85.0925    215.3793   2.9225873090e+02   4.7916811835e+00   0.01425173   0.01156192  52.92   0.00128243    1.311    0.237
       200 -11.9548    185.7499    214.2481   2.9107540304e+02   4.1789420182e+00   0.01573716  0.009673924  84.99  0.001361237    2.570    0.611
       201 -12.1881    239.2138    213.3922   2.9044602402e+02   3.8556326887e+00   0.01001109  0.005823228  38.25 0.0009565194    1.677    0.404
       202 -10.6153    157.3233    213.3189   2.9140160506e+02   4.3663911775e+00  0.007057237  0.005010629 -24.15 0.0007044698    1.672    0.402
       203 -11.6831    200.3131    215.8284   2.9091527766e+02   4.0703118710e+00   0.01244643  0.008852983  40.27  0.001322727    1.396    0.284
       204 -11.7984    229.2012    211.4015   2.9055034379e+02   3.9406437061e+00   0.01010786  0.005783624  38.94 0.0009570443    1.712    0.416
       205 -11.0046    136.6835    210.9960   2.9162822240e+02   4.5211400723e+00  0.009658294  0.008592593 -57.65  0.000981685    1.142    0.124
       206 -11.6604    223.0121     21.9212   2.8943000784e+02   6.1301910333e+00  0.009941283  0.009564473   2.30 0.0003305519    1.032    0.031
       207 -12.9209     58.3160    245.7988   2.9276176328e+02   4.6116853145e+00   0.04155492   0.02539464   8.15  0.003866613    2.061    0.515
       208 -10.9764    149.6933    206.8451   2.9145018737e+02   4.4874385290e+00   0.01190723   0.00900616  12.44  0.001154587    1.412    0.292
