#   1 NUMBER                 Running object number                                     
#   2 MAG_AUTO               Kron-like elliptical aperture magnitude                    [mag]
#   3 X_IMAGE                Object position along x                                    [pixel]
#   4 Y_IMAGE                Object position along y                                    [pixel]
#   5 X_WORLD                Barycenter position along world x axis                     [deg]
#   6 Y_WORLD                Barycenter position along world y axis                     [deg]
#   7 A_WORLD                Profile RMS along major axis (world units)                 [deg]
#   8 B_WORLD                Profile RMS along minor axis (world units)                 [deg]
#   9 THETA_WORLD            Position angle (CCW/world-x)                               [deg]
#  10 FWHM_WORLD             FWHM assuming a gaussian core                              [deg]
#  11 ELONGATION             A_IMAGE/B_IMAGE                                           
#  12 ELLIPTICITY            1 - B_IMAGE/A_IMAGE                                       
         1 -14.2241    157.9865     52.8644   8.1512827501e+01   3.9245220057e+01     1.396172     1.118914  20.43  0.003948794    1.473    0.321
         2 -14.3427    170.0900     37.3977   7.4366144474e+01   3.8305371001e+01     1.129247    0.9890256  -0.91  0.003937151    1.318    0.241
         3 -14.0300    186.2963      6.1357   6.2728651306e+01   3.7619977254e+01      1.00276    0.8339908 -89.69   0.00483384    1.083    0.076
         4 -12.2899    168.0823    233.4669   1.2043509218e+02   3.7161950369e+00    0.3505595    0.2230871  55.76 0.0009568286    1.693    0.409
         5 -18.9347     72.7244    242.7663   1.3921102204e+02   1.7014918188e+01     6.337799     5.043478  60.64   0.04010386    1.123    0.109
         6 -10.8752    180.0947    192.2124   1.1152430939e+02   8.1540539216e+00     0.223923    0.2077854 -84.46 0.0006177559    1.325    0.245
         7 -12.6708    155.1046    197.0349   1.1748432178e+02   1.1980231216e+01    0.4014009    0.2922061 -86.87  0.002037329    2.013    0.503
         8 -12.4549    167.5422    190.6855   1.1381884248e+02   1.0793152565e+01    0.3930818    0.2983146  21.98  0.001476053    1.439    0.305
         9 -11.5498    208.1465    196.6290   1.0685343617e+02   2.2772146223e+00    0.2042523    0.1871572 -34.00 0.0009972894    1.286    0.222
        10 -10.9852    175.1156    193.9486   1.1284060954e+02   8.7929171853e+00    0.2951587    0.1826531 -69.91  0.001227235    3.102    0.678
        11 -11.0336    176.6793    187.9791   1.1145262878e+02   9.5324095263e+00    0.1884452    0.1784829 -24.68 0.0007539301    1.156    0.135
        12 -10.9269    184.3175    186.4592   1.0962096833e+02   8.3357483001e+00    0.2673906    0.1233065  39.34  0.001100699    2.007    0.502
        13 -11.2958     10.2248    215.6155   1.4855268171e+02   2.9324654546e+01    0.2559034    0.1310078 -54.12  0.001472906    2.981    0.665
        14 -18.9380     54.9681     90.2929   1.2271019437e+02   5.2549954422e+01     19.16146     1.048878 -58.10   0.02839015   17.451    0.943
        15 -10.6978     21.1813    235.6893   1.4766871397e+02   2.4502968593e+01    0.1007178   0.05393489  73.77 0.0005779213    1.457    0.314
        16 -12.4475     40.3399    183.4193   1.4053420966e+02   3.2719990634e+01    0.2346083    0.2174129 -77.31 0.0006035548    1.346    0.257
        17 -12.1753    205.5068    180.4763   1.0429768225e+02   5.2950189222e+00    0.5200898    0.3200405  39.86  0.002023117    1.507    0.336
        18 -12.1849    208.5280    178.5070   1.0333146702e+02   5.0417227693e+00     0.431562    0.3337073  24.33  0.002393018    1.231    0.187
        19 -10.6805     25.7786    232.3998   1.4672441567e+02   2.4603707699e+01    0.1269238   0.09745356  58.82 0.0007785658    1.232    0.188
        20 -11.4118    163.1903    210.1457   1.1793776471e+02   8.2290027413e+00    0.2159626    0.1875231 -55.41  0.000832141    1.371    0.271
        21 -12.4823    196.1863    172.0138   1.0443677499e+02   8.5130368916e+00    0.6409717    0.3993819 -47.09  0.002147556    1.818    0.450
        22 -10.0789     34.2339    206.1431   1.4357876099e+02   2.8685520716e+01    0.1912246    0.1243135  23.73  0.001027063    2.298    0.565
        23 -10.9419    198.8163    222.7908   1.1308290128e+02   8.8852423245e-02    0.1884617      0.14464  23.98 0.0005071244    1.135    0.119
        24 -12.3249    142.5536    166.3008   1.1478299205e+02   2.0348121081e+01    0.3395921    0.2437217 -65.95  0.001656996    1.622    0.383
        25 -11.0899     25.2525    165.7868   1.4227034867e+02   3.8162946140e+01    0.2222049    0.1825679  17.29 0.0008013299    1.734    0.423
        26 -10.7529    194.5002    166.4564   1.0363811968e+02   9.8172145382e+00    0.2636018    0.2278321  47.83 0.0009161484    1.181    0.153
        27 -11.6960    158.7626    204.7414   1.1797797118e+02   9.9459050183e+00    0.3555379    0.2050226  55.15  0.001328329    1.850    0.459
        28 -10.7790    223.7903    163.9191   9.7509125461e+01   4.4795154133e+00    0.2325227    0.1847341 -51.36 0.0005869273    1.547    0.354
        29 -11.6083    163.5636    203.8755   1.1686440043e+02   9.2233578624e+00    0.3012632    0.2426977 -51.96  0.001031984    1.453    0.312
        30 -10.6579    237.5134    159.4708   9.4147260375e+01   2.5945615488e+00    0.1350349    0.1202126  -2.37 0.0003978016    1.015    0.015
        31 -12.1647     24.7480    156.5342   1.4154600949e+02   4.0277806753e+01    0.5392656     0.364291  42.18  0.001686464    1.567    0.362
        32 -11.6860     28.2271    151.2401   1.4019852583e+02   4.1147121344e+01     0.339781    0.1338272  54.61  0.001534503    2.707    0.631
        33 -11.7379    160.8023    198.3282   1.1651852010e+02   1.0696189256e+01    0.3161428    0.2052633  64.03  0.001330245    1.975    0.494
        34 -11.8371    162.1428    154.2032   1.0791298182e+02   1.8826040589e+01    0.3673688    0.2848411  75.30  0.001770195    1.614    0.380
        35 -13.9163    133.6211    145.5496   1.1272497294e+02   2.6552684885e+01     1.130371    0.5170354 -57.67     0.004118    2.601    0.616
        36 -11.4814     16.3243    150.2391   1.4294873846e+02   4.2447359563e+01    0.2226395    0.2040815 -72.35  0.001653433    1.291    0.226
        37 -11.2412     14.5592    146.5137   1.4303363880e+02   4.3433683583e+01    0.1640458     0.114249  34.49 3.256625e-05    1.678    0.404
        38 -11.0680    174.6800    148.9444   1.0401822646e+02   1.7203269905e+01    0.2707909    0.2370658  87.67 0.0007928582    1.358    0.264
        39 -12.5689    144.4283    145.7352   1.1016958236e+02   2.4294626559e+01    0.4810329    0.3425064 -87.11  0.002089846    2.027    0.507
        40 -12.0739      2.4974    112.5321   1.4281998065e+02   5.1999810044e+01     0.346297    0.2157023 -83.89  0.001956454    1.312    0.238
        41 -12.1787      9.4913    111.1892   1.4068786211e+02   5.1870401924e+01    0.4198673    0.2220004   1.93  0.002184301    3.053    0.672
        42 -12.7290      4.5899    140.5276   1.4491294113e+02   4.5540093998e+01    0.4440452    0.4129289 -46.15  0.001718919    1.419    0.295
        43 -13.6417      2.9177    126.5891   1.4410508944e+02   4.8790334265e+01     1.285604     0.624428 -83.97  0.007098072    1.704    0.413
        44 -12.6957    115.2387    138.0962   1.1575054956e+02   3.1828693080e+01    0.5598584    0.3491735 -39.32  0.002457332    1.874    0.466
        45 -11.3688     19.9298    141.4896   1.4123733719e+02   4.4126823388e+01    0.1584752        0.117  36.08  0.001027595    1.575    0.365
        46 -12.4684    106.0704    130.7622   1.1659324535e+02   3.5223346760e+01    0.4273476    0.3495243 -72.17  0.001276917    1.242    0.195
        47 -11.6633    108.5396    125.1751   1.1469948536e+02   3.6054190208e+01    0.3123113    0.2609794 -32.42 0.0008362386    1.364    0.267
        48 -12.4625    119.5184    129.3800   1.1273784856e+02   3.2979392979e+01    0.4193744    0.3788386 -62.78  0.001228121    1.095    0.087
        49 -13.0873    125.2710    127.1694   1.1073779055e+02   3.2323641069e+01    0.7191301      0.46027  83.23  0.002681379    2.754    0.637
        50 -12.7537    135.7982    122.4711   1.0692797916e+02   3.1161538421e+01     0.724619    0.2618741 -51.41   0.00230199    3.045    0.672
        51 -11.4132    160.5243    127.8610   1.0228690211e+02   2.4561406345e+01    0.4068267    0.2586727 -54.31  0.001564999    1.745    0.427
        52 -10.0954    171.5796    137.7822   1.0216150544e+02   2.0081032010e+01    0.2069037    0.1448986 -54.17 0.0005003688    1.582    0.368
        53 -11.4909    113.9363    118.4950   1.1168215064e+02   3.6546481419e+01    0.2791499    0.2572242  72.68 0.0004652976    1.099    0.090
        54 -11.1067    116.3802    115.4362   1.1027463888e+02   3.6754675156e+01    0.3084166    0.2107022  62.59  0.001091609    1.730    0.422
        55 -11.0982    168.1798    113.3534   9.6905265191e+01   2.5743573199e+01    0.3888856    0.2911434 -82.08  0.001335202    1.833    0.455
        56 -12.2004     85.1635    110.2570   1.1789147206e+02   4.3622638367e+01    0.3368491    0.2322287  58.14  0.001626258    1.670    0.401
        57 -10.7431    205.5141    110.1561   8.8497974001e+01   1.7564267366e+01    0.3329994    0.2158066  42.72 0.0009783936    1.620    0.383
        58 -12.8925    105.2963    138.3873   1.1838870954e+02   3.3602131718e+01     0.534045    0.3328944  61.77 0.0007487847    1.891    0.471
        59 -10.8034    192.3264    222.9657   1.1431825939e+02   1.1573224101e+00     0.172911    0.1527195  19.69  0.001159281    1.099    0.090
        60 -13.7900    137.5218    198.5845   1.2141793467e+02   1.4897966564e+01    0.7355133    0.4138298  56.24  0.003466576    1.851    0.460
        61 -10.1673     94.7983     79.6456   1.0675536130e+02   4.8774536714e+01    0.2054961    0.1349496  51.59 0.0009445678    1.713    0.416
        62 -10.2994     13.5166     59.7768   1.3069513382e+02   6.3108189534e+01    0.1761838    0.1585166 -20.67  0.000390625    1.236    0.191
        63 -11.2033     13.4699    244.6315   1.4933321222e+02   2.3733941381e+01    0.2599427   0.06649473 -71.67  0.001318256    3.561    0.719
        64 -10.4022     22.7136    240.1854   1.4763576156e+02   2.3541363084e+01    0.1001158   0.05112618  58.74  0.000312391    1.416    0.294
        65 -12.7633    174.0545     30.1118   7.1469900964e+01   3.8195004544e+01    0.4634372    0.3812058  -0.06  0.001358257    1.468    0.319
        66 -10.6555    176.4943    233.9669   1.1893069003e+02   2.2424405715e+00    0.1584732    0.1239429 -38.35 0.0005821667    1.567    0.362
        67 -10.4194    133.5752     29.5388   7.8732322328e+01   4.8685507560e+01    0.2681963    0.1401983  73.89   0.00103184    2.514    0.602
