#   1 NUMBER                 Running object number                                     
#   2 MAG_AUTO               Kron-like elliptical aperture magnitude                    [mag]
#   3 X_IMAGE                Object position along x                                    [pixel]
#   4 Y_IMAGE                Object position along y                                    [pixel]
#   5 X_WORLD                Barycenter position along world x axis                     [deg]
#   6 Y_WORLD                Barycenter position along world y axis                     [deg]
#   7 A_WORLD                Profile RMS along major axis (world units)                 [deg]
#   8 B_WORLD                Profile RMS along minor axis (world units)                 [deg]
#   9 THETA_WORLD            Position angle (CCW/world-x)                               [deg]
#  10 FWHM_WORLD             FWHM assuming a gaussian core                              [deg]
#  11 ELONGATION             A_IMAGE/B_IMAGE                                           
#  12 ELLIPTICITY            1 - B_IMAGE/A_IMAGE                                       
         1 -14.5605    209.2080     66.4058   8.2558649850e+01   2.4078029293e+01     3.156664     1.721524 -72.29  0.009717325    4.567    0.781
         2 -16.1845    133.6390     23.0250   8.1901440799e+01   4.9089216852e+01     15.88436     6.066841 -46.97   0.05120777    3.494    0.714
         3 -18.1757    238.8723     39.3514   7.1033895180e+01   2.0261707080e+01      9.06957     3.031685 -20.79   0.02874905    3.015    0.668
         4 -12.9291    216.9669     22.1645   6.8576278466e+01   2.7562027849e+01     1.440869    0.6525871  11.20  0.004102426    5.025    0.801
         5 -10.7803    201.9488     14.9257   6.8079980051e+01   3.2215019581e+01     0.283265    0.1886003 -15.10 0.0009099996    1.538    0.350
         6 -10.0054     79.3433     12.2301   9.1503890097e+01   6.2441273330e+01    0.4129521    0.1586438 -27.67  0.001605097    2.653    0.623
         7 -10.5214    164.0269     10.5896   7.1652847725e+01   4.2745615699e+01    0.2502626    0.2031326 -15.11 0.0003640164    1.239    0.193
         8  -9.5352    208.9649    186.2982   1.0909874361e+02   8.0143365124e+00    0.1763504    0.1649223 -87.55 0.0007520639    1.526    0.345
         9  -9.1407    213.7947    186.1827   1.0830526976e+02   7.2093168869e+00    0.1637852    0.1136453  24.68 0.0004193256    1.319    0.242
        10  -8.6599    142.6367    180.3235   1.1960535263e+02   2.0141415203e+01    0.1240623   0.08336569  70.50 0.0007040573    1.787    0.440
        11 -10.2780    210.9385    178.8180   1.0754337678e+02   8.5412174766e+00    0.3528616    0.1739135  56.24  0.001684649    2.551    0.608
        12 -11.3959    216.3976    169.6119   1.0505915776e+02   8.6650528954e+00    0.6409031    0.3141634  59.08  0.002809511    3.085    0.676
        13 -10.1173    229.0938    172.7892   1.0360162194e+02   6.0786221339e+00    0.4426214    0.1908573  52.43   0.00201659    2.565    0.610
        14 -11.3628    190.1458    170.6147   1.0962889961e+02   1.3246979299e+01     0.676644    0.3000972  60.46  0.002240853    4.242    0.764
        15 -10.7792    180.7724    165.5466   1.1039773490e+02   1.5641378696e+01    0.4910042    0.2779227  66.77  0.002152801    3.026    0.669
        16  -9.4495    195.7752    167.8568   1.0818531104e+02   1.2592929429e+01    0.2103957    0.1513979  67.18 0.0005329701    1.875    0.467
        17 -12.0762     55.1135    159.6230   1.3403091560e+02   3.6490321655e+01    0.2837107    0.2622106  89.20 0.0008719002    1.323    0.244
        18 -14.3508     65.9348    151.3054   1.3092704099e+02   3.6764039357e+01     1.473707     1.246633 -31.93  0.007521329    1.846    0.458
        19 -10.1875    180.5160    152.2998   1.0806209199e+02   1.7600941879e+01    0.2593815    0.2009891  68.12 0.0007680909    1.551    0.355
        20 -10.6550    203.3269    151.7002   1.0391462132e+02   1.3328161627e+01    0.2137541    0.1978063  59.37 0.0008001057    1.262    0.208
        21 -10.5867    133.6350    145.8537   1.1595287450e+02   2.7387096536e+01    0.8012102     0.211577 -54.08   0.00254702    5.034    0.801
        22  -9.4788    132.5457    138.0441   1.1478534912e+02   2.8983469763e+01    0.2167793    0.1608067 -60.25  0.000638927    1.445    0.308
        23 -10.9004      7.7428    248.0851   1.4682261733e+02   2.7006204563e+01    0.2251629   0.07776463  70.73  0.001574113    2.274    0.560
        24 -11.4814    176.4874    146.4077   1.0768518745e+02   1.9259948039e+01    0.4931423    0.2878671  68.89  0.002101059    2.862    0.651
        25 -13.6333    248.7598     89.4202   8.2849385296e+01   1.2122593369e+01    0.4987209    0.3789343  68.77   0.00236411    1.652    0.395
        26  -8.8232     67.9715    244.9619   1.3817189176e+02   2.1201705153e+01    0.1095308   0.07508446  61.49            0    1.036    0.035
        27 -11.9130    160.5251    128.8576   1.0723988257e+02   2.5241884642e+01    0.4100921    0.3652545 -22.33  0.001994205    1.241    0.194
        28 -11.8354    134.6967    123.8192   1.1157057743e+02   3.1199938247e+01     1.085132    0.4278713 -56.06  0.003968168    3.305    0.697
        29  -9.0702     99.1334    131.5004   1.2089049813e+02   3.5939125884e+01    0.1814779    0.1187825  45.54 0.0005534569    1.497    0.332
        30  -8.3490     45.6538    223.7129   1.4034864675e+02   2.6718595494e+01     0.077168   0.07140145  49.66 0.0007021876    1.652    0.395
        31 -11.5805    192.4982    152.9953   1.0604591485e+02   1.5215863724e+01    0.5696363      0.26315 -51.47  0.002321145    3.448    0.710
        32 -11.0350    134.8646    109.4370   1.0842419542e+02   3.3868894547e+01    0.9657642    0.1933291 -46.08  0.002665673    5.084    0.803
        33 -10.8697    148.9947    116.5772   1.0695990669e+02   2.9716408783e+01    0.7118594    0.3821669 -66.50  0.002531658    3.659    0.727
        34 -10.9698    190.5242    192.7179   1.1311051600e+02   1.0373747512e+01    0.6994804    0.4785758 -84.68  0.003493197    3.579    0.721
        35  -9.6640    121.6812    119.2054   1.1350369734e+02   3.4504286277e+01    0.2117808    0.1622334 -78.41  0.001032287    1.471    0.320
        36 -10.1771     90.3783    115.0441   1.2003094340e+02   4.0648060401e+01    0.4866334    0.2628134 -81.80  0.002002066    2.991    0.666
        37 -10.5654    156.6488    112.3578   1.0439680503e+02   2.8890797880e+01    0.4247791    0.2644301 -71.25  0.001719948    2.787    0.641
        38 -11.7194    117.0090     93.5453   1.0883161501e+02   4.0436287413e+01    0.5605258    0.3905503  25.90  0.002708913    1.936    0.483
        39 -11.0008    127.3580    112.2053   1.1073580889e+02   3.4798333106e+01    0.4412937    0.2880466 -66.19  0.001058534    1.837    0.456
        40 -12.6819    122.4870    102.9578   1.0977365682e+02   3.7528583168e+01    0.8976943    0.6773766  80.76  0.003877025    1.612    0.380
        41  -9.8395    139.3609    105.5870   1.0652698476e+02   3.3691956384e+01    0.2585494    0.2202846 -55.76 0.0008371743    1.196    0.164
        42 -11.9380    153.5371     98.3590   1.0166379885e+02   3.2039237585e+01    0.6688004     0.497292 -59.52    0.0027987    1.536    0.349
        43 -11.7146    149.9622     88.3830   9.9833967570e+01   3.4609042188e+01    0.3156358    0.2560707 -43.18 0.0004897147    1.231    0.188
        44  -9.1829     93.2980    103.6267   1.1705959917e+02   4.2556326081e+01    0.2356608    0.1480121 -68.98 0.0008578283    1.701    0.412
        45 -10.3009    132.3008     98.3697   1.0638480951e+02   3.6488860064e+01      0.28155     0.234682 -87.26 0.0005885026    1.366    0.268
        46 -10.1336    150.0760    153.2434   1.1396440752e+02   2.3153351681e+01    0.2833532     0.177468  76.42  0.001125263    2.621    0.618
        47 -10.3977    126.3185     91.0332   1.0594255148e+02   3.9107244697e+01    0.2044621    0.1807946 -54.34 0.0007379055    1.108    0.097
        48 -11.2577    117.0834    109.2800   1.1246987257e+02   3.7292482236e+01    0.3930578    0.3107692  39.14  0.002198556    1.359    0.264
        49 -10.5867    146.3722    149.5777   1.1404855798e+02   2.4441231628e+01    0.2836255    0.1859995 -87.98   0.00116809    2.576    0.612
        50 -10.6984    171.9269     85.4458   9.4470727098e+01   3.0131661326e+01    0.2534488    0.2425287   9.39 0.0003594416    1.042    0.041
        51 -10.3406    144.4773    102.6098   1.0468166329e+02   3.3191960722e+01    0.2724093    0.2403022  10.27 0.0005436731    1.319    0.242
        52  -9.9620     79.4097     74.7869   1.1411723972e+02   5.0823797414e+01    0.2628677    0.1197304 -57.27  0.001125458    2.120    0.528
        53  -9.3533    196.3915     62.5733   8.3509950843e+01   2.7751818239e+01    0.1825937    0.1405859 -17.43 0.0004093371    1.313    0.238
        54  -9.1807    153.5074    158.0668   1.1413205058e+02   2.1745227771e+01    0.1646385    0.1264846 -47.86 0.0004148894    1.468    0.319
        55  -8.7626     70.9728     43.0319   1.0714949015e+02   5.8596604045e+01    0.1601144     0.136198 -43.07 0.0003443536    1.032    0.031
        56 -10.7540    198.6873    152.5836   1.0488481201e+02   1.4093094889e+01    0.2671534    0.2001544  11.56 0.0007917063    1.482    0.325
        57 -10.2364    182.3296     41.1500   7.9251148217e+01   3.4272095920e+01    0.2072073    0.1960021  -1.44 0.0003842055    1.048    0.046
        58  -9.8337    204.3250     40.4029   7.5673480676e+01   2.8700752590e+01    0.1447764    0.1319376  -0.33 0.0002504138    1.102    0.092
        59 -12.6872    203.8094     34.6686   7.3995052950e+01   2.9531352514e+01     0.402114    0.2263263 -23.73  0.001138299    1.725    0.420
        60  -8.8041     78.3608     36.1442   1.0215150108e+02   5.8688267365e+01    0.1948119    0.1134767 -49.41 0.0008141758    1.686    0.407
        61  -8.9386    170.8455     32.4940   7.8296784539e+01   3.8389000574e+01    0.5147288   0.08756089 -27.90  0.001281315    4.938    0.798
        62 -10.1564    203.5033    160.9530   1.0562927956e+02   1.2076272368e+01    0.2192367    0.1663641  56.93 0.0006860931    1.460    0.315
        63 -11.3037    206.4352     27.5350   7.1459066279e+01   2.9682887709e+01    0.3308473    0.1890682 -17.36 0.0009039398    1.797    0.444
        64 -10.5622    200.2418     24.8428   7.1415069206e+01   3.1597862052e+01     0.198308    0.1870103  86.80 0.0002802585    1.101    0.092
        65  -9.2089    177.5023     25.6751   7.4900725741e+01   3.7489535125e+01    0.1467015    0.1362961  49.18 0.0007828285    1.078    0.072
        66 -10.3884     92.2223     22.9993   9.2397905253e+01   5.8347906752e+01    0.3038288    0.2084761 -37.25 0.0005305859    1.363    0.267
        67 -10.9181    203.5280     19.4160   6.9301934169e+01   3.1331449532e+01    0.2067423    0.1505171 -12.99  0.001008492    1.410    0.291
        68 -13.9108     16.9349    178.8836   1.4271166919e+02   3.6933734284e+01     1.910662    0.9072205  69.19   0.01277711    1.697    0.411
        69 -13.5690     30.0207    174.5712   1.4008335771e+02   3.6447844022e+01    0.7383912    0.5401858  71.75  0.003838617    1.025    0.025
