#   1 NUMBER                 Running object number                                     
#   2 MAG_AUTO               Kron-like elliptical aperture magnitude                    [mag]
#   3 X_IMAGE                Object position along x                                    [pixel]
#   4 Y_IMAGE                Object position along y                                    [pixel]
#   5 X_WORLD                Barycenter position along world x axis                     [deg]
#   6 Y_WORLD                Barycenter position along world y axis                     [deg]
#   7 A_WORLD                Profile RMS along major axis (world units)                 [deg]
#   8 B_WORLD                Profile RMS along minor axis (world units)                 [deg]
#   9 THETA_WORLD            Position angle (CCW/world-x)                               [deg]
#  10 FWHM_WORLD             FWHM assuming a gaussian core                              [deg]
#  11 ELONGATION             A_IMAGE/B_IMAGE                                           
#  12 ELLIPTICITY            1 - B_IMAGE/A_IMAGE                                       
         1 -14.9013    162.1754     43.1438   2.9013311315e+02   6.3467708306e+00   0.06280481   0.04551307 -48.02   0.00350056    1.367    0.268
         2 -14.7778    175.4857     10.2614   2.8978030188e+02   6.6506887872e+00   0.06341808   0.05523334  14.37  0.004796581    1.180    0.153
         3 -12.2886    189.9536     14.5345   2.8963746307e+02   6.5170233010e+00   0.01878889   0.01118888 -49.46    0.0018336    1.651    0.394
         4 -13.1476    196.5835      6.2790   2.8951056331e+02   6.5741116504e+00   0.02100175   0.01143597  40.69  0.001977127    1.859    0.462
         5 -11.3381    133.9652    244.8388   2.9166910575e+02   4.1675818803e+00   0.01094634  0.008626468 -49.90  0.000322833    1.249    0.200
         6 -20.0868     76.3498    175.5494   2.9192625908e+02   5.3059579347e+00    0.8923525    0.3563782 -65.13   0.07094327    2.618    0.618
         7 -12.8437    180.4182    193.5229   2.9082237700e+02   4.4949177467e+00    0.0248088   0.02042715  88.89  0.002287284    1.360    0.265
         8 -12.1592    169.8039    195.1938   2.9095581404e+02   4.5370170257e+00   0.01288614   0.01176794  47.24 0.0006776231    1.123    0.109
         9 -13.8345    164.9197    188.6177   2.9097329690e+02   4.6417188327e+00   0.03607898   0.02240789  31.26   0.00247289    1.588    0.370
        10 -12.2573    170.6478    185.3507   2.9088712332e+02   4.6464832251e+00   0.02000556   0.01569507  87.93  0.001054007    1.474    0.321
        11 -11.6812    138.9363    250.2979   2.9164385998e+02   4.0753949245e+00   0.01357993   0.01147801   0.87  0.001577339    1.270    0.213
        12  99.0000     12.8164    242.8825   2.9306696472e+02   4.8892459344e+00   0.01862219  0.006689627 -44.69  0.001350845    3.115    0.679
        13 -11.3762    145.9854    189.3419   2.9119791513e+02   4.7429698926e+00   0.01238367    0.0084984 -35.75 0.0006997676    1.589    0.371
        14 -13.4883    210.2088    187.7102   2.9044124271e+02   4.3896797740e+00   0.04393249   0.02039522 -83.31  0.002885725    4.373    0.771
        15 -11.8068    201.2143    163.6882   2.9040194078e+02   4.7208440048e+00   0.02914163   0.01800743 -72.63   0.00285338    1.795    0.443
        16 -13.6707    206.4658    178.2726   2.9042823950e+02   4.5209984249e+00   0.03006624   0.02441265   3.37  0.003431755    1.341    0.255
        17 -11.9884    203.5067    175.0126   2.9044311780e+02   4.5760276278e+00   0.01755692   0.01231052 -69.06  0.001157388    1.484    0.326
        18 -11.6372    203.3539    170.7079   2.9041911253e+02   4.6269077377e+00   0.02413405   0.01317899  12.14  0.002125315    2.299    0.565
        19 -10.4082    151.1102    242.1334   2.9145361322e+02   4.0998489543e+00   0.01031002  0.008203627 -33.79 0.0007282232    1.323    0.244
        20 -10.6438     24.9766    185.4834   2.9258397825e+02   5.4867280405e+00   0.01141748  0.008291353 -43.24 0.0003629636    1.398    0.285
        21 -11.0228    121.2171    183.8273   2.9145322267e+02   4.9504063655e+00   0.01427413  0.009797691  71.37  0.001035934    1.880    0.468
        22 -10.3992     28.7130    240.5003   2.9286780268e+02   4.8254481749e+00  0.007532582  0.006527683   9.74 0.0001911584    1.201    0.168
        23 -10.8018     31.1173    182.5755   2.9249511163e+02   5.4851684802e+00   0.01699582   0.00858209  12.46  0.001402041    2.600    0.615
        24 -11.0842     27.5160    179.7591   2.9252029258e+02   5.5386620518e+00     0.019433   0.01176975 -18.91  0.001742509    2.326    0.570
        25 -12.2839    199.5174    179.4707   2.9051619580e+02   4.5473960179e+00   0.02047519   0.01310561  86.53  0.001660451    2.162    0.537
        26 -13.5567    195.6810    169.5753   2.9050154830e+02   4.6845790147e+00   0.02789092   0.02233256 -83.30 0.0008782258    1.379    0.275
        27 -14.3887    174.9194    187.4794   2.9085017338e+02   4.5969973087e+00   0.07111769   0.02052442 -60.96  0.005011912    3.247    0.692
        28 -12.6481    126.2155    171.9182   2.9132385816e+02   5.0598899357e+00   0.02170832   0.01352162 -45.85  0.001719962    1.620    0.383
        29 -12.5035    122.5562    165.8145   2.9132997180e+02   5.1519981003e+00   0.02994568   0.01168361  45.91  0.001483659    3.017    0.669
        30 -14.7406    138.5005    171.2792   2.9117702573e+02   4.9962015165e+00   0.05216214   0.03862705  19.75  0.005724349    1.399    0.285
        31 -12.5127    193.6018    164.7628   2.9049690367e+02   4.7525348760e+00   0.01719975   0.01692883  49.91  0.001251072    1.035    0.034
        32 -12.7986    149.1854    173.8838   2.9106824191e+02   4.9040602555e+00   0.01506002   0.01375418  40.22 0.0008317993    1.109    0.099
        33 -13.9580    144.1073    168.6152   2.9109582944e+02   4.9946885975e+00   0.03221224   0.02181933  65.11  0.002283122    1.855    0.461
        34 -11.8562     26.1559    173.4514   2.9249855817e+02   5.6198385566e+00   0.01370166   0.01266556 -86.54 0.0004043417    1.130    0.115
        35 -12.1232    165.3126    171.7929   2.9086806953e+02   4.8349145299e+00   0.01475605  0.009472701  52.08  0.001462041    1.763    0.433
        36 -11.1344     21.7228    239.2763   2.9294188394e+02   4.8799257358e+00  0.008963486  0.006622899 -45.53 0.0005784845    1.355    0.262
        37 -12.0091    230.1689    166.8414   2.9008425340e+02   4.5161419400e+00   0.01444744  0.009648847 -80.97  0.001441279    1.781    0.438
        38 -11.1793    131.2228    236.5278   2.9165142714e+02   4.2800284046e+00   0.01308474  0.007960436 -63.11 0.0004794454    1.639    0.390
        39 -11.4196     17.6181    156.8313   2.9249901307e+02   5.8622459220e+00   0.02763172   0.01518677 -46.39  0.002539248    1.840    0.456
        40 -11.3027    192.8869    157.8423   2.9046376266e+02   4.8370568066e+00   0.01054141  0.008925132 -27.22 0.0007801397    1.247    0.198
        41 -13.1606    160.1522    152.1675   2.9081064413e+02   5.0928166237e+00   0.01834498   0.01501768 -41.71  0.001591553    1.233    0.189
        42 -14.7542    134.1765    145.7346   2.9107454290e+02   5.3180536270e+00   0.08269571   0.02967704 -73.02  0.005083443    4.668    0.786
        43 -14.7937    143.9737    144.0218   2.9095020908e+02   5.2812028870e+00   0.04997493   0.03092411 -85.27  0.004557798    2.135    0.532
        44 -14.1715    135.8372    128.3906   2.9095136355e+02   5.5099290835e+00   0.08884747    0.0218705 -67.46  0.004644434    6.169    0.838
        45 -10.5356     22.9791    156.0787   2.9243203138e+02   5.8401230554e+00   0.00976021  0.009560206 -15.19 0.0004168934    1.020    0.020
        46 -12.5003    134.7095    109.4366   2.9085095313e+02   5.7366215656e+00   0.04885082  0.009276507 -64.33  0.002516109    6.177    0.838
        47 -13.5845    163.5323    156.0087   2.9079430420e+02   5.0286012919e+00   0.02500154   0.01664473 -63.69  0.001929801    1.504    0.335
        48 -10.8242      7.6666    236.9710   2.9309179242e+02   4.9876169584e+00  0.006194188  0.005950308 -18.97 0.0004113553    1.049    0.047
        49 -12.7993    173.9018    148.6034   2.9062928540e+02   5.0544949493e+00   0.01865979   0.01552985  43.44  0.001602684    1.228    0.185
        50 -11.2605     27.2753    145.6760   2.9231990360e+02   5.9363118384e+00   0.01282112   0.01124235 -34.19 0.0007492703    1.163    0.140
        51 -11.9732    140.4461    120.6626   2.9085139276e+02   5.5729927198e+00   0.01606983   0.01082375  56.06  0.000942868    1.723    0.420
        52 -10.0800     13.6429    233.1380   2.9299945782e+02   4.9978091577e+00   0.00909884  0.005583367 -48.90 0.0007247006    1.608    0.378
        53 -11.9255    173.1313    139.6180   2.9058441980e+02   5.1633261796e+00     0.011492  0.009319439 -81.23  0.001011246    1.341    0.254
        54 -10.0460     29.9746    232.5275   2.9280572404e+02   4.9108938702e+00  0.009711218  0.006475586  27.48 0.0009999013    1.500    0.334
        55 -13.2067    160.6213    128.0627   2.9066079534e+02   5.3700869430e+00   0.02141936   0.01769453  80.23  0.001883744    1.371    0.271
        56 -11.7815    139.0195    243.0909   2.9159990753e+02   4.1586641076e+00    0.0217818   0.01080152 -59.00  0.001482296    1.935    0.483
        57 -11.1879    167.4901    112.6674   2.9048854021e+02   5.5090289205e+00   0.01434267  0.009381644  53.78  0.001218872    1.753    0.430
        58 -10.8337     16.8408    225.5238   2.9291697868e+02   5.0679507953e+00  0.007340751  0.005927483 -21.85 0.0002487691    1.360    0.265
        59 -12.5875     22.6400    220.5430   2.9281984600e+02   5.0924913123e+00   0.01702579   0.01029891 -47.02  0.001404266    1.654    0.396
        60 -10.5328     16.2353    249.7050   2.9306769470e+02   4.7902367005e+00  0.008246221  0.005457077 -61.20 0.0008396608    1.488    0.328
        61 -10.8500    205.2130    110.1836   2.9003461280e+02   5.3188406199e+00   0.01306393  0.009364578   7.73  0.001005007    1.583    0.368
        62 -11.1140     23.6850    215.2277   2.9277606571e+02   5.1482848093e+00  0.008824798  0.007470535 -44.12 0.0004156145    1.178    0.151
        63 -11.2333    130.3774    212.7852   2.9151957117e+02   4.5608560056e+00   0.01403869  0.009869773  82.99 0.0009234828    1.812    0.448
        64 -13.1702     11.4594    206.0471   2.9286383139e+02   5.3254175503e+00   0.02704538   0.01629517  17.42  0.002127995    1.825    0.452
        65  -9.8357     22.8017    205.0319   2.9272569200e+02   5.2719350525e+00    0.0143582  0.007774328 -28.42  0.001192081    2.612    0.617
        66 -13.2212    125.0949    242.1341   2.9175613160e+02   4.2503013892e+00   0.02926529  0.008672742 -60.97  0.002081207    3.166    0.684
        67 -11.6373    139.6955    200.4886   2.9133771613e+02   4.6498490192e+00   0.01662773    0.0127299  20.49 0.0007687947    1.343    0.255
        68 -10.5397    143.9414     80.6676   2.9057088889e+02   6.0171569921e+00  0.009284922   0.00853546  28.79 0.0004185719    1.093    0.085
        69 -14.4078    150.7380     57.7420   2.9035408431e+02   6.2438068663e+00   0.05640864   0.04507357 -35.20 0.0009586628    1.307    0.235
        70 -13.7007    172.0535    176.1265   2.9081557886e+02   4.7454976326e+00   0.02768448   0.01976288   2.93  0.002453867    1.642    0.391
        71 -13.1314    165.6789     34.8416   2.9004239248e+02   6.4227117853e+00   0.02094064   0.01797589 -38.79 0.0009092695    1.179    0.152
        72 -10.9927     13.5388     59.9765   2.9196819560e+02   7.0112006684e+00   0.01203618  0.008793136  45.74 0.0004288972    1.428    0.300
        73 -10.3481    144.9004     34.1096   2.9028017130e+02   6.5518494236e+00   0.01004169  0.008578215  55.75  0.000292631    1.244    0.196
        74 -10.4632    133.4993    249.0488   2.9169962865e+02   4.1213502225e+00  0.008973309  0.006492715 -62.97 0.0003234211    1.377    0.274
        75 -14.0818    178.0730    170.9869   2.9071479284e+02   4.7703072206e+00   0.04133348    0.0255575 -71.93  0.004063408    1.776    0.437
