#   1 NUMBER                 Running object number                                     
#   2 MAG_AUTO               Kron-like elliptical aperture magnitude                    [mag]
#   3 X_IMAGE                Object position along x                                    [pixel]
#   4 Y_IMAGE                Object position along y                                    [pixel]
#   5 X_WORLD                Barycenter position along world x axis                     [deg]
#   6 Y_WORLD                Barycenter position along world y axis                     [deg]
#   7 A_WORLD                Profile RMS along major axis (world units)                 [deg]
#   8 B_WORLD                Profile RMS along minor axis (world units)                 [deg]
#   9 THETA_WORLD            Position angle (CCW/world-x)                               [deg]
#  10 FWHM_WORLD             FWHM assuming a gaussian core                              [deg]
#  11 ELONGATION             A_IMAGE/B_IMAGE                                           
#  12 ELLIPTICITY            1 - B_IMAGE/A_IMAGE                                       
         1 -10.3654      8.7404     26.4976   9.7603146957e+01   6.9573742832e+01    0.4636762    0.3005258 -35.82  0.001780502    1.162    0.140
         2 -10.0608    153.2590     34.0113   5.0361915815e+01   4.2595898471e+01    0.4029687    0.3848932  25.95    0.0011439    1.096    0.088
         3 -10.5082     25.1529      9.4868   8.1322455694e+01   7.0842774843e+01    0.5507808    0.4181932 -38.15  0.003146883    1.609    0.379
         4  -8.3749     51.6865     25.2605   7.6267366120e+01   6.5150782106e+01    0.9723471    0.4192012 -21.74  0.003932613    3.059    0.673
         5 -10.4346     51.8345     17.9355   7.2843146639e+01   6.6143204787e+01     1.009074     0.278671 -39.85  0.003645229    4.213    0.763
         6 -10.5201     32.0713      6.4179   7.6199495791e+01   7.0415375453e+01    0.3617247    0.2243909  10.37 0.0004973336    1.476    0.322
         7  -9.6854     34.0058      1.6062   7.2682553209e+01   7.0738635762e+01    0.3504352    0.1535325  42.51  0.001560485    2.562    0.610
         8 -10.4491     40.0661     13.9648   7.6164690756e+01   6.8376424285e+01    0.6788252    0.4029264 -15.40   0.00201755    1.590    0.371
         9  -9.6677     32.7087     16.1509   8.0752199758e+01   6.9018974700e+01     0.375405     0.209235  35.65  0.001541106    1.992    0.498
        10  -9.5597     33.3718     12.7619   7.8779114359e+01   6.9414407477e+01    0.2953551    0.1964194  23.85 0.0009144397    1.424    0.298
        11  -9.8751     45.1174     17.9035   7.5753404453e+01   6.7140896506e+01    0.6228902    0.3658441  -8.87  0.003349215    1.803    0.445
        12  -9.7714    231.9723     20.4969   3.6587026989e+01   2.5342948655e+01    0.3444669    0.3065653  47.18  0.001149776    1.416    0.294
        13 -10.6956    218.1730     24.7942   3.8880009231e+01   2.7931681531e+01    0.3585482    0.2557609 -70.82 0.0004236214    1.336    0.252
        14  -9.0980    127.0189     14.0582   4.8719757983e+01   5.1200857908e+01    0.3500799    0.1722134 -47.15   0.00147957    2.670    0.626
        15  -8.9461    134.3882     10.4158   4.6067726662e+01   4.9761945473e+01    0.5333108    0.3698353  40.88  0.002919439    1.380    0.275
        16  -9.8282    142.5586     21.9637   4.8449359219e+01   4.6628711017e+01    0.5834109    0.4044438 -63.33  0.002525503    1.812    0.448
        17  -9.5289    144.4506      5.6832   4.2828562513e+01   4.7721942656e+01    0.9367707    0.4340174 -77.81  0.002958109    5.039    0.802
        18  -9.6396    150.1334      2.3100   4.0923428623e+01   4.6610463009e+01    0.3828001    0.2065185  42.94  0.001869928    1.892    0.472
        19 -10.8118    133.2379     18.4541   4.9030082571e+01   4.9269705858e+01    0.9412324    0.3570109  48.79  0.002257149    2.312    0.568
        20 -10.4934    141.3268     13.0348   4.5728249166e+01   4.7828923153e+01    0.5041428    0.3862938 -39.31  0.001455876    1.450    0.310
        21  -9.0665    156.7711     15.9881   4.4161240863e+01   4.3733730669e+01    0.4235752    0.2502258 -41.25  0.002105825    1.820    0.450
        22  -9.1827    152.0309     17.0724   4.5243353737e+01   4.4798742161e+01     0.424527    0.1974765 -21.49  0.001832013    2.501    0.600
        23 -10.2853    210.9146     18.6036   3.8132966301e+01   3.0311096497e+01    0.5675834    0.4392877 -70.01  0.003069358    1.186    0.157
        24  -9.8555    209.4476     11.4849   3.6563664605e+01   3.1417927378e+01    0.2697843    0.2182896 -75.15 0.0006575984    1.094    0.086
        25 -11.0187      5.9467      6.6702   9.0715251749e+01   7.3073107562e+01    0.8137795    0.5010177 -54.93  0.004893241    2.361    0.576
        26  -9.1031     14.5751      3.1924   8.3885256104e+01   7.2825307460e+01    0.2851797    0.2045427  13.60  0.001804291    1.329    0.248
        27 -10.4613     15.2072      9.9613   8.6962455802e+01   7.1793550507e+01    0.5490811    0.3600725  -3.63  0.003091655    1.315    0.239
        28 -10.3174     16.0729     17.8312   9.0144830144e+01   7.0492524484e+01    0.5349092    0.2419253 -48.32  0.002170809    2.215    0.548
        29 -10.4501     23.0935     17.6471   8.6335388447e+01   6.9861550268e+01    0.4897159    0.2391754  30.81  0.002703655    2.206    0.547
        30 -10.1788    197.1266     18.3479   3.9534132828e+01   3.3591879692e+01    0.3883415    0.2375299 -64.60 0.0009414459    1.728    0.421
        31  -9.6239    193.6001     13.1267   3.8583491060e+01   3.4989374045e+01    0.4257797    0.3727316  41.49  0.002055253    1.333    0.250
        32 -12.2429    100.9342     13.1575   5.4263827467e+01   5.7313722781e+01    0.4448961    0.4092504  38.93  0.001198153    1.116    0.104
        33 -10.9274     87.7613     15.6207   5.8919569625e+01   5.9883663431e+01     0.462473    0.4125106 -83.03  0.001381393    1.603    0.376
        34 -10.4797     90.9375     13.2428   5.6990213678e+01   5.9465310518e+01    0.4742548    0.2329915  32.03  0.001720961    2.100    0.524
        35  -9.6503    247.3935     17.7665   3.4727777407e+01   2.2369332814e+01    0.3776557    0.2452262 -87.47  0.002288843    1.472    0.320
        36  -9.3630     66.6371     12.6830   6.4550423994e+01   6.4299362083e+01    0.3794598    0.1959144 -23.38  0.001508325    1.939    0.484
        37  -9.8676     61.7255     12.4055   6.6243335254e+01   6.5200459456e+01    0.3951659    0.3259131  61.93  0.001400521    1.818    0.450
        38 -11.6521     64.6178      6.1178   6.2163990707e+01   6.5356073060e+01    0.5222877    0.2577576  39.35 0.0007507275    1.742    0.426
        39  -9.2717     73.9595      5.4819   5.8688876981e+01   6.3658312146e+01    0.3203532    0.2565055 -29.74  0.001613621    1.484    0.326
        40  -8.5482    122.5057     10.5479   4.8367333957e+01   5.2601662315e+01     0.242276    0.1359627  52.26 0.0006622691    1.509    0.337
        41  -8.6840    121.4948     14.0178   4.9831750680e+01   5.2518991602e+01    0.2797703    0.2091503 -68.80  0.001423629    1.779    0.438
        42  -9.0755    184.8596     16.6718   4.0523698492e+01   3.6735918259e+01    0.3611923    0.2400491 -84.72   0.00183935    1.569    0.363
        43 -10.2255    183.2116      9.6308   3.8826348626e+01   3.7848603262e+01    0.4391885    0.3455534 -81.24  0.001419337    1.208    0.172
        44 -11.5804    186.3894      3.5720   3.6877457612e+01   3.7652083578e+01    0.3078674    0.2646132 -43.21 0.0002337759    1.248    0.199
        45  -9.3389    182.1472      3.8037   3.7389212858e+01   3.8654353438e+01    0.2354891    0.2249469 -23.15 0.0007486212    1.240    0.193
        46 -11.4088    113.0791     12.9268   5.1256276445e+01   5.4589511769e+01    0.4328987    0.2921125 -20.63  0.002354701    1.616    0.381
        47  -8.7476    109.6240      7.7716   5.0061719506e+01   5.5851104883e+01    0.3418676    0.1483555 -45.95  0.001339404    3.476    0.712
        48  -9.6404    250.0124      7.5142   3.2433446174e+01   2.2966163410e+01    0.3935438    0.1838311 -69.63  0.001276392    2.199    0.545
        49 -10.7184    237.2856     12.7240   3.4446109294e+01   2.5065115306e+01    0.7337422    0.4915929 -13.33  0.002655044    2.154    0.536
        50  -9.8035    243.5232      4.5278   3.2267133004e+01   2.4623338233e+01    0.2500423    0.1974809 -53.62  0.001724611    1.145    0.127
        51  -9.4704    241.7536      1.5775   3.1780673507e+01   2.5298361212e+01    0.2430981    0.1374301  86.10 0.0008636692    1.640    0.390
        52  -9.5043    233.1610      5.8663   3.3289935395e+01   2.6685195560e+01    0.2456018     0.215188 -76.13 0.0007286943    1.104    0.094
        53  -9.7669    235.0016      2.1285   3.2360015764e+01   2.6672861261e+01    0.3848808    0.1491267 -52.77  0.001835275    2.321    0.569
        54 -10.5946    204.6796     12.7688   3.7338177326e+01   3.2396190434e+01     0.494061    0.2674728 -42.73 0.0009284274    1.763    0.433
        55  -9.8484     94.0480      4.9211   5.2649888899e+01   5.9568638940e+01    0.7474776    0.2034954  54.30  0.002867085    2.839    0.648
        56  -8.7868     80.7484     12.0156   5.9492408332e+01   6.1682749486e+01    0.2072412    0.1890787   2.69 0.0005689787    1.183    0.155
        57  -9.4744     84.3379     10.1490   5.7577783088e+01   6.1142435302e+01    0.3075499    0.2304185  22.67 0.0006152944    1.187    0.158
        58  -8.9248    229.1349     11.7912   3.4896835409e+01   2.6935519330e+01    0.2889525    0.1883029 -85.71  0.001137278    1.435    0.303
        59  -8.1402    171.3013     11.9337   4.0913678549e+01   4.0540005359e+01     0.174271    0.1647494  86.30 0.0004962098    1.074    0.069
        60  -8.1379    162.1578     10.8210   4.1817604288e+01   4.2902221396e+01    0.1897926    0.1622655 -89.56 0.0002786643    1.134    0.118
        61  -8.3718    128.5496      9.7492   4.6908219432e+01   5.1230807594e+01    0.2207363    0.1341806 -14.13  0.001048997    1.910    0.476
        62 -10.1942    223.8346      5.0838   3.3836906153e+01   2.8809504567e+01    0.4912425    0.2548718 -38.27  0.002347226    1.805    0.446
        63  -8.4136    227.0000      2.9920   3.3130520634e+01   2.8321780240e+01    0.2974358      0.12347 -30.66  0.001188193    2.433    0.589
        64  -8.2565    163.7994      7.1776   4.0523332830e+01   4.2833498441e+01    0.2405499     0.149544  71.98 0.0009870607    1.437    0.304
        65  -8.5248    195.5409      5.2052   3.6367560083e+01   3.5311634250e+01    0.2456637    0.1632912 -73.29 0.0006800229    1.479    0.324
        66  -8.8010    168.7474      5.0829   3.9289270125e+01   4.1805383742e+01    0.2170121    0.1873536  64.43 0.0007211978    1.086    0.079
        67  -9.5644    113.2912      3.9587   4.7816679947e+01   5.5324199440e+01    0.4509443    0.2664743  48.84  0.001989541    1.418    0.295
        68  -7.8572    130.3112      5.3380   4.5053624635e+01   5.1185890756e+01    0.1754241    0.1262534  19.85 0.0005704527    1.557    0.358
        69  -7.7874    129.7444      2.3285   4.4114197411e+01   5.1564670402e+01    0.2117934   0.09573767 -25.26 0.0002136836    2.423    0.587
        70  -9.2697    218.1638      3.2749   3.3884794257e+01   3.0259430027e+01    0.2354639    0.1875206 -53.50 0.0005670913    1.182    0.154
        71  -8.3939    121.4620      3.5164   4.6031778628e+01   5.3445557209e+01    0.2322057    0.1413437  35.63  0.000709264    1.621    0.383
        72  -9.6828    203.0874      2.9927   3.5109472180e+01   3.3745973637e+01    0.4830169    0.1653838  67.83  0.001099743    2.490    0.598
        73  -8.8691     81.9261      2.3752   5.4845809704e+01   6.2340054151e+01       0.1978       0.1664  -3.13 0.0003580548    1.223    0.182
        74  -8.7956     78.1195      2.4600   5.6004058577e+01   6.3105538558e+01    0.2130139    0.1939281  29.80 0.0006354388    1.188    0.158
        75  -9.1780    248.3072      1.9159   3.1419333827e+01   2.3905493582e+01    0.1899538    0.1441013  86.53 0.0002351208    1.230    0.187
        76  -9.4995    151.7204     77.9597   6.4311677954e+01   3.6253909680e+01    0.2854947    0.2351715  72.03            0    1.381    0.276
        77  -8.2258    110.4535    249.7205   1.0878400235e+02   8.4846269838e+00    0.1981465    0.1196296 -70.07   0.00112681    2.111    0.526
        78  -9.4833    152.2094     71.7590   6.2330972142e+01   3.7233853180e+01    0.2972139    0.2639832  60.09 0.0007121147    1.149    0.130
        79  -9.1132    148.0178     72.4967   6.3518488603e+01   3.8111615840e+01    0.3588055    0.3088459  35.09   0.00113949    1.170    0.146
        80 -11.4135    149.3795     66.9509   6.1500032579e+01   3.8737630438e+01    0.3461535    0.2911892  45.25 0.0003396018    1.164    0.141
        81  -9.7756    144.1982     64.2021   6.1832451694e+01   4.0445221286e+01    0.3671287     0.304896 -87.10  0.001062358    1.485    0.326
        82  -8.6170     75.8219     78.3811   8.6584248393e+01   5.1846927590e+01     0.252145    0.1689897 -19.75  0.001100578    1.736    0.424
        83  -9.9138     72.4666     73.3708   8.6213425147e+01   5.3428182509e+01    0.4135202    0.2464986 -47.00 0.0003048547    1.593    0.372
        84  -8.1937    245.4431     77.4810   4.8021627574e+01   1.4770866718e+01    0.1336659    0.1164537 -45.07  0.000106767    1.023    0.023
        85  -8.0604    107.6533     77.3103   7.5840789617e+01   4.6268080341e+01    0.2151632    0.1539923 -54.55 0.0005483081    1.627    0.385
        86  -8.2221    106.5594     74.4944   7.5266930305e+01   4.7043346341e+01    0.3007993    0.1427435  38.33  0.001150703    2.192    0.544
        87  -7.7427     93.4769     77.4861   8.0343197253e+01   4.8995191812e+01    0.1487687    0.1378973 -14.28 0.0001458346    1.010    0.010
        88  -9.5382     31.9182     77.0635   1.0248625597e+02   5.7536187047e+01    0.3437337    0.1921326  12.52  0.001335773    2.150    0.535
        89  -8.3250     86.2960     76.0324   8.2255479578e+01   5.0588885900e+01     0.211353    0.1808371 -31.92 0.0006990291    1.095    0.087
        90  -8.2389      9.5704     76.2821   1.1084518998e+02   5.9294041856e+01     0.218082    0.1228787 -29.96  0.001109986    1.812    0.448
        91  -8.5271    233.1145     74.5431   4.8932799558e+01   1.7786957518e+01    0.2700838    0.1900794 -60.50  0.001018776    1.476    0.323
        92  -8.4655    220.5258     74.9626   5.0779525677e+01   2.0468194329e+01    0.2363932    0.1621498 -52.06  0.001188715    1.422    0.297
        93  -8.0307    217.4991     73.5082   5.0860982271e+01   2.1374229770e+01    0.2010667    0.1309852  48.35 0.0006548607    1.689    0.408
        94  -8.4511     50.1950     74.9770   9.4940761689e+01   5.6125776475e+01    0.1903861    0.1740995 -61.55 0.0004014377    1.246    0.198
        95  -8.6869     24.2553     75.5944   1.0508142690e+02   5.8492844420e+01    0.2760757    0.1285363  14.01  0.001301621    2.627    0.619
        96  -9.5504     19.6786     74.5562   1.0661226962e+02   5.9057978466e+01    0.3003435    0.2358915  -5.28  0.001304967    1.413    0.292
        97  -8.4075     17.6988     71.6570   1.0672765819e+02   5.9839857034e+01    0.2007229    0.1398009 -14.12 0.0005688614    1.560    0.359
        98  -9.1576    248.8924     73.4531   4.6693543616e+01   1.4680174638e+01    0.2865354    0.2495391  33.55  0.001771914    1.432    0.301
        99 -10.2011    243.7352     71.2544   4.6820179749e+01   1.6057229496e+01    0.2955559    0.2691928  28.64   0.00023799    1.349    0.259
       100  -7.7459    169.6299     74.3013   5.9350782791e+01   3.2573322938e+01    0.1584634    0.1182517 -77.18 0.0007031992    1.744    0.427
       101  -8.1213     63.9815     73.9441   8.9473299405e+01   5.4564431657e+01    0.2119104    0.1516577 -11.20 0.0006251316    1.570    0.363
       102  -8.9087    191.7584     69.7134   5.3946251124e+01   2.7975180166e+01    0.3011447     0.213431  35.28 0.0007025608    1.678    0.404
       103 -10.2511    113.6470     70.4594   7.1843742431e+01   4.6330176250e+01    0.4812083    0.4133394 -67.79  0.001391357    1.458    0.314
       104  -9.3778     59.4266     70.9002   9.0233439478e+01   5.5836526245e+01    0.5417551    0.2408256 -51.71  0.002266098    2.164    0.538
       105  -9.1667    139.4252     69.3241   6.4586445466e+01   4.0709112196e+01    0.6816058      0.26528  54.87   0.00230809    2.733    0.634
       106 -11.3209    129.2325     70.8777   6.7668226528e+01   4.2801860227e+01    0.4836041     0.307043  32.43 0.0004539081    1.753    0.430
       107  -8.3850    189.0741     73.3586   5.5400574348e+01   2.8027601282e+01    0.2138154    0.1954356  25.21 0.0003916908    1.205    0.170
       108  -9.8298     28.9474     71.5273   1.0225794974e+02   5.9024276649e+01    0.2459623    0.1817382 -47.83 0.0003392513    1.109    0.098
       109  -9.3678    211.3117     69.9205   5.0877155921e+01   2.3343281318e+01    0.3472435    0.2533393 -84.87 0.0009954702    1.638    0.389
       110 -11.1368    100.6922     63.0750   7.3258633877e+01   5.0378784914e+01    0.8621612    0.7061027 -23.02  0.003195388    1.191    0.160
       111  -7.8313     80.5081     71.5551   8.2793848438e+01   5.2498573566e+01    0.1446741    0.1310088 -15.02 7.866466e-05    1.009    0.009
       112  -8.6885    160.9826     71.4901   6.0325637534e+01   3.5155230473e+01    0.3001073      0.19691 -49.53 0.0008458738    1.648    0.393
       113  -9.5320     38.6233     66.6820   9.7080742010e+01   5.9184315946e+01    0.3018577    0.1887969   1.44  0.001563701    1.902    0.474
       114  -9.4692     37.3227     71.0047   9.8813394815e+01   5.8379591056e+01    0.2732919     0.198921  -7.81 0.0003386374    1.483    0.326
       115  -8.8955     43.5501     66.7524   9.5130164997e+01   5.8651189933e+01    0.4091308    0.1756144 -41.99  0.001798262    2.029    0.507
       116 -10.5829     49.0507     65.3589   9.2521954806e+01   5.8315468446e+01    0.2938592    0.2526949 -15.35  0.001801824    1.086    0.080
       117  -8.7510    204.1802     68.8140   5.1682110459e+01   2.5171512113e+01    0.2094017    0.1839457 -71.61 0.0003852724    1.147    0.128
       118  -9.3996    171.9923     67.3179   5.6869296006e+01   3.3160691742e+01    0.5615442    0.4035281  32.36  0.002082469    1.625    0.384
       119  -9.0183      3.3825     67.9534   1.1157814449e+02   6.1463909085e+01    0.3120123    0.1449769 -77.79  0.001462117    2.506    0.601
       120  -9.3324      9.0392     63.0016   1.0822983577e+02   6.2263616725e+01    0.2876241    0.1884067  38.94   0.00171765    2.021    0.505
       121  -9.7671    222.0319     67.9351   4.8846698148e+01   2.1218761424e+01    0.2123764    0.1939094 -59.64            0    1.017    0.016
       122  -7.8260     20.5273     68.5799   1.0487791906e+02   6.0325744130e+01    0.1257875    0.1027956 -45.04 5.791791e-05    1.030    0.029
       123 -10.3493     15.8249     65.9485   1.0614308008e+02   6.1220258146e+01    0.5028143    0.2328016 -26.01  0.001934426    2.479    0.597
       124 -10.1837     25.1821     59.8559   1.0067075535e+02   6.1852922781e+01    0.4137358     0.396104  48.67  0.002281524    1.384    0.278
       125  -8.8796     28.5464     54.2231   9.7566574589e+01   6.2736726614e+01    0.3977503    0.1505703 -38.76  0.001327338    2.349    0.574
       126 -10.5558    234.6298     63.3238   4.6108657604e+01   1.9145577868e+01    0.5232306    0.3692646 -35.83   0.00287651    1.326    0.246
       127  -9.2329    209.0663     64.2536   4.9769915886e+01   2.4734210046e+01    0.4022186    0.2522693  39.56   0.00157787    1.983    0.496
       128  -8.9178    235.2227     56.3329   4.4413468736e+01   2.0024599899e+01    0.4610918    0.2221257 -65.61  0.001789248    3.117    0.679
       129  -8.1406    201.6780     64.0449   5.0827923313e+01   2.6498858162e+01    0.1952864    0.1767061 -42.00 0.0004959598    1.085    0.078
       130  -8.5006    126.7819     63.9646   6.6067275284e+01   4.4578889608e+01     0.262365     0.210332  49.85 0.0008146173    1.245    0.197
       131  -7.8217    110.3103     64.3218   7.0770859973e+01   4.8160919168e+01    0.1544529    0.1129505   7.27 0.0002180505    1.649    0.393
       132  -8.2523    160.9381     62.6213   5.7687194572e+01   3.6629969203e+01    0.2527852    0.2078147  -9.87  0.001128325    1.383    0.277
       133  -8.0453    117.0601     61.6760   6.7938434137e+01   4.7160489194e+01    0.1994341    0.1821657  38.57  0.000312281    1.091    0.083
       134  -9.1010     81.4373     61.9462   7.9235205178e+01   5.4218550394e+01    0.4855739    0.2383101  27.50  0.001926485    2.486    0.598
       135  -8.5366     60.7574     61.8077   8.6794117614e+01   5.7515465088e+01    0.2297196    0.1729984  10.25 0.0005369964    1.376    0.273
       136  -9.4345     40.1832     61.4399   9.4882385038e+01   6.0126799938e+01    0.3231654    0.2513519  55.60  0.001839617    1.894    0.472
       137  -9.7733     34.5435     59.6800   9.6681476515e+01   6.1061450928e+01    0.3177141    0.2197959 -32.44 0.0005841714    1.246    0.197
       138  -8.8720     36.6942     56.2730   9.4716839677e+01   6.1547141587e+01    0.1841927     0.141412 -45.82 0.0001903052    1.200    0.167
       139 -10.4260    243.8599     58.6670   4.3959347544e+01   1.7863187279e+01    0.3066659    0.2913014  54.51 0.0005933464    1.253    0.202
       140  -8.6297    249.9621     58.8257   4.3324622567e+01   1.6584950316e+01    0.2437139    0.2138167 -30.35  0.001560319    1.231    0.188
       141  -9.5988    135.1401     59.3609   6.2437547031e+01   4.3400717018e+01    0.4742582    0.2944526 -50.02  0.001130639    1.893    0.472
       142  -9.7909    184.5551     50.7621   4.9941614221e+01   3.2597400749e+01    0.4089537    0.3270257  14.84  0.002117588    1.591    0.371
       143 -11.3226    192.3813     56.4778   5.0264206245e+01   2.9861630648e+01    0.5381511    0.3148838 -64.73  0.002253145    2.260    0.558
       144 -10.5738    193.2567     49.2625   4.8183277038e+01   3.0686495459e+01    0.5652983    0.3859468 -77.51  0.002451129    1.745    0.427
       145  -9.2185    197.5117     48.5241   4.7362994905e+01   2.9761972414e+01    0.2960571    0.2099504 -73.80 0.0005909358    1.582    0.368
       146  -9.9434    173.8633     58.9607   5.4103946633e+01   3.4019217536e+01    0.4310048    0.3095312  17.99 0.0008175079    1.892    0.471
       147  -8.0509    173.3534     53.6752   5.2666298688e+01   3.4937226595e+01    0.3057552    0.2075287 -82.07 0.0008775285    1.959    0.490
       148  -8.2391     89.2018     65.7465   7.7890679826e+01   5.2103407141e+01    0.2054175    0.1615231  -3.34 0.0009849137    1.345    0.256
       149  -8.4937    149.2281     58.9486   5.9043101445e+01   4.0079789147e+01    0.2958412    0.1925943  61.99 0.0009828797    1.604    0.377
       150  -8.9961     89.4250     57.6474   7.4988774513e+01   5.3553996084e+01    0.2979537    0.2228874 -19.96 0.0005128654    1.335    0.251
       151  -8.5695      6.1343     58.1522   1.0831340333e+02   6.3459006126e+01    0.2764284    0.1280318 -31.04  0.001426082    2.079    0.519
       152  -8.3126    159.5404     58.4519   5.6713164085e+01   3.7629949546e+01    0.2715029    0.2097199  58.72 0.0006368208    1.270    0.212
       153  -9.2044    155.9720     56.7329   5.6918383142e+01   3.8773391255e+01    0.4038683    0.2967809  59.43  0.001981437    1.340    0.254
       154  -8.4728    220.9413     54.1762   4.5636562800e+01   2.3487028249e+01    0.2401332    0.1726258 -82.29 0.0004272446    1.527    0.345
       155  -9.1966    124.6966     54.5722   6.3466498373e+01   4.6609564627e+01    0.4526417    0.2738977  26.86  0.001345972    2.068    0.516
       156  -9.3083    128.9293     52.7995   6.1789797529e+01   4.5903422960e+01    0.4273081    0.3781577 -61.41  0.001897439    1.318    0.241
       157  -9.8362    113.4214     54.5770   6.6515234740e+01   4.9150775961e+01    0.4515954    0.3381816  24.51   0.00105818    1.395    0.283
       158  -9.9998    120.1966     50.5124   6.3245850022e+01   4.8275365957e+01      0.27121    0.2370327  16.52 0.0003071317    1.127    0.113
       159  -9.1713    119.8602     46.1543   6.1806435902e+01   4.9007944332e+01    0.4916406     0.298914   0.66  0.001989615    2.510    0.602
       160  -7.8900     72.3628     56.2734   8.0485106068e+01   5.6811064203e+01    0.1445087    0.1001705  -0.53 0.0002929807    1.660    0.398
       161  -9.2522    212.3783     48.6343   4.5364647248e+01   2.6227897930e+01    0.4760577    0.3363436  38.72  0.002454449    1.774    0.436
       162  -8.9725    208.1579     55.1472   4.7576653487e+01   2.6294233548e+01    0.2488624     0.200075  56.80 0.0006155774    1.295    0.228
       163  -9.1854    204.8454     51.8552   4.7194285669e+01   2.7544635018e+01    0.2212421    0.1970432 -35.87 0.0004789765    1.157    0.135
       164  -9.1212    207.1163     48.2864   4.5968688643e+01   2.7507495700e+01    0.2467969    0.2119593 -33.83 0.0005825872    1.208    0.172
       165  -9.8000     63.1035     55.6325   8.3751542328e+01   5.8372628857e+01    0.5264094    0.3764081  65.21  0.002473783    2.641    0.621
       166  -9.1099    142.1840     54.3949   5.9165380374e+01   4.2498951466e+01    0.3897687    0.2263167  40.40  0.000870025    1.787    0.440
       167  -8.3813     41.9700     53.4782   9.1566215924e+01   6.1541381750e+01    0.2580065    0.1438851 -35.56 0.0005869083    1.581    0.368
       168 -10.4727      9.8336     52.8100   1.0537536288e+02   6.4385919066e+01     0.316086     0.305752  -4.35  0.001236255    1.317    0.241
       169  -8.7852     14.4581     49.5424   1.0240462621e+02   6.4774393232e+01    0.2262308    0.1673749 -61.56  0.001373023    1.407    0.289
       170 -10.1144    244.3549     50.2235   4.2016087317e+01   1.8934371163e+01    0.4677618     0.354917  13.45  0.002171833    2.074    0.518
       171  -9.9791    248.1930     36.9476   3.8730180758e+01   1.9886013600e+01    0.4144685    0.2956232 -56.71  0.002377993    1.207    0.172
       172  -9.3242    246.5804     44.5125   4.0527993975e+01   1.9237982766e+01    0.2208507    0.1924575  38.16 9.196008e-05    1.501    0.334
       173  -9.6253    249.6001     41.0071   3.9474578617e+01   1.9073482983e+01    0.3400665    0.2204144  56.05  0.001943803    1.779    0.438
       174  -9.1569     93.5431     49.5734   7.0695537390e+01   5.4133747200e+01    0.4662907    0.3197159 -55.69   0.00219393    2.059    0.514
       175  -8.8169     88.3134     46.7288   7.1337500848e+01   5.5617253230e+01    0.3274882    0.2274327  29.89  0.001149555    1.403    0.287
       176 -10.0177     81.4375     50.2076   7.4994137778e+01   5.6325905473e+01    0.5984658    0.3285054  45.31  0.002740274    1.945    0.486
       177  -9.7588     71.7626     49.5761   7.8244552184e+01   5.8112839773e+01    0.6125324    0.4366285  20.33  0.001773458    1.408    0.290
       178  -8.0834    224.4697     56.5686   4.5770485502e+01   2.2352254757e+01    0.1994367    0.1125879 -44.86 0.0006147416    1.613    0.380
       179  -9.1680    228.5948     49.6572   4.3626139912e+01   2.2404945414e+01    0.2288954    0.2159457  22.81  0.001445178    1.311    0.237
       180  -8.9997    221.8358     50.0064   4.4514328875e+01   2.3869080604e+01      0.38276    0.2234122  66.28  0.001445061    1.754    0.430
       181  -8.3556    220.4966     46.0091   4.3709661389e+01   2.4719936216e+01    0.2568353    0.1317611 -27.64  0.001150294    2.136    0.532
       182 -10.2573    233.4194     35.2734   3.9775277813e+01   2.3242059259e+01    0.5801094    0.4160185 -67.32  0.003402544    1.310    0.236
       183  -9.5057    237.6309     48.3258   4.2305048868e+01   2.0617125947e+01    0.3586202     0.297198  20.97  0.002124785    1.681    0.405
       184 -10.1180    233.4992     43.9946   4.1760009054e+01   2.2093219240e+01    0.6130772    0.2599469 -53.43  0.002211341    2.464    0.594
       185  -9.5457    237.7115     42.9579   4.1079247685e+01   2.1318527537e+01    0.3600992    0.2221226 -88.41  0.001875245    1.831    0.454
       186  -9.8632     41.1544     46.0709   8.9320493854e+01   6.3054917271e+01    0.4598378    0.3632709  86.24  0.002378608    2.546    0.607
       187  -9.3239     20.4998     47.0506   9.8906001073e+01   6.4844278403e+01    0.2313089    0.1957975  21.30 0.0003177147    1.430    0.300
       188  -9.0003    187.5546     60.1431   5.2046110342e+01   3.0484421302e+01     0.456012    0.2184222  52.61  0.001868835    2.061    0.515
       189 -10.0239    173.6803     45.0122   5.0096592059e+01   3.6084321200e+01    0.3715773    0.3031301  25.63  0.001088737    1.435    0.303
       190  -8.5102    170.6696     41.1826   4.9485418276e+01   3.7346883739e+01    0.3661797    0.2067779  65.87  0.001642664    1.740    0.425
       191  -8.8340    147.2676     41.8700   5.4025961417e+01   4.3062684867e+01    0.4198561    0.1663768  47.99  0.001567167    2.395    0.582
       192  -9.1176    164.8233     46.5646   5.2105010453e+01   3.8070372516e+01    0.2734293    0.2159119 -58.66 0.0004284453    1.378    0.274
       193  -9.5335    163.0757     42.0868   5.1071841204e+01   3.9116062708e+01    0.4540757    0.2296852  57.70 0.0008140595    1.831    0.454
       194  -8.3175    156.0416     44.2083   5.3029088828e+01   4.0576600532e+01     0.301008    0.1747791  47.50 0.0006643819    1.673    0.402
       195  -9.4869    153.1315     41.0407   5.2599363613e+01   4.1725686891e+01    0.3436462    0.3006271 -73.18  0.001169377    1.255    0.203
       196  -8.1526    111.9803     46.9549   6.4211915685e+01   5.0664142961e+01    0.1816567     0.153801  38.93 0.0004485611    1.118    0.105
       197 -10.5723     34.0809     43.8908   9.1664852917e+01   6.4233668009e+01    0.5497826    0.3570165  25.74 0.0008262573    1.668    0.401
       198  -8.7858     29.6686     44.6724   9.3936642131e+01   6.4521565736e+01    0.2337396    0.1494799 -35.59 0.0008408105    1.278    0.217
       199  -9.6733    136.9110     44.0992   5.6972777911e+01   4.5283086346e+01    0.4911485    0.4421382 -89.61  0.002732381    1.258    0.205
       200  -9.5096    141.0733     39.6261   5.4579227407e+01   4.4881010997e+01     0.566748    0.2636067  48.25  0.002323927    2.001    0.500
       201  -8.2811      9.1460     44.3033   1.0331472519e+02   6.6162434233e+01    0.2635471    0.1012808 -40.60  0.001298125    2.012    0.503
       202  -8.8425      2.9978     44.2780   1.0617781290e+02   6.6496824707e+01    0.2298167    0.1845257 -69.54  0.001588979    1.434    0.303
       203  -8.9706     96.4440     43.0854   6.7342335241e+01   5.4566187339e+01    0.3489441    0.2186633  14.11   0.00097926    2.050    0.512
       204  -9.6003     99.4992     37.4262   6.4252026633e+01   5.4751681960e+01    0.5543448    0.2360156 -39.27  0.002231027    2.553    0.608
       205  -7.7066     55.2853     44.6658   8.2810583746e+01   6.1503795382e+01    0.1171769    0.1072453 -69.91 0.0004300886    1.622    0.384
       206  -9.0572    185.9924     42.0332   4.7299268482e+01   3.3445109520e+01    0.4429627     0.222047 -66.05  0.001588518    3.253    0.693
       207  -9.2002    127.7566     41.7366   5.8289735571e+01   4.7798794966e+01    0.3399806     0.283213  48.65   0.00185159    1.129    0.114
       208  -8.2575     85.4619     42.4660   7.0654194242e+01   5.6837221669e+01    0.2749173    0.1478204  24.69   0.00115029    2.301    0.565
       209  -8.0877     90.3652     40.3225   6.8203089838e+01   5.6207853604e+01    0.3290117    0.1544204  36.13  0.001329434    2.174    0.540
       210  -9.6068     92.1331     35.4599   6.5733070893e+01   5.6553644918e+01     0.375755    0.3722302   4.74  0.002185773    1.248    0.198
       211  -9.4991     66.9875     28.4539   7.1513985327e+01   6.2252133575e+01    0.3916012    0.2281798 -15.80   0.00161803    1.854    0.461
       212  -8.6558     66.9565     41.9902   7.7130017007e+01   6.0188637271e+01    0.3090248    0.1831145  36.04 0.0008471445    1.687    0.407
       213 -10.1401     68.9491     35.6209   7.3796103319e+01   6.0867769290e+01    0.5840542    0.3708628   1.14  0.001985244    1.862    0.463
       214  -9.5685     62.1214     38.3784   7.7565942957e+01   6.1549305128e+01    0.5786781    0.3418394  27.11  0.002962828    1.697    0.411
       215 -10.2854     51.8134     37.3927   8.1386022022e+01   6.3237597114e+01    0.3279496    0.2152663 -29.70 0.0002369579    1.360    0.265
       216  -8.5403     56.0793     36.4843   7.9233964255e+01   6.2774956457e+01    0.2027279    0.1802623 -35.87  0.001281969    1.361    0.265
       217  -9.1167     59.2641     33.4589   7.6676384363e+01   6.2772784338e+01    0.2910023     0.213356  -5.40 0.0009544568    1.271    0.213
       218  -9.6874     19.0636     40.2264   9.7337861146e+01   6.6285787603e+01    0.5482143    0.2656534  20.29  0.002931601    2.243    0.554
       219  -8.5105     12.4825     36.0828   9.9113780423e+01   6.7553839770e+01    0.2130546    0.1576634 -43.79 0.0009817333    1.172    0.147
       220 -10.0870    224.5151     38.0500   4.1348344022e+01   2.4861644617e+01    0.4763006    0.3270431 -19.21  0.002543093    1.806    0.446
       221  -7.5057    221.3088     34.6909   4.0901233323e+01   2.6013624685e+01    0.2298479    0.1019968 -41.62 0.0009772968    2.020    0.505
       222  -8.6508     78.2986     41.1863   7.2626728764e+01   5.8368531874e+01     0.412295    0.1552413  36.71  0.001574937    2.745    0.636
       223  -7.8362    106.5325     39.9402   6.3166759209e+01   5.2887229773e+01    0.1887092    0.1368077 -26.36  0.000333065    1.414    0.293
       224  -9.8179    211.6556     31.7226   4.1253536550e+01   2.8604218748e+01    0.5789428    0.2988689 -69.72  0.001778077    2.500    0.600
       225  -9.2719    216.3013     38.4137   4.2359387386e+01   2.6684391200e+01    0.2595906    0.2007588 -73.57 0.0008039397    1.252    0.201
       226  -9.0163    212.5333     37.4937   4.2575036007e+01   2.7675114676e+01    0.2856171    0.1993405  78.53  0.001258122    1.423    0.297
       227  -9.9089    112.7186     36.0558   6.0032486367e+01   5.2045746215e+01     1.441699    0.2192946  47.92  0.003783668    5.096    0.804
       228 -10.0292    123.8568     26.7657   5.3919274413e+01   5.0617649039e+01    0.4126409    0.2237704 -26.34  0.001010203    1.978    0.495
       229  -9.1412    119.7612     38.8925   5.9249557688e+01   5.0056698045e+01    0.4004401    0.2553057  31.67 0.0004268736    1.663    0.399
       230 -10.4042    125.2765     36.2878   5.6975570501e+01   4.9114646634e+01    0.2576947    0.2075224  25.31 0.0001836503    1.254    0.203
       231 -11.0751    121.9982     34.0338   5.6957424145e+01   5.0174445485e+01    0.2702272    0.2299241  52.09            0    1.126    0.112
       232  -8.0827      1.2089     24.0347   1.0071287746e+02   7.0471591971e+01     0.209765     0.084351 -54.98   0.00106943    2.147    0.534
       233 -10.4166     22.0606     32.4260   9.3068818773e+01   6.7483134965e+01    0.5500686     0.502991 -84.57   0.00251189    1.785    0.440
       234 -10.5667      4.2383     33.9315   1.0250256864e+02   6.8467220334e+01    0.7141852    0.2638676 -48.60  0.003164454    1.912    0.477
       235  -9.1191      1.7679     28.8554   1.0209495652e+02   6.9556542065e+01    0.2006514    0.1542255 -16.93 0.0005889045    1.200    0.167
       236  -9.5490     13.8184     30.5504   9.6485971134e+01   6.8486256441e+01    0.3398861    0.1909206  14.17  0.001935391    1.882    0.469
       237  -7.8035    249.6617    249.6694   8.2389055508e+01  -1.1653069762e+01    0.1221839   0.06808907   4.21 0.0007051926    1.738    0.425
       238  -9.1632    192.6019     36.8614   4.4947939290e+01   3.2502782944e+01    0.3881067    0.2179024  51.00  0.001815096    1.834    0.455
       239  -8.6063    241.5349     36.6491   3.9289140019e+01   2.1319750671e+01    0.2080208    0.1814776 -78.46 0.0006087059    1.086    0.079
       240  -8.7176    214.5346    244.8613   8.7898363411e+01  -6.3932124168e+00    0.2400996    0.1408529  44.18  0.001334176    1.995    0.499
       241  -8.9451    130.6743     27.7997   5.2784790204e+01   4.8871815952e+01     0.476975    0.1809988 -41.22  0.001688385    3.042    0.671
       242  -9.3134    138.9034     33.9233   5.3138002167e+01   4.6142656994e+01    0.3388712     0.242952  44.07  0.001362811    1.320    0.242
       243  -9.3461    134.1856     32.0395   5.3494613093e+01   4.7520470353e+01      0.27621    0.1920321  57.80 0.0003846558    1.340    0.254
       244  -7.6569    159.3095    244.6663   9.8516768631e+01   1.9090869265e+00    0.1204275   0.09038273  59.72 0.0004627471    1.674    0.403
       245  -8.6058    235.1026    243.1113   8.3869821772e+01  -9.0053601171e+00    0.1948346    0.1272734   7.64  0.001232616    1.309    0.236
       246  -9.0112     48.0832     27.0661   7.8625132651e+01   6.5401624285e+01    0.5402655    0.1639427 -32.98  0.002018289    3.421    0.708
       247  -8.9420    194.6312    242.5979   9.1303540741e+01  -3.1839401454e+00    0.3263661     0.128972  30.32  0.001455126    2.340    0.573
       248  -9.1161    228.1130    241.3589   8.4840378189e+01  -7.8400151264e+00    0.3115433     0.121486 -32.75  0.001509415    2.672    0.626
       249  -9.1702    248.0122    240.2504   8.1122394548e+01  -1.0348372615e+01    0.1915271    0.1386735 -31.91    0.0012892    1.650    0.394
       250 -10.1844    171.7189    233.5515   9.4421069560e+01   1.7049959446e+00     0.413144    0.3535959  40.90  0.002325717    1.218    0.179
       251  -8.3069      5.1211    235.1606   1.2722104323e+02   2.4015073803e+01    0.1588813   0.08990368  65.32  0.001083367    1.348    0.258
       252  -8.2768    152.9695    233.7644   9.8257034368e+01   4.6581501953e+00    0.2454029    0.1514069 -19.14  0.001173356    2.557    0.609
       253  -9.5672     38.2326     33.1733   8.5654212201e+01   6.5691791435e+01    0.5899202    0.2897803  14.04  0.002681042    2.553    0.608
       254  -9.6356    192.9339     24.2757   4.1563700860e+01   3.3940714779e+01    0.4067245    0.3064831 -24.28  0.002290198    1.502    0.334
       255  -9.1834    189.4089     22.1538   4.1435116532e+01   3.5034921745e+01     0.336433    0.2392247 -57.19 0.0009044975    1.417    0.294
       256  -9.0667    186.4810     29.0798   4.3677810007e+01   3.4952858857e+01    0.4465346    0.2228932 -50.50  0.001754237    2.155    0.536
       257  -9.0615    189.7991     27.8523   4.2908345048e+01   3.4287467605e+01    0.4292632    0.2568492 -42.32  0.002027995    1.656    0.396
       258  -7.6314    239.6429     31.2094   3.8267347432e+01   2.2404938748e+01    0.1252567   0.08077808 -73.66 0.0002054364    1.549    0.354
       259  -9.3404    224.3388     27.7089   3.8944105183e+01   2.6188170529e+01    0.4078669    0.2137513 -31.77  0.001465001    1.921    0.479
       260  -8.2447     96.9372     29.6835   6.1985004419e+01   5.6327261557e+01    0.1910248    0.1628374  27.35 0.0005187205    1.039    0.037
       261  -9.4412     84.5758     29.2872   6.5660132240e+01   5.8901694776e+01    0.2969618    0.2292982  18.48 0.0008011758    1.192    0.161
       262  -7.7427    102.5088    229.4869   1.0812465058e+02   1.3285426481e+01    0.1276075    0.1071001  53.52 4.284186e-05    1.021    0.021
       263  -9.3492    175.1823     26.9284   4.4653548740e+01   3.7988100522e+01    0.5629973    0.3210759 -62.18  0.002516116    2.170    0.539
       264  -8.2407    163.7046     29.6672   4.7217118732e+01   4.0521228176e+01     0.229861    0.1300982  59.40 0.0006490208    1.602    0.376
       265  -9.1996    168.3724     23.0949   4.4542065246e+01   4.0108744579e+01    0.3606511    0.1904633  62.74  0.001028605    1.696    0.410
       266  -8.6904    167.4788     28.4965   4.6266530386e+01   3.9719034168e+01     0.253208    0.2242365  22.73  0.001061723    1.279    0.218
       267  -8.7015    170.4800     26.5031   4.5223020963e+01   3.9203128204e+01    0.2554402     0.198896  47.29 0.0001083203    1.301    0.231
       268  -8.2020    165.6299     34.9772   4.8491395593e+01   3.9398072409e+01     0.187682    0.1727936 -43.16 0.0004240442    1.141    0.124
       269  -8.9607    105.2130     27.0980   5.8643979887e+01   5.4854993689e+01    0.3945718    0.1722682 -15.65  0.001046571    3.216    0.689
       270  -7.7896    247.4746     28.5076   3.6985709828e+01   2.1085753275e+01    0.1223682    0.1040373 -64.00 0.0003283742    1.041    0.040
       271  -9.1551     62.0545     26.7700   7.2686978577e+01   6.3316176669e+01    0.3479029    0.2144158   5.28  0.001762145    1.864    0.464
       272  -7.8400    114.8651     27.1269   5.6171901633e+01   5.2673493755e+01    0.1922397    0.1431854  32.84 0.0004122087    1.275    0.216
       273  -8.8713     37.9453     25.8525   8.2682358810e+01   6.6920694335e+01    0.2939606     0.141006 -30.54  0.001079101    1.909    0.476
       274  -8.5054    219.6908    228.2070   8.4190020716e+01  -4.8975962422e+00    0.2664191    0.1475353  23.98  0.001424908    1.648    0.393
       275  -9.4455    234.3645     25.7973   3.7552908984e+01   2.4200134271e+01    0.2386469    0.1949908 -81.97 0.0003841753    1.108    0.098
       276  -8.9026    238.8356     24.8633   3.6947132028e+01   2.3346335517e+01    0.2098036     0.181996 -67.35 0.0005811425    1.054    0.051
       277  -9.1359    237.3445     20.8182   3.6192626616e+01   2.4140557391e+01    0.3509042    0.2069138  55.52  0.001896809    1.928    0.481
       278  -8.7634    232.0882    211.7776   7.8975780209e+01  -4.4121181046e+00    0.2724533    0.1599807  10.44 0.0007690638    1.861    0.463
       279  -9.8744    136.8557     25.3148   5.0657814452e+01   4.7658125239e+01     0.327865     0.250819 -65.48  0.000539689    1.609    0.379
       280  -8.2859     29.4910    198.9720   1.2042196124e+02   2.8975061262e+01     0.181954    0.1018172 -78.95 0.0008658366    1.585    0.369
       281  -7.6097    120.6103    197.4601   9.9834594872e+01   1.6829510819e+01    0.1341644    0.1284136  34.86 0.0001526998    1.069    0.065
       282  -7.8811    220.2601    193.3623   7.7705351278e+01   2.2761143097e-01    0.1389537   0.09213382  -5.48 0.0004994671    1.633    0.387
       283  -7.5387     48.3110    162.7011   1.1243192413e+02   3.5273863648e+01    0.1366103   0.09027859  69.57 0.0002188832    1.601    0.375
       284  -7.9165    171.5124    152.5202   7.9266951799e+01   1.6778691721e+01    0.1531118    0.1440884  -0.46 0.0002058542    1.014    0.014
       285  -7.5972      5.6732    141.3243   1.2097643288e+02   4.4219302930e+01    0.1268751    0.0766752  69.48 0.0007049172    1.693    0.409
       286 -10.1702     65.8507    131.5049   1.0277049297e+02   4.0782417666e+01    0.5123276    0.3431592  18.32  0.001391447    1.848    0.459
       287  -8.6504     77.9538     25.4955   6.6284013825e+01   6.0672482422e+01    0.2829242    0.2058172  35.95   0.00148488    1.260    0.207
       288  -8.7956     79.3050     21.7248   6.4207141599e+01   6.0884394969e+01    0.3545976     0.189601  29.44  0.001206481    1.910    0.476
       289  -7.7855    198.6027     25.3314   4.1156602324e+01   3.2454436097e+01    0.1501676   0.08834443 -67.42 0.0006984033    1.918    0.479
       290  -8.8207     13.6416    133.1030   1.1801522432e+02   4.5631212130e+01    0.1885641    0.1572776  67.92 0.0005242793    1.255    0.203
       291  -8.2635     25.4932    128.4808   1.1411261066e+02   4.5840726482e+01    0.1304379    0.1085973 -72.91 0.0008103272    1.009    0.009
       292 -10.0375    158.3354     22.7650   4.5991664447e+01   4.2638972623e+01     0.581886    0.2144308  58.88  0.001574423    2.301    0.565
       293  -9.0453     30.4700     26.5635   8.6563757098e+01   6.7667940969e+01     0.301417     0.262868  14.88   0.00119072    1.367    0.269
       294  -9.5289    246.1187     23.4429   3.6023170245e+01   2.1975080350e+01    0.2296009    0.1846589 -83.01 0.0003052978    1.138    0.122
       295  -8.3343    113.2120     22.5594   5.4865929443e+01   5.3573070925e+01    0.3957746    0.1914552  29.84   0.00140911    2.629    0.620
       296  -8.0604     96.1482     23.4235   5.9707079490e+01   5.7257634623e+01    0.1814497    0.1265251  65.16  0.000927054    1.755    0.430
       297  -8.2698     22.1061     22.8703   8.9167283774e+01   6.9122433324e+01    0.1646918    0.1387667 -13.25 0.0003447853    1.190    0.160
       298 -10.6113     69.3380    122.8757   1.0002434963e+02   4.2439114511e+01    0.2490562    0.2418475  75.39 0.0003609798    1.101    0.092
       299  -7.9889     17.1598    124.2279   1.1595484164e+02   4.7516402311e+01     0.166976    0.1280874  82.25 0.0002004668    1.306    0.234
       300  -9.0796    103.9220     21.2149   5.6692735786e+01   5.5817511560e+01    0.3006469     0.222111 -13.85  0.001181412    1.424    0.298
       301  -9.1129     70.7553     20.0309   6.6419730515e+01   6.2694854568e+01    0.3229474    0.2338888 -48.86  0.001556305    2.025    0.506
       302  -8.0194     73.3495     16.7867   6.4053793154e+01   6.2600096796e+01    0.2323347    0.1787612   6.32 0.0009204768    1.174    0.149
       303  -8.1368      9.5119    122.5302   1.1794678796e+02   4.8443312605e+01    0.1262344   0.09955903 -68.22 1.609705e-05    1.046    0.044
       304  -9.6109     11.8614    115.1033   1.1632840122e+02   5.0071570439e+01      0.78619    0.1641418  37.81  0.002782687    4.945    0.798
       305  -9.2746     15.2204    112.1623   1.1490502092e+02   5.0556725720e+01    0.2312003    0.1866959 -82.52 0.0007629939    1.158    0.136
       306  -8.1257     26.1935    112.2165   1.1149860026e+02   4.9737302210e+01    0.1680593    0.1382869  84.72 0.0002309861    1.286    0.223
       307  -7.9774    105.1996    111.6188   8.6507204513e+01   3.9319438397e+01    0.2101137     0.146899  25.82 0.0005778479    1.615    0.381
       308  -7.7033     44.0443    104.9898   1.0440382091e+02   4.9853800956e+01    0.1639803    0.1370763 -55.88 0.0003090281    1.033    0.032
       309  -8.6089    246.4984    104.4484   5.3985186931e+01   1.0320113091e+01     0.136855    0.1184344 -39.77 6.388374e-05    1.033    0.032
       310  -9.6207    119.5295    101.8632   7.9706628320e+01   3.8698977836e+01    0.4941413    0.2805542 -54.99  0.000946842    2.033    0.508
       311  -8.6193     25.6834    103.1131   1.1013612720e+02   5.1970829791e+01    0.1887721    0.1404354 -57.61 0.0004946884    1.105    0.095
       312  -8.0257    217.9714    102.5138   5.7933444191e+01   1.6463851911e+01    0.2085512    0.1445238  51.29 0.0005857585    1.562    0.360
       313  -8.2125     58.0586     21.3301   7.1844676265e+01   6.4712703706e+01    0.1681845    0.1402218  11.50  0.001077303    1.087    0.080
       314  -8.4493      2.0653     20.1584   9.8801826980e+01   7.1114518783e+01    0.1873318    0.1337882   2.81  0.001089239    1.419    0.295
       315  -9.6911     10.6428    101.1164   1.1474038205e+02   5.3477936892e+01    0.2600988    0.1500041  32.48    0.0011896    2.069    0.517
       316  -9.5650    169.3049     18.1437   4.2965678248e+01   4.0407735946e+01    0.3422614    0.2172569  57.87 0.0009030402    1.433    0.302
       317  -9.2404     64.1702     18.1556   6.7999000659e+01   6.4095773327e+01    0.3415185    0.2345104  15.64  0.001817788    1.352    0.261
       318  -8.0472     56.1612    100.1818   9.9288584412e+01   4.9643979105e+01    0.1845884    0.1615115  86.79 0.0004545118    1.342    0.255
       319  -8.2552    243.4559     99.4961   5.3295271647e+01   1.1712986555e+01    0.1374047     0.120135 -34.50 0.0002169815    1.034    0.033
       320  -8.6686     16.7731     99.0460   1.1239740243e+02   5.3583893682e+01    0.1808644    0.1682733 -40.42 0.0002453737    1.181    0.153
       321  -9.3629    203.8493     97.1856   5.9041227707e+01   2.0504026203e+01    0.4001364    0.2880243 -63.60  0.001877664    1.678    0.404
       322  -8.1523    130.6161     97.7386   7.5464064176e+01   3.7228350898e+01     0.213947    0.1465161 -50.64 0.0006547532    1.543    0.352
       323  -8.6531    121.3452     17.5428   5.1144986378e+01   5.2208075492e+01    0.2459143    0.2001426  67.59 0.0007392054    1.252    0.201
       324  -9.0916     72.2939     95.5239   9.2676318789e+01   4.8571597070e+01    0.2995037    0.2771307  -5.72 0.0009495087    1.108    0.098
       325  -9.6879    211.4083     92.1059   5.6456927330e+01   1.9690978605e+01    0.5060036    0.2996503 -57.22  0.001472314    2.046    0.511
       326  -8.5828     38.5681     94.8798   1.0415060965e+02   5.2813932534e+01    0.2616903    0.1050418 -56.10  0.001113924    2.003    0.501
       327  -9.4566    165.0028     94.7055   6.6131981620e+01   2.9978553494e+01    0.2917867    0.2724672  42.87 0.0004446169    1.083    0.077
       328  -8.0245    174.6731     92.9213   6.3549276695e+01   2.8036328339e+01    0.2174872     0.196118 -34.02 0.0006869045    1.088    0.081
       329  -8.1572    145.3823     92.9236   7.0245584819e+01   3.4899483606e+01    0.2122891    0.1927517 -27.82  0.001076911    1.093    0.085
       330  -9.2247    249.2758     90.7314   5.0517679794e+01   1.1962973563e+01    0.4038046    0.1601515 -41.29   0.00169567    2.134    0.531
       331  -9.5326     19.7579     90.8669   1.0993480755e+02   5.5308995322e+01    0.3364328    0.2837476 -72.91  0.001965435    1.170    0.146
       332  -9.7944    199.6451     76.5163   5.4424907361e+01   2.5000542787e+01    0.5289448    0.2886457  46.04  0.001827176    1.996    0.499
       333 -10.6302    189.1562     88.0519   5.9349920276e+01   2.5502837988e+01    0.4120892     0.308873 -74.09  0.001918368    1.699    0.412
       334 -10.7141    195.7677     82.1321   5.6570361779e+01   2.4973803032e+01    0.3378741     0.319335 -83.62  0.000258437    1.086    0.079
       335 -10.9112    188.8067     82.1816   5.7838531897e+01   2.6607999080e+01    0.3290761    0.2753373  46.73 0.0003179969    1.239    0.193
       336  -8.9438    137.5093     89.4251   7.1218130555e+01   3.7393146861e+01    0.4710754    0.2249004 -42.39  0.001448792    2.086    0.521
       337  -9.4850     55.7440     89.4572   9.6815623569e+01   5.2205919735e+01    0.3943471    0.2475269  52.15  0.001848956    2.179    0.541
       338  -8.2452     99.9076     90.2687   8.2207539810e+01   4.5104062079e+01    0.2452085    0.1732018   4.36 0.0009435904    1.893    0.472
       339  -8.0281     79.2953     15.3118   6.1410352831e+01   6.1622951700e+01    0.2094688    0.1546123  16.29 0.0005871763    1.241    0.194
       340  -8.8168     27.8463     89.0702   1.0671085728e+02   5.5123847751e+01    0.2884258    0.2053343  64.98  0.001512929    1.911    0.477
       341  -9.0786      5.0748     88.0413   1.1457270544e+02   5.6840242481e+01    0.3591313    0.1940839 -23.47  0.001926905    2.195    0.544
       342  -8.4979    177.0590     13.4726   4.0611651042e+01   3.8972575110e+01    0.4426153   0.08891816  63.80  0.001435864    3.692    0.729
       343  -7.9168      1.4921     13.5141   9.6446311085e+01   7.2286588464e+01    0.1146549   0.08193181 -26.58 0.0001179649    1.001    0.001
       344  -8.1992    170.2699     87.0410   6.2842750755e+01   3.0165617372e+01     0.213701    0.1981297 -38.30 0.0005628711    1.065    0.061
       345  -7.9884     40.8120     87.2357   1.0162538995e+02   5.4382090075e+01     0.195505     0.133493 -36.01 0.0007139887    1.378    0.275
       346  -9.0188    242.5929     86.0601   5.0344153414e+01   1.4024783094e+01    0.2608862    0.1751142  35.30  0.001319118    1.961    0.490
       347  -8.7478    158.5623     85.8493   6.5065343575e+01   3.3175577452e+01    0.3791883    0.2771802  36.02  0.001744728    1.459    0.315
       348  -7.7760    102.9219     86.1897   8.0052329427e+01   4.5397165567e+01    0.1983447    0.1170132  41.76 0.0005616145    1.743    0.426
       349  -8.7594    235.8754     84.0824   5.0797692740e+01   1.5717195999e+01    0.3933788    0.1329362 -44.84  0.001432502    2.761    0.638
       350  -7.9151      1.1926     84.8955   1.1542338512e+02   5.7748174589e+01    0.1662036   0.07719799 -70.15 0.0006338354    1.744    0.427
       351  -8.1462    230.1736     84.4517   5.1685071109e+01   1.6860186016e+01    0.2550706    0.1323441  52.78  0.001144437    2.095    0.523
       352  -9.5116     87.3017     82.8274   8.4032097759e+01   4.8989745213e+01    0.3810006    0.2949639 -67.47   0.00119279    1.665    0.399
       353  -9.3699     63.8702     82.8490   9.2136270049e+01   5.2643833366e+01    0.2927867    0.2594563 -60.30 0.0008598351    1.234    0.189
       354  -8.6538     11.9191     82.7541   1.1121662740e+02   5.7688567550e+01    0.3558189   0.07014475 -52.19  0.001338597    3.041    0.671
       355  -7.6082    154.4893     83.4855   6.5308740597e+01   3.4582835306e+01    0.1542108    0.1499375   7.86 5.915049e-05    1.023    0.023
       356  -8.1593    146.1967     82.8105   6.7072355774e+01   3.6667114093e+01    0.2072026    0.1787017   5.10  0.000307943    1.277    0.217
       357  -8.3693    135.6375     82.9876   6.9773397272e+01   3.9078977135e+01    0.2217252    0.1877113 -37.59 0.0005019336    1.179    0.152
       358  -8.7606     69.0825     82.6901   9.0237730275e+01   5.1939537822e+01    0.1976117    0.1791421  -1.65  0.000845495    1.111    0.100
       359  -9.1641    125.6851     81.8084   7.2063060812e+01   4.1544797576e+01    0.3495543    0.2342547  20.48  0.001463939    1.932    0.482
       360  -7.7584     20.6852     81.6513   1.0777258347e+02   5.7379052677e+01    0.1403756   0.07436587 -39.41 0.0007047173    1.724    0.420
