#   1 NUMBER                 Running object number                                     
#   2 MAG_AUTO               Kron-like elliptical aperture magnitude                    [mag]
#   3 X_IMAGE                Object position along x                                    [pixel]
#   4 Y_IMAGE                Object position along y                                    [pixel]
#   5 X_WORLD                Barycenter position along world x axis                     [deg]
#   6 Y_WORLD                Barycenter position along world y axis                     [deg]
#   7 A_WORLD                Profile RMS along major axis (world units)                 [deg]
#   8 B_WORLD                Profile RMS along minor axis (world units)                 [deg]
#   9 THETA_WORLD            Position angle (CCW/world-x)                               [deg]
#  10 FWHM_WORLD             FWHM assuming a gaussian core                              [deg]
#  11 ELONGATION             A_IMAGE/B_IMAGE                                           
#  12 ELLIPTICITY            1 - B_IMAGE/A_IMAGE                                       
         1 -15.7260     11.6957    178.0912   7.2991321455e+01   3.4803453229e+01      4.51494     1.431229  87.23   0.01552283    3.648    0.726
         2 -14.8877      5.1148    125.3569   7.1633322342e+01   4.9204766683e+01     3.193704    0.9206433  88.54  0.009411126    4.282    0.766
         3 -16.4389    135.8638    122.4431   2.7613844706e+01   3.0560272762e+01       3.6976     1.114549 -50.94   0.01113156    3.609    0.723
         4 -18.2913    244.5286    123.5485   9.2995530183e+00   1.1614233040e+01     4.330838     2.482294 -38.40   0.02673488    1.337    0.252
         5 -17.2910    245.0603     91.4406   3.0458329598e+00   1.6083496977e+01     5.523581     2.060116 -56.37   0.02047482    4.693    0.787
         6 -13.0752    250.0194     33.8179   3.5126404770e+02   2.2668630073e+01    0.8187415    0.2161132 -29.60  0.003155382    4.298    0.767
         7 -16.4700     11.9186     10.4588   3.8752206397e+01   7.6899886213e+01     2.125526     1.564447  -3.15   0.01292281    1.369    0.269
         8 -13.7551    104.2943      6.0927   3.5736394159e+02   5.7635569874e+01    0.5638819    0.4933929 -14.06  0.003490745    1.362    0.266
         9 -11.6096    239.8814    206.6189   2.4322356678e+01   6.2202405154e-01    0.1988882    0.1533824  -6.57   0.00046048    1.113    0.102
        10 -13.6283    246.4849    249.1243   2.9538151534e+01  -5.0255026080e+00    0.4667532      0.28705  17.12  0.003737039    1.486    0.327
        11 -13.8327    236.5398    248.7896   3.0961588913e+01  -4.1656315340e+00    0.6808087    0.1975232  26.10  0.003595831    3.281    0.695
        12 -10.0649    245.3068    201.7539   2.2781118322e+01   7.0572007259e-01   0.08585525   0.07661285 -23.05 0.0001730177    1.501    0.334
        13 -12.8037    192.4397    194.6864   3.0100266568e+01   7.7069232540e+00    0.7885913    0.4192917 -61.09  0.002840528    5.613    0.822
        14 -12.4195    238.3427    198.9675   2.3342542706e+01   1.7775654892e+00    0.3042144    0.2352917  -3.33  0.001588406    1.143    0.125
        15 -10.7858    229.9972    198.2443   2.4468878740e+01   2.7605090369e+00    0.1509091    0.1177466  -7.58 0.0004936963    1.083    0.077
        16 -14.6468    134.0353    148.1907   3.3705760834e+01   2.5343353460e+01     1.599426    0.5008457 -55.60  0.002219196    4.343    0.770
        17 -11.2269    212.4805    214.2639   2.9770387980e+01   2.4549264067e+00    0.1848634    0.1572448  15.82 0.0007500086    1.355    0.262
        18 -14.5041    203.5915    167.3985   2.3392624501e+01   1.0599785148e+01     0.756303    0.5006428 -39.09  0.004315473    1.354    0.262
        19 -16.1494    219.2136    118.7309   1.1552136298e+01   1.6084598678e+01      1.58487     1.370762 -53.44  0.009923702    1.202    0.168
        20 -14.0009     44.9122    242.2281   6.8282980494e+01   1.7315315714e+01    0.6853858    0.2683266  54.10  0.003175115    2.509    0.601
        21 -12.4348    146.8441    186.1035   3.7760521484e+01   1.5499489671e+01    0.4470834    0.3347737  66.08   0.00187766    2.021    0.505
        22 -10.0828    250.2878    186.2693   1.9612921272e+01   2.2058986659e+00    0.1045489   0.06510613 -12.05 0.0006909557    1.503    0.335
        23 -11.3859    235.8262    183.4345   2.1172618836e+01   4.1560231917e+00    0.3398268    0.1634602 -49.04  0.001728439    2.841    0.648
        24 -11.7901    235.8708    216.7557   2.6469864149e+01  -2.7651485264e-01    0.1793618    0.1446239   1.00 0.0004917508    1.241    0.194
        25 -12.0958    191.3270    151.9409   2.2576121261e+01   1.4984852881e+01    0.7041878     0.292388 -56.13  0.002181203    5.361    0.813
        26 -14.7553    195.9465    171.8368   2.5510759110e+01   1.0937754444e+01    0.5788338    0.3834655 -44.90  0.001879194    1.511    0.338
        27 -11.1697    203.9132    151.6440   2.0384680983e+01   1.3127208456e+01     0.317799    0.1978258   9.00  0.001360378    2.416    0.586
        28 -12.0407     67.6277    144.2144   5.1838217811e+01   3.7388061456e+01    0.6969322    0.3373956  56.73  0.002475581    2.698    0.629
        29 -16.2170    223.6105    172.7001   2.1147400025e+01   7.1456653152e+00      3.12983     1.823309 -17.45   0.01783608    1.842    0.457
        30 -12.3640    165.9393    136.1551   2.4105503923e+01   2.2106381838e+01    0.3708271    0.1813767 -52.29 0.0009645938    2.232    0.552
        31 -10.6320    168.2832    131.3084   2.2592696712e+01   2.2613285028e+01    0.1365198    0.1054142 -10.71 0.0002101063    1.565    0.361
        32 -13.5455    160.9775    128.2668   2.3384956013e+01   2.4542672399e+01    0.4519143    0.4336817 -63.73  0.002158541    1.094    0.086
        33 -11.3339    120.6534    128.8732   3.2932192250e+01   3.2090907623e+01    0.2139383    0.1874155 -60.95  0.001112597    1.155    0.134
        34 -11.6300    197.9736    127.5600   1.6513646594e+01   1.8104508331e+01    0.2495595    0.1671893 -38.82 0.0004452565    1.288    0.224
        35 -11.6006    184.8592    125.6760   1.8303630069e+01   2.0685903090e+01    0.2802338    0.1444032 -30.57  0.001225795    2.137    0.532
        36 -13.6509    151.1028    120.4383   2.3673132502e+01   2.7984414813e+01    0.4300906    0.3846679   5.95  0.002266937    1.273    0.214
        37 -13.5940    146.8437    113.4116   2.2928184811e+01   3.0251729231e+01    0.5024252    0.3386481  46.01  0.001908464    1.564    0.360
        38 -14.0333    155.8665    113.9714   2.1138989707e+01   2.8331694895e+01    0.6848378    0.4470207 -46.76  0.002567566    1.440    0.306
        39 -12.9182    154.5055    108.5157   2.0102676423e+01   2.9672760456e+01    0.3457515    0.3036629 -66.92 0.0006330009    1.163    0.140
        40 -12.7540    172.8350    114.9639   1.8065268192e+01   2.4836647349e+01    0.5531758    0.4206743 -41.86  0.003029026    1.194    0.162
        41 -12.6331    168.8314    112.8158   1.8311331207e+01   2.6004801883e+01    0.3943242    0.3102854 -27.29  0.001063958    1.337    0.252
        42 -13.5670    169.0645    107.3993   1.6992056017e+01   2.6964552833e+01    0.4338518    0.3400438 -42.67  0.001336425    1.166    0.143
        43 -12.1603    195.1501    102.3448   1.1475984298e+01   2.2856262660e+01    0.4433218    0.2126561 -37.41  0.001551021    1.851    0.460
        44 -10.9555    198.1482     98.8571   1.0251301155e+01   2.2878804954e+01    0.2106916    0.1734361 -40.04 0.0007173271    1.072    0.067
        45 -12.7819    193.2832    111.2551   1.3750592929e+01   2.1696498411e+01     0.638906    0.2342377 -35.95 0.0003954018    2.622    0.619
        46 -11.7272    186.6433    111.2305   1.4813213765e+01   2.2913607522e+01    0.3181807    0.2097088 -33.52 0.0008424079    1.446    0.308
        47 -12.6235    191.1418    116.0000   1.5138206534e+01   2.1267843798e+01     0.391831    0.1757313  53.44  0.001709888    2.676    0.626
        48 -12.7918    186.5197    115.4542   1.5778403944e+01   2.2197392330e+01     0.375561    0.3433974  -6.45  0.001367504    1.207    0.171
        49 -11.7728    178.5791    115.0311   1.7046796171e+01   2.3739601512e+01    0.2210806    0.2015369  54.80 0.0003238157    1.224    0.183
        50 -13.1422     42.7224    107.9809   5.4326146767e+01   5.0501177746e+01    0.5321304    0.3785819  29.79 0.0008963856    1.435    0.303
        51 -13.8748     59.4859    111.9944   4.8580907316e+01   4.7112888203e+01    0.7343002    0.4845728 -37.45  0.001593529    1.771    0.435
        52 -14.7319     51.8721    108.4147   5.0751857602e+01   4.9170078567e+01     1.178428     1.026461 -12.45  0.003714203    1.317    0.240
        53 -14.1503    122.1453     95.7633   2.4247893218e+01   3.9094327821e+01    0.9015413    0.3411691 -52.60  0.002924659    3.014    0.668
        54 -12.5840    186.4469    100.3393   1.2357372047e+01   2.4831423031e+01    0.5006353    0.4049527  24.31   0.00204028    1.601    0.375
        55 -11.6195    208.9097     98.0376   8.5804349364e+00   2.1066270418e+01    0.3242965    0.1855215 -26.24 0.0009325971    1.978    0.494
        56 -11.1629    203.2912     98.8681   9.5259756327e+00   2.1938488965e+01    0.3818551    0.1598082 -30.13  0.001524186    2.796    0.642
        57 -12.4448    113.2470     95.4615   2.6536915678e+01   4.1073280367e+01     0.289038    0.2126807 -47.56 0.0006488625    1.342    0.255
        58 -11.3216    176.3153     88.3975   1.1128387648e+01   2.8883545934e+01     0.217585    0.1869895 -39.47 0.0003972694    1.124    0.110
        59 -11.6467    196.0148     87.6587   7.9991789885e+00   2.5092884827e+01     0.225895    0.1675535 -34.44 0.0004439609    1.274    0.215
        60 -14.3151    136.4128     81.9801   1.6975885621e+01   3.8693556460e+01    0.8914866    0.3966044  48.40  0.003436302    2.355    0.575
        61 -11.6775    113.9280     83.9302   2.3036486732e+01   4.3365803598e+01     0.242175    0.2222332 -83.18  0.001286366    1.084    0.077
        62 -11.5732    183.5607     78.4844   7.5775386323e+00   2.9039980605e+01    0.2572281    0.2208607 -15.00 0.0009771694    1.422    0.297
        63 -11.9753    207.1571     77.8088   4.3071886455e+00   2.4501878196e+01    0.2214216    0.1714735 -41.26  0.000229868    1.122    0.109
        64 -13.4885    150.6225     69.3850   1.0539651529e+01   3.7716300136e+01    0.4619732    0.3278754  76.47   0.00231672    1.531    0.347
        65 -12.9551    143.2207     59.6428   9.0724208324e+00   4.1050852329e+01    0.5003127    0.2764318 -13.72  0.001644343    4.256    0.765
        66 -12.6844    247.7059     56.8928   3.5597344024e+02   2.0259528450e+01    0.3087857    0.2300598   1.40  0.001364097    2.307    0.567
        67 -10.3924    177.2755     58.6392   3.4400371161e+00   3.3450239354e+01    0.1643874    0.1216733  60.06 0.0004699859    1.479    0.324
        68 -13.8076    244.3662     48.6914   3.5457948804e+02   2.1835614051e+01    0.6209881    0.3415791  47.23  0.003101176    2.917    0.657
        69 -13.2334    230.2303     43.3632   3.5450781299e+02   2.4950968070e+01    0.7733467    0.4491455 -10.71  0.003446966    3.598    0.722
        70 -13.7514     13.4500    107.0843   6.6444083965e+01   5.3651562212e+01    0.9081401    0.8364228  -1.54  0.004725879    1.200    0.167
        71 -12.2694    244.2262     36.1447   3.5207025191e+02   2.3371637367e+01    0.2649192    0.1767162  59.27 0.0008634953    1.999    0.500
        72 -10.9534    197.1176     43.3793   3.5733217850e+02   3.1356879402e+01    0.1982074    0.1615215 -33.11 0.0005986541    1.316    0.240
        73 -15.3268    158.2365    158.2586   3.0230362049e+01   1.9132216261e+01     5.096534     2.623621  18.78   0.01873773    3.432    0.709
        74 -12.2584    250.1909    202.1823   2.2163096787e+01   1.7058390447e-01     0.700069    0.1089918 -35.04  0.002368425    5.886    0.830
        75 -13.9425    238.6452     38.5418   3.5291262978e+02   2.4048219535e+01     0.460611    0.3610443 -28.79 0.0009311344    1.433    0.302
        76 -14.5045    186.6526    166.5979   2.6214455408e+01   1.3155735420e+01    0.9523069    0.6658251   9.20  0.003540314    1.656    0.396
