#   1 NUMBER                 Running object number                                     
#   2 MAG_AUTO               Kron-like elliptical aperture magnitude                    [mag]
#   3 X_IMAGE                Object position along x                                    [pixel]
#   4 Y_IMAGE                Object position along y                                    [pixel]
#   5 X_WORLD                Barycenter position along world x axis                     [deg]
#   6 Y_WORLD                Barycenter position along world y axis                     [deg]
#   7 A_WORLD                Profile RMS along major axis (world units)                 [deg]
#   8 B_WORLD                Profile RMS along minor axis (world units)                 [deg]
#   9 THETA_WORLD            Position angle (CCW/world-x)                               [deg]
#  10 FWHM_WORLD             FWHM assuming a gaussian core                              [deg]
#  11 ELONGATION             A_IMAGE/B_IMAGE                                           
#  12 ELLIPTICITY            1 - B_IMAGE/A_IMAGE                                       
         1  -8.6221    229.2883     22.2472   6.0890347053e+01   2.5460215980e+01    0.2034402    0.1525834 -41.15  0.001259574    1.429    0.300
         2 -10.5990    213.1396    240.0209   1.0984912360e+02  -7.1482230582e+00     1.630202    0.6272694 -26.45  0.005690129    4.715    0.788
         3 -10.2513    226.8143    229.4014   1.0542967378e+02  -7.7942299419e+00     1.247819    0.6377901   0.30  0.004139359    5.126    0.805
         4  -9.8238    218.1387    247.1936   1.1010104408e+02  -8.9532890653e+00    0.7792979     0.327456 -25.92   0.00325752    3.457    0.711
         5 -12.0805    230.9345    195.0109   9.8221189325e+01  -3.1220479246e+00     2.092635    0.6962911 -30.69  0.006769342    4.145    0.759
         6 -11.3386    238.7134    195.5950   9.6900571527e+01  -4.5435554762e+00     2.253903    0.8521951 -23.95  0.006026988    6.551    0.847
         7  -9.8519    235.4601    228.3054   1.0362984598e+02  -8.9932410328e+00    0.5192884    0.2758428 -19.15  0.001799058    2.282    0.562
         8 -10.4425    240.2246    220.5992   1.0136318223e+02  -8.6206617218e+00    0.9004234     0.359042 -26.51  0.003609228    3.215    0.689
         9 -11.4554    245.8810    195.2801   9.5547289209e+01  -5.6804054375e+00     1.363793     0.587787 -31.07  0.005917862    2.365    0.577
        10 -12.6830    246.8126    178.6569   9.2081727730e+01  -3.1585567652e+00     1.832127     1.582489 -25.29   0.01131522    1.085    0.079
        11  -8.1089    197.0381    250.5112   1.1463173176e+02  -6.0588924575e+00    0.2343278    0.1414905  33.21   0.00130327    1.397    0.284
        12  -9.1524    197.3723    245.8805   1.1383295119e+02  -5.4363551296e+00    0.4153832    0.2477497  -1.90  0.001563595    2.760    0.638
        13  -8.3991    201.0118    240.5134   1.1225777373e+02  -5.2379497920e+00    0.2982025    0.1745895  -1.34  0.001306348    2.910    0.656
        14  -8.1905    184.4948    250.6874   1.1707157027e+02  -4.0222647672e+00    0.2291263   0.09848052  39.42  0.001059131    1.942    0.485
        15  -9.6665    167.0335    249.9940   1.2036334668e+02  -9.8440653608e-01    0.3555098    0.1788749  30.34  0.001666194    2.067    0.516
        16  -8.4832     90.6454    250.0996   1.3515928431e+02   1.1534260732e+01    0.2234243    0.1347904  53.02 0.0008504659    1.367    0.268
        17 -10.2523     65.7730    248.9532   1.3963086176e+02   1.5354096051e+01    0.6343817    0.2120122  39.71  0.002873842    2.719    0.632
        18  -9.6655     11.6326    231.6172   1.4782260793e+02   2.5237544083e+01      0.58271    0.1915288  43.35  0.003096751    2.564    0.610
        19  -9.0803     26.2252    249.2903   1.4651333431e+02   2.0281478574e+01     0.269791    0.1522442  48.99   0.00124294    1.527    0.345
        20  -9.9745     27.1288    231.0379   1.4509492800e+02   2.3688188088e+01    0.5302693    0.2064187  71.80  0.002344848    3.201    0.688
        21  -9.2046     10.6861    226.3471   1.4764633204e+02   2.6368565805e+01    0.4813324    0.1298465  57.24  0.002041255    3.700    0.730
        22 -10.2332     15.2444    240.7674   1.4779061750e+02   2.3097869869e+01    0.6472998    0.2978201  87.31  0.003747371    1.983    0.496
        23  -9.4019     21.4882    239.3334   1.4665183735e+02   2.2697095386e+01    0.3413787    0.2677723 -32.47  0.002289253    2.499    0.600
        24  -9.8124     33.5550    248.2065   1.4521349533e+02   1.9631561453e+01    0.5389918      0.17786  49.18  0.002752746    2.378    0.580
        25 -10.9662     28.9140    240.3881   1.4545630382e+02   2.1659609214e+01    0.9377644    0.4401912 -72.20  0.005509127    1.950    0.487
        26  -9.4851     19.4605    248.8447   1.4759629827e+02   2.1122547879e+01    0.3105985    0.1741351  67.58  0.001913388    1.404    0.288
        27  -9.2689     22.1232    244.7411   1.4689915135e+02   2.1596964702e+01    0.3584002    0.1612952  40.91  0.002110985    2.111    0.526
        28  -8.8659      8.9786    240.4954   1.4880524138e+02   2.3802950324e+01    0.2173104    0.1454102  61.68  0.000925951    1.213    0.176
        29 -10.7130      3.4980    242.8950   1.4982498087e+02   2.3904449459e+01    0.5379343    0.2337914  78.00  0.003131404    2.054    0.513
        30  -9.9674      9.5231    247.3375   1.4911032023e+02   2.2464798737e+01    0.5656616    0.1765022 -73.50  0.002957094    2.753    0.637
        31  -9.9367      4.0382    248.9218   1.5006332763e+02   2.2733947799e+01    0.3356485    0.1539168  48.29  0.001965846    1.817    0.450
        32  -9.0790     13.5036    248.0142   1.4851125092e+02   2.1921051730e+01    0.2430732    0.1436782  69.30 0.0007459701    1.289    0.224
        33  -8.2569    191.8553    248.3427   1.1528711488e+02  -4.8914790653e+00    0.2349198    0.1529018  -6.09  0.001217725    2.147    0.534
        34  -9.3469    151.4687    249.5070   1.2334220088e+02   1.7344140327e+00    0.2733354    0.1078946  40.82   0.00119488    2.110    0.526
        35  -9.6930    128.1513    249.5459   1.2790961177e+02   5.6507001956e+00    0.3638254    0.1091193  39.76  0.001386902    2.905    0.656
        36  -9.1581     51.6943    249.9777   1.4222283745e+02   1.7047404871e+01    0.3748604    0.1188495  44.28  0.001786919    2.522    0.603
        37  -8.3012    187.1574    246.1037   1.1584641747e+02  -3.7731119397e+00    0.2035402    0.1772375 -36.01 0.0008954167    1.354    0.261
        38  -7.9645    116.3045    247.6624   1.2998156646e+02   7.9345409615e+00    0.1310964   0.08554208  68.19 0.0007039654    1.672    0.402
        39  -9.7813    157.3096    245.2979   1.2159364990e+02   1.4358736478e+00    0.2909399    0.1798705  20.26  0.001417434    2.152    0.535
        40  -9.0717    106.1729    246.2288   1.3177583002e+02   9.8295125593e+00    0.1802643    0.1264891  65.77 0.0007690344    1.353    0.261
        41  -8.9267    163.8099    244.4762   1.2018557447e+02   4.5518979194e-01     0.266361    0.1895858   4.74  0.001417963    1.965    0.491
        42  -9.9215    148.1220    244.9429   1.2336450979e+02   3.0714681102e+00     0.249928     0.162893  42.94  0.001388001    1.287    0.223
        43  -9.5027    134.2936    245.5780   1.2619002671e+02   5.3155091004e+00     0.265995    0.1029545  44.81  0.001145607    2.157    0.536
        44  -8.0091     37.9422    245.5246   1.4427138525e+02   1.9612368668e+01    0.1587504   0.09217928  47.95 0.0006164167    1.511    0.338
        45  -8.4562    110.7670    244.3829   1.3066516634e+02   9.4301091563e+00    0.1735658    0.1080281  36.95 0.0006291483    1.564    0.361
        46  -9.6504     72.1941    239.5715   1.3756427455e+02   1.6243652582e+01     0.349919    0.2126279  45.79  0.001541063    1.458    0.314
        47  -8.6510    192.5448    242.5752   1.1423726632e+02  -4.1380790791e+00    0.3289466    0.1704896  25.51  0.001520122    2.164    0.538
        48  -8.7667    116.2172    243.4187   1.2947891501e+02   8.7180204091e+00    0.1926683   0.09891494  50.57 0.0009495689    1.700    0.412
        49  -9.7873    177.1876    243.7813   1.1743685507e+02  -1.7255027330e+00    0.4021514    0.2515348  15.61  0.001987987    2.115    0.527
        50  -8.9276     45.0131    244.7897   1.4298400677e+02   1.8880686685e+01    0.3976261    0.1462805  44.35  0.002031362    2.260    0.558
        51  -7.9111    205.8733    240.9911   1.1139991704e+02  -6.1099510269e+00    0.2103704    0.1337963  -5.49  0.001072962    2.082    0.520
        52  -8.6112     83.7356    244.5075   1.3588115996e+02   1.3614850218e+01    0.2392229    0.1931953  69.82 0.0008903818    1.045    0.043
        53  -9.6658    126.2994    240.4464   1.2709901970e+02   7.5823194926e+00    0.2494713    0.1541275 -40.99  0.001288012    2.167    0.539
        54  -7.2827     99.3121    241.6584   1.3258017790e+02   1.1767479160e+01    0.1337223   0.08335992  68.96 0.0007046253    1.699    0.412
        55  -8.4258     54.5577    239.9822   1.4087733640e+02   1.8580775274e+01    0.2395447    0.1434105  74.33 0.0009671199    1.546    0.353
        56  -8.7088     38.0319    240.9296   1.4391209605e+02   2.0481058514e+01    0.2435827    0.1169352  55.65 0.0008886298    1.739    0.425
        57  -8.2139    170.2807    239.8647   1.1820061799e+02   9.6546490319e-02    0.2486123    0.1560677  18.13 0.0009090421    2.062    0.515
        58  -7.8337    155.6473    240.6896   1.2125171400e+02   2.4992294434e+00    0.1316551   0.09741188  12.35 0.0005425257    1.723    0.420
        59  -8.8339     44.5487    236.7486   1.4242168471e+02   2.0494749641e+01    0.3396688    0.1508454  56.93  0.001794479    1.989    0.497
        60  -8.5726    195.2621    236.8590   1.1277296767e+02  -3.7160060039e+00     0.262227    0.1543686  17.53  0.001244607    2.132    0.531
        61  -8.6554    183.6326    236.6566   1.1503409654e+02  -1.6932207379e+00    0.2047781     0.145518   9.28  0.000702503    1.681    0.405
        62  -8.7766     80.9520    236.3559   1.3556032958e+02   1.5597198180e+01    0.2731036    0.1968379  46.90  0.001413958    1.273    0.214
        63  -8.7826     65.3772    236.1849   1.3852157261e+02   1.7864101250e+01    0.2546555    0.1038328 -71.15 0.0009236548    2.584    0.613
        64  -8.9392    206.4528    235.5059   1.1036810355e+02  -5.3864026268e+00    0.3053732    0.2195253   9.91  0.001753012    1.447    0.309
        65  -8.5223    207.5668    230.6431   1.0931916261e+02  -4.8303552584e+00    0.2793779    0.1951042 -10.65 0.0008930639    1.640    0.390
        66  -8.7988     94.6341    236.1145   1.3285904495e+02   1.3561529634e+01    0.2470931    0.1708714  42.46  0.001023953    1.353    0.261
        67  -9.7020      5.9981    235.5214   1.4900308692e+02   2.5051382999e+01      0.45789    0.1425096  51.71  0.002401722    2.564    0.610
        68  -8.1323    102.9715    234.4790   1.3100821683e+02   1.2557111567e+01    0.1911807   0.08708379  57.93 0.0006633566    2.440    0.590
        69  -8.5528     20.4358    233.5188   1.4644080642e+02   2.3938864708e+01    0.2017587   0.09391022  41.12 0.0008423239    2.060    0.514
        70  -7.8352    176.6807    232.6284   1.1577091795e+02   1.8041421906e-01     0.137363   0.09840431   4.83 0.0007033662    1.798    0.444
        71  -9.0075     58.9200    230.5228   1.3920425501e+02   1.9871714091e+01    0.2697696    0.2124233  66.94  0.001812437    1.052    0.049
        72  -7.9862    194.5063    230.9683   1.1193453490e+02  -2.6576545452e+00     0.181563    0.1084858 -14.47 0.0008099007    2.547    0.607
        73  -8.6239     47.4694    229.6427   1.4128211350e+02   2.1540179589e+01    0.3315549    0.1569451  60.17  0.001731092    1.978    0.494
        74  -8.0394    187.9869    230.0139   1.1306971973e+02  -1.3706884909e+00    0.2225836    0.1518445   8.14  0.001130773    1.851    0.460
        75  -8.3737      1.4172    227.2190   1.4927743631e+02   2.7102731721e+01    0.1897276   0.08478236 -84.99 0.0004959666    1.851    0.460
        76  -9.1388      5.6432    229.7825   1.4872080361e+02   2.6195251056e+01    0.2645088     0.133218  50.45  0.001138688    1.719    0.418
        77  -8.3153      1.4671    218.9772   1.4877106661e+02   2.8724457564e+01    0.1771095   0.09878185  82.93 0.0006799682    1.438    0.304
        78  -8.4911      5.4892    225.9764   1.4851419148e+02   2.6955469756e+01    0.2206021    0.1213494  71.01 0.0007003693    1.490    0.329
        79  -9.1512      3.7863    222.5614   1.4859389513e+02   2.7793762863e+01    0.2593185    0.1853137 -87.97  0.001931557    1.137    0.121
        80  -8.4101     81.2581    228.5680   1.3465150851e+02   1.7098544847e+01     0.243892    0.1005047  45.36  0.001119593    2.095    0.523
        81  -8.5862    211.8674    226.2496   1.0771726914e+02  -4.8736997130e+00    0.2865241    0.1620583 -24.09  0.001387341    2.115    0.527
        82  -8.7394    223.3510    225.4793   1.0538292931e+02  -6.6562817477e+00    0.2767223    0.1921842  -1.48  0.001387015    1.557    0.358
        83  -9.5274    226.8345    218.3387   1.0342998474e+02  -6.1430717108e+00     0.577664    0.2618183 -23.10  0.002273969    3.239    0.691
        84  -8.2199    198.9225    225.8432   1.1017948853e+02  -2.5975533943e+00    0.2102966    0.1639309   9.04   0.00121155    1.308    0.235
        85  -7.6125    191.2995    225.3475   1.1161172602e+02  -1.1832975991e+00    0.1369623   0.09808575   4.11 0.0003988682    1.684    0.406
        86  -9.2074     33.3191    216.5681   1.4281425784e+02   2.5921490917e+01    0.3956939    0.1708039  77.21  0.001681257    2.969    0.663
        87 -10.0694     28.0848    208.3666   1.4311570139e+02   2.8225229438e+01    0.3532283    0.2060323  60.05  0.002124386    1.551    0.355
        88 -10.4651     27.7180    218.9311   1.4406034126e+02   2.6064718146e+01    0.9677512    0.3219114  66.78  0.003299368    5.241    0.809
        89 -10.9534     23.1956    210.0796   1.4419576143e+02   2.8390349070e+01    0.6943564    0.2926404  58.41  0.003535768    2.304    0.566
        90  -9.9787     25.9182    223.8493   1.4477407323e+02   2.5261735254e+01     0.461634    0.2357338  68.14  0.002029071    1.801    0.445
        91  -9.7778     19.7526    221.6454   1.4572368984e+02   2.6373976138e+01    0.4452745    0.2212369 -87.40   0.00255983    1.789    0.441
        92  -8.0826     16.4776    223.4658   1.4643883443e+02   2.6350480647e+01    0.1557405   0.08279962  52.36  0.000959076    1.642    0.391
        93  -8.6078    205.9790    223.4998   1.0837697350e+02  -3.4400388591e+00    0.2535941    0.1739855 -15.13  0.001348101    1.687    0.407
        94  -9.0618     72.5141    222.6968   1.3574759763e+02   1.9577524646e+01    0.3003649    0.2658072  53.68  0.001911451    1.223    0.182
        95  -7.8800     84.6440    222.6986   1.3329528352e+02   1.7782664934e+01    0.1171369    0.1036205  -9.70 0.0007038043    1.709    0.415
        96  -8.0064    100.3154    221.6769   1.2993978040e+02   1.5529367555e+01    0.1392818    0.0907225  70.07  0.000436768    1.663    0.399
        97  -8.3204     44.3070    220.6484   1.4107749842e+02   2.3769351047e+01    0.2760828    0.1067652  51.15  0.001321198    2.318    0.569
        98  -7.8790      9.3522    220.7646   1.4751174885e+02   2.7613071265e+01    0.1502643    0.1069306  70.85 0.0007419802    1.121    0.108
        99  -8.1234    202.0166    219.5518   1.0845423502e+02  -2.1120857360e+00    0.2534111    0.1743954 -19.33  0.001157032    1.664    0.399
       100 -12.2149    248.5592    154.7879   8.6874061556e+01   5.4550000430e-01     2.058641     1.156557 -40.61   0.01000265    1.630    0.387
       101  -8.4976    211.0553    216.9004   1.0619471623e+02  -3.2548449934e+00     0.325478     0.167819 -26.36  0.001435642    2.405    0.584
       102  -8.7693     12.8919    216.1884   1.4656743855e+02   2.8187216639e+01    0.2752787    0.1413728  50.72  0.001685955    1.746    0.427
       103  -7.8463      7.2081    216.4323   1.4760134604e+02   2.8693929503e+01    0.1439129   0.08147603  55.52 0.0006267843    1.552    0.356
       104  -7.6224     58.0000    213.8962   1.3772302801e+02   2.3430166142e+01    0.3348107   0.06460086 -66.04  0.001056973    4.986    0.799
       105  -8.5730     19.7055    215.4276   1.4526903507e+02   2.7647417270e+01    0.2254925   0.09896611  50.79  0.001241719    2.026    0.506
       106  -7.7630     16.4914    212.4924   1.4564021972e+02   2.8583257149e+01    0.1344091    0.1112879  31.50  0.000704981    1.646    0.392
       107  -8.2660     13.4753    211.4430   1.4611839878e+02   2.9102255423e+01     0.202553    0.1008761  57.88 0.0008529545    1.804    0.446
       108  -8.5407    221.6015    213.5634   1.0354055866e+02  -4.5260783136e+00    0.3336945    0.1832299  13.31  0.001375326    2.819    0.645
       109  -8.5031      1.8649    212.4045   1.4828385973e+02   3.0009914513e+01     0.215296    0.1140789  81.28  0.001328491    1.587    0.370
       110  -9.4729    216.2372    207.7913   1.0349157281e+02  -2.6690034469e+00    0.3239591    0.2118925 -19.17  0.001072273    1.722    0.419
       111  -7.9964     35.5862    207.7827   1.4159810563e+02   2.7509396743e+01    0.1726435   0.09571376 -87.81 0.0009454443    1.690    0.408
       112  -7.5812    205.6827    207.6280   1.0553580887e+02  -7.6762990949e-01    0.1455593    0.1006816   1.47 0.0007033619    1.793    0.442
       113  -8.9503    216.7982    221.3262   1.0588572738e+02  -4.9368417019e+00    0.3552828     0.170537 -31.66  0.001620851    2.300    0.565
       114  -7.9518      6.5669    205.3359   1.4694958237e+02   3.1027839576e+01    0.2623658     0.125624  72.04  0.001457487    1.996    0.499
       115  -8.8672     12.9850    203.9775   1.4564805287e+02   3.0703908278e+01    0.1974678    0.1047631  70.41  0.001141372    1.751    0.429
       116  -8.8746    223.2865    200.8992   1.0081478325e+02  -2.7636480926e+00    0.3992219    0.1487685 -30.60  0.001407005    3.466    0.712
       117  -7.7459     61.3354    202.6631   1.3579483054e+02   2.5403881644e+01    0.1393849   0.08377781  70.95  0.000705182    1.747    0.428
       118 -10.4944     26.1293    200.5530   1.4281550868e+02   3.0099862656e+01    0.4066721    0.1692922 -77.17  0.002004772    2.166    0.538
       119  -7.7307    209.7519    199.0131   1.0308208144e+02  -2.4828781346e-02    0.1773382    0.1153219 -38.03 0.0005834904    1.576    0.366
       120  -8.5363      3.8946    197.0819   1.4685055353e+02   3.2993490664e+01    0.2572015    0.1149883  69.61  0.001346605    2.283    0.562
       121  -8.2407    215.7774    196.6741   1.0144167821e+02  -7.1681452514e-01    0.2323501    0.1934504 -33.25 0.0008496526    1.227    0.185
       122 -11.0442    239.1115    210.5977   9.9709119165e+01  -6.9559827631e+00     1.431156    0.7235152 -16.73  0.005977466    2.917    0.657
       123 -10.1181     19.0178    193.9735   1.4365280059e+02   3.2244479608e+01    0.2079832    0.1679443 -67.86  0.001139212    1.300    0.231
       124 -10.0893    224.3973    190.7013   9.8600446273e+01  -1.2485463156e+00    0.4448503    0.2221782 -25.22  0.001818151    2.531    0.605
       125  -8.4104    215.4120    189.7330   1.0013959302e+02   5.5405440556e-01    0.3411378    0.1306861 -37.62  0.001213981    2.674    0.626
       126  -9.4141     27.5751    190.7277   1.4161127305e+02   3.2080987503e+01    0.2834181    0.1273826  64.34  0.001323462    2.561    0.610
       127  -9.4172     11.4132    190.6267   1.4488474399e+02   3.3690058992e+01     0.185486    0.1433903  85.10  0.001104449    1.034    0.033
       128  -8.1187    220.3830    187.2685   9.8681256604e+01   6.9898570965e-02    0.2221377    0.1550663  -2.61  0.001085648    1.752    0.429
       129 -10.0511     16.0483    185.7362   1.4352451890e+02   3.4319352887e+01    0.2617728    0.1852053   8.77  0.001609564    2.311    0.567
       130  -9.0096     27.8082    185.0038   1.4099794810e+02   3.3319554953e+01    0.2100978    0.1124557  78.95  0.001074646    2.009    0.502
       131  -9.4809    223.9921    183.4339   9.7215810528e+01   7.5504128853e-02    0.2887818    0.2036727 -35.16   0.00151567    1.380    0.276
       132 -12.8420    243.9077    239.2567   1.0402289281e+02  -1.1766677359e+01     2.363115     1.410802 -22.09   0.01373587    1.677    0.404
       133 -11.1022    248.4577    215.3903   9.8918332345e+01  -9.1307820190e+00     1.143439    0.3658198 -32.42  0.004452705    3.314    0.698
       134  -9.7252      9.4286    181.8328   1.4453828459e+02   3.5771146171e+01    0.3116748    0.1589946  51.43  0.001799722    1.951    0.487
       135  -9.4809     22.0503    178.7238   1.4159694644e+02   3.5291860842e+01    0.1656141    0.1405576  83.25  0.001157566    1.098    0.089
       136  -8.8861    202.6914    250.0694   1.1348344098e+02  -6.9098452010e+00    0.3236347    0.1963612  27.98  0.001704842    1.468    0.319
       137  -9.9385    100.9974    175.9915   1.2295175813e+02   2.5383595798e+01     0.201084    0.1866589  81.53            0    1.002    0.002
       138  -9.5722     10.4728    176.5472   1.4385100241e+02   3.6835621633e+01    0.2708294   0.09180009  35.84  0.001311709    2.993    0.666
       139  -8.1200    223.2999    172.3289   9.5060008767e+01   2.1629230286e+00    0.1447178    0.1058572  -0.91 0.0007030527    1.642    0.391
       140  -9.2327     17.2067    179.4473   1.4270050401e+02   3.5591789437e+01     0.189156    0.1210836  23.36  0.001134305    2.116    0.527
       141  -7.5530    218.2921    182.6678   9.8152790870e+01   1.2647026040e+00    0.1324183    0.1135827 -78.40 0.0007022292    1.632    0.387
       142  -8.6739    205.7009    245.6369   1.1219649686e+02  -6.7596932271e+00    0.3192769    0.1870641  13.67  0.001541628    2.170    0.539
       143  -7.8208    217.5074    166.9834   9.5039463456e+01   4.2455004412e+00    0.2060693    0.1212516 -16.76 0.0008101356    2.514    0.602
       144  -9.7752    233.9259    162.6874   9.1073216576e+01   1.8708778356e+00    0.2450287    0.1796194 -26.23 0.0006011212    1.333    0.250
       145  -7.7593    213.3017    162.3359   9.4859239358e+01   5.9379809118e+00    0.1491766    0.1114106  -0.55 0.0004591484    1.661    0.398
       146  -8.1818    226.9331    156.0564   9.0930232628e+01   4.3947512140e+00    0.2282458    0.1691619  -1.33  0.001013631    1.678    0.404
       147  -8.2351    111.2037    156.1697   1.1673814168e+02   2.8161121470e+01    0.2032989    0.1953121 -31.83 0.0002939886    1.129    0.115
       148  -8.9069    233.0400    152.5411   8.9072174685e+01   3.8405521474e+00    0.2298283    0.1765716 -34.41  0.001228545    1.217    0.178
       149 -10.5294    224.8792    243.9929   1.0831105597e+02  -9.5564429612e+00     1.079659    0.4038705 -29.39  0.004472977    3.439    0.709
       150  -8.9305    234.8107    144.7417   8.7078647491e+01   4.8904087691e+00    0.3218394    0.2380929  -2.33  0.001088411    1.735    0.424
       151  -8.8741    223.1366    144.3683   8.9076793595e+01   7.2898115715e+00    0.2485219    0.2115194 -54.04 0.0002242327    1.235    0.190
       152  -8.6872    238.6072    139.7099   8.5338897261e+01   5.0435990612e+00     0.193618    0.1225656 -45.84 0.0006517959    1.518    0.341
       153  -8.3147    229.8844    139.4428   8.6782413378e+01   6.8226446275e+00    0.2957582    0.1785166 -25.26  0.001216729    1.930    0.482
       154  -7.6386     16.3266    140.3365   1.3858578395e+02   4.4453225839e+01    0.1258195    0.0758144 -45.32  0.000705165    1.723    0.420
       155  -8.7636    248.7643    134.2320   8.2498842227e+01   4.0443666286e+00    0.3333405    0.1709967 -36.53  0.001051415    1.795    0.443
       156  -9.2317    247.7954    128.1788   8.1357947886e+01   5.2756690620e+00    0.3806463    0.2673988 -25.28  0.001482981    1.514    0.339
       157  -8.9502    242.2966    132.5333   8.3173955257e+01   5.5875284612e+00    0.3805377    0.2299302 -24.56  0.001473943    1.940    0.485
       158  -7.9088    225.9289    132.0444   8.5836807992e+01   8.9783299041e+00    0.2271539    0.1742297   0.69  0.001036539    1.707    0.414
       159  -8.6179    232.7650    129.8236   8.4163817511e+01   7.9734407928e+00    0.2966869    0.1912291 -27.81  0.001242212    1.671    0.402
       160  -8.1692    248.9419    122.8489   8.0038178046e+01   5.9715017666e+00    0.2126705    0.1808085  -7.50  0.001219697    1.363    0.266
       161  -9.4278    238.9135    120.7593   8.1153705502e+01   8.3298875922e+00    0.4647958    0.2703242 -18.59   0.00187686    2.684    0.627
       162  -8.0680    227.1899    122.3605   8.3445149073e+01   1.0473655119e+01    0.1985886    0.1755154 -27.34 0.0007215646    1.146    0.127
       163  -8.5063    247.0606    116.7741   7.9018641175e+01   7.3842316862e+00     0.246607    0.1941138  29.91  0.001352392    1.564    0.361
       164  -7.8879    231.3397    111.9833   8.0421885186e+01   1.1447294133e+01    0.2308997    0.1188592 -18.77 0.0003552928    4.381    0.772
       165  -8.2958     13.3680    114.7095   1.3577348013e+02   5.0415923387e+01    0.1167301   0.08340123  71.10 0.0001842637    1.712    0.416
       166  -9.6267      6.5756     86.7329   1.3305832140e+02   5.6854514408e+01    0.2410738   0.08088931 -58.63  0.001151789    2.149    0.535
       167  -8.2886    237.1875     70.1920   7.0264590801e+01   1.7126531278e+01    0.1851364    0.1766805 -70.92 0.0004186772    1.141    0.123
       168  -8.5504      4.5208     66.5231   1.2959672099e+02   6.1026812663e+01     0.113637   0.08788484 -44.42 0.0001734616    1.027    0.027
