#   1 NUMBER                 Running object number                                     
#   2 MAG_AUTO               Kron-like elliptical aperture magnitude                    [mag]
#   3 X_IMAGE                Object position along x                                    [pixel]
#   4 Y_IMAGE                Object position along y                                    [pixel]
#   5 X_WORLD                Barycenter position along world x axis                     [deg]
#   6 Y_WORLD                Barycenter position along world y axis                     [deg]
#   7 A_WORLD                Profile RMS along major axis (world units)                 [deg]
#   8 B_WORLD                Profile RMS along minor axis (world units)                 [deg]
#   9 THETA_WORLD            Position angle (CCW/world-x)                               [deg]
#  10 FWHM_WORLD             FWHM assuming a gaussian core                              [deg]
#  11 ELONGATION             A_IMAGE/B_IMAGE                                           
#  12 ELLIPTICITY            1 - B_IMAGE/A_IMAGE                                       
         1 -11.9728    222.2282     16.9501   3.9598709438e+01   2.7807283014e+01    0.7557555    0.6681932 -69.68   0.00310234    1.039    0.038
         2 -11.9215    197.5202     39.2868   4.8198202594e+01   3.1008996079e+01     1.152052    0.8688791   7.25  0.005547102    1.816    0.449
         3 -12.1783    206.2768     33.4908   4.5498711867e+01   2.9618324763e+01     1.086339     1.017744   0.38  0.006605071    1.270    0.212
         4 -10.7532    214.1958     25.6176   4.2550874232e+01   2.8686586738e+01    0.5007204    0.3661974  33.64   0.00122609    1.819    0.450
         5  -8.7569    138.6474     44.3599   6.0218905015e+01   4.5009348127e+01    0.2884962    0.2254101 -71.74   0.00141987    1.632    0.387
         6 -10.8122    107.3960    244.5647   1.1155153659e+02   1.0239184957e+01    0.6828004    0.3851828  17.21  0.002861531    4.058    0.754
         7 -11.8192     84.2919    249.7092   1.1630257517e+02   1.2636409842e+01    0.9680666      0.62415  21.17  0.004733201    2.427    0.588
         8 -10.9334     96.8261    246.7906   1.1374521078e+02   1.1388516451e+01    0.6995428    0.2378343  34.26  0.002931014    3.177    0.685
         9 -12.3334     72.5986    248.1189   1.1827176397e+02   1.4475753714e+01     1.462797    0.6216719  41.26  0.007971971    1.930    0.482
        10 -10.8516     62.1668    249.7609   1.2024183340e+02   1.5531189665e+01    0.5823842    0.3233804  46.18  0.001763961    1.444    0.307
        11 -10.7636     40.0645    234.2442   1.2306519656e+02   2.1000058966e+01    0.4139229    0.2220542  63.07  0.002576919    1.540    0.351
        12 -12.1235     87.6606    227.4799   1.1358091861e+02   1.6160674493e+01     1.109446    0.4648628  56.90 0.0007509359    2.552    0.608
        13 -12.1337     31.2457    248.0647   1.2540825583e+02   1.9477446005e+01    0.8577952    0.7303393  65.01  0.007100986    1.299    0.230
        14 -13.6758     44.1738    196.6607   1.1940069508e+02   2.8083596322e+01      3.85727     1.392802  65.67   0.01378088    4.315    0.768
        15  -9.1768    114.5360    235.5022   1.0919833667e+02   1.0732180285e+01    0.1934585     0.116197 -77.30 0.0009446482    2.250    0.556
        16 -14.1700      2.9490    154.0496   1.2479920645e+02   4.1475201252e+01     11.04504    0.8899029 -75.67   0.02549363    9.508    0.895
        17  -7.5337     56.3066    235.2963   1.2021448551e+02   1.8867949480e+01    0.0936693   0.09013991 -37.32 0.0003628838    1.587    0.370
        18  -9.1830     54.0576    231.4159   1.2033159802e+02   1.9872963081e+01    0.2648671    0.1424984  76.95  0.001187476    1.871    0.466
        19 -11.4920    117.2024    230.2612   1.0806165074e+02   1.1248400347e+01    0.6454819     0.262331  49.51   0.00290468    2.279    0.561
        20  -9.8664    122.4544    225.0677   1.0637112511e+02   1.1358843240e+01     0.267312     0.196673  39.49  0.001397549    1.211    0.174
        21 -13.9392      7.3412    240.0735   1.2893322416e+02   2.3369779337e+01      2.01199     1.154959 -78.82   0.01450405    1.613    0.380
        22 -11.1571    126.0672    230.5705   1.0634264734e+02   9.8096654513e+00    0.4758985    0.3597508  75.63  0.002898872    1.536    0.349
        23  -8.6693    149.3211    228.6607   1.0146841164e+02   6.4039752203e+00    0.1276548    0.0920722  65.48 0.0003965957    1.716    0.417
        24  -9.0667     94.4848    222.3732   1.1168531922e+02   1.6143887076e+01    0.3721717    0.1870101 -48.36  0.001310055    2.586    0.613
        25 -10.5912     47.1886    222.8439   1.2095770487e+02   2.2351975784e+01    0.3966631    0.2227921  67.25  0.001123937    1.583    0.368
        26 -11.3116     44.2429    219.6241   1.2126966079e+02   2.3332427330e+01    0.6442412    0.4425451 -13.69  0.003216645    3.910    0.744
        27  -9.1881     37.3704    223.6779   1.2284376407e+02   2.3322463617e+01    0.1960589    0.1620069  72.11 0.0007044117    1.138    0.122
        28  -9.6445    164.6210    220.7957   9.7255045219e+01   5.1844396838e+00    0.2491457    0.1292337 -51.60  0.001196221    2.375    0.579
        29 -10.4141    134.5430    228.9722   1.0445252414e+02   8.7409158317e+00    0.2896772    0.2655584 -62.92  0.001967185    1.275    0.216
        30  -9.5992     62.7995    237.2451   1.1917906450e+02   1.7691551941e+01    0.2327242     0.148164  68.70 0.0007151543    1.371    0.270
        31  -9.1801     28.9762    200.9965   1.2283167344e+02   2.8826284561e+01    0.1833248    0.1382547  77.60  0.000636495    1.033    0.032
        32 -12.3506     27.9844    216.1456   1.2407310239e+02   2.5830212278e+01     1.360133     0.495282  86.61  0.005903748    3.370    0.703
        33  -8.2173    193.2417    192.7251   8.6645053342e+01   4.9538924878e+00    0.2166987    0.1068836 -30.06 0.0009044468    2.403    0.584
        34 -10.3615     63.3643    179.9954   1.1348377052e+02   2.9423496014e+01    0.4012918    0.2672107 -35.32  0.002038439    2.292    0.564
        35 -10.1608     68.3926    174.5355   1.1163680055e+02   3.0006927046e+01    0.3033303     0.264797 -35.10  0.001178931    1.477    0.323
        36  -7.7459     49.0000    180.9551   1.1684197421e+02   3.0981181447e+01    0.2034746   0.06389444 -69.38 0.0007968913    2.904    0.656
        37  -8.3424     40.6924    177.8775   1.1838309942e+02   3.2619886523e+01    0.1758726    0.1722646  64.36 0.0007075095    1.319    0.242
        38  -8.3147    102.3254    172.3082   1.0321597069e+02   2.5446326141e+01    0.1364769    0.1120995 -17.69 0.0007037262    1.652    0.395
        39  -9.9939     77.8981    164.6206   1.0796303015e+02   3.0992892616e+01    0.2944902    0.2709128 -49.24 0.0005580707    1.237    0.191
        40 -10.7997     84.5245    158.8065   1.0539985499e+02   3.1389217618e+01    0.7915099    0.3747725 -48.26  0.001887651    2.259    0.557
        41  -9.9857     78.2067    158.7108   1.0698073565e+02   3.2344650001e+01    0.5098485    0.2822666  72.89  0.002046988    2.706    0.630
        42 -10.3027     73.0020    154.9780   1.0771970363e+02   3.3973698496e+01    0.5358973    0.3173994  83.45   0.00234079    2.271    0.560
        43 -11.7046     65.2546    160.7943   1.1053853202e+02   3.3636081310e+01    0.4874134     0.287028 -46.84   0.00151531    1.929    0.482
        44  -9.6765     32.8049    154.9408   1.1781597651e+02   3.8748389562e+01    0.5759516   0.08964118 -70.66   0.00157595    5.824    0.828
        45 -11.1892     70.3515    145.4945   1.0688627792e+02   3.6624972468e+01    0.5101353    0.4757383  35.32  0.001779227    1.221    0.181
        46 -11.0399     67.6780    142.3460   1.0707834891e+02   3.7751402459e+01    0.5318416    0.3618942  43.50   0.00168709    1.543    0.352
        47 -12.8893      9.0636    207.2999   1.2703332097e+02   2.9473396972e+01    0.8949834    0.8594348   2.21  0.004395317    1.654    0.395
        48  -8.3996    101.8201    140.0092   9.7437201728e+01   3.3080449032e+01    0.3150501    0.2120937 -24.80  0.001348661    2.163    0.538
        49 -10.4926     87.0445    142.1297   1.0181996206e+02   3.4995842541e+01    0.2955078    0.2554535 -48.54 0.0004971334    1.181    0.154
        50  -8.1794     81.8102    141.6215   1.0313646521e+02   3.5919549483e+01    0.2079352    0.1226563  49.44 0.0009406506    1.814    0.449
        51 -11.0226    135.3249    236.5399   1.0527262783e+02   7.3330472324e+00    0.4187157    0.2483757 -59.66  0.002327017    2.098    0.523
        52 -10.3763     59.4431    136.2388   1.0830641899e+02   4.0303697797e+01    0.5471689     0.170882 -61.29  0.001995883    2.734    0.634
        53 -10.1500     57.8136    130.9868   1.0787560828e+02   4.1787339727e+01    0.3370566    0.2319976 -82.78  0.001674992    1.505    0.335
        54  -8.2450     32.8133    131.1812   1.1487929505e+02   4.4427283939e+01    0.2908629   0.09389768 -75.38  0.001006505    3.448    0.710
        55  -8.8046     97.2401    127.9315   9.6127021204e+01   3.6753062939e+01    0.2713733    0.2063041 -24.91 0.0006638468    1.629    0.386
        56  -9.2539    108.4807    131.4359   9.3808086315e+01   3.3938748447e+01    0.5540775    0.2660011  42.95   0.00216844    2.140    0.533
        57  -8.0693    106.9943    120.1882   9.1613883915e+01   3.6862939656e+01    0.1972969    0.1930093  50.03            0    1.066    0.062
        58  -7.9124    205.5438    110.5050   6.5853347000e+01   1.7527600243e+01     0.150952    0.1411742 -30.55 0.0001898435    1.006    0.006
        59  -8.8695     32.9835    109.0166   1.1143402627e+02   4.9762391240e+01    0.2030444    0.1423705  80.31 0.0005785415    1.647    0.393
        60  -7.5771     45.6551    105.3306   1.0678728493e+02   4.9411819168e+01    0.1373314   0.09828904  75.34  0.000705037    1.756    0.430
        61  -7.7358     40.3129    102.6656   1.0796870127e+02   5.0596732549e+01    0.1329679   0.09660983  78.52 0.0006409563    1.684    0.406
        62  -7.6296     33.6595     97.6746   1.0916018432e+02   5.2410354680e+01    0.1396437   0.08310804 -38.56 0.0007051257    1.730    0.422
        63 -11.2291      7.3540    187.4084   1.2618796602e+02   3.3759017564e+01    0.5006384    0.3283283  75.80 0.0006429299    1.212    0.175
        64  -8.3564     73.2180     83.9141   9.2513118969e+01   5.0910587070e+01    0.2139561    0.1926552 -80.43   0.00120941    1.313    0.238
        65  -9.9571     13.4674     60.4414   1.0847137205e+02   6.2381946236e+01    0.2217536    0.1697437 -51.88 0.0006381129    1.044    0.042
        66 -10.4837    114.1910    242.4710   1.1004359679e+02   9.5861795515e+00    0.3327989     0.201014 -64.41  0.001952949    1.986    0.496
        67 -10.5230    127.1514    240.5004   1.0733965516e+02   7.9472600537e+00    0.2711348    0.2457768  88.25  0.001921404    1.251    0.201
        68  -9.8728    119.4879    241.4910   1.0892440756e+02   8.9532260406e+00    0.2037943     0.188358 -52.95  0.001461934    1.343    0.256
        69  -8.6529     53.1140    241.0444   1.2121113983e+02   1.8203783242e+01    0.2069598    0.1272218 -75.06  0.001009331    1.649    0.393
        70 -11.5902     36.9336    208.0820   1.2179962797e+02   2.6497120619e+01    0.5202227    0.3943351  39.65   0.00151691    1.462    0.316
