#   1 NUMBER                 Running object number                                     
#   2 MAG_AUTO               Kron-like elliptical aperture magnitude                    [mag]
#   3 X_IMAGE                Object position along x                                    [pixel]
#   4 Y_IMAGE                Object position along y                                    [pixel]
#   5 X_WORLD                Barycenter position along world x axis                     [deg]
#   6 Y_WORLD                Barycenter position along world y axis                     [deg]
#   7 A_WORLD                Profile RMS along major axis (world units)                 [deg]
#   8 B_WORLD                Profile RMS along minor axis (world units)                 [deg]
#   9 THETA_WORLD            Position angle (CCW/world-x)                               [deg]
#  10 FWHM_WORLD             FWHM assuming a gaussian core                              [deg]
#  11 ELONGATION             A_IMAGE/B_IMAGE                                           
#  12 ELLIPTICITY            1 - B_IMAGE/A_IMAGE                                       
         1 -13.4166    188.1422     27.8082   7.4329508824e+01   3.4834284844e+01     1.237197     1.129565  45.44  0.006133355    1.130    0.115
         2 -14.0026    200.6642      9.9874   6.7468527100e+01   3.3514205465e+01     1.825548     1.153261  40.25  0.009136753    1.773    0.436
         3 -13.5450      3.9568      9.1818   1.2986905695e+02   7.4823024542e+01     1.525449     1.154918 -43.50   0.01024415    1.023    0.022
         4  -9.7283    152.4753    248.4613   1.2870817465e+02   9.0916550048e+00    0.1053787   0.07670061  30.75 5.579482e-05    1.006    0.006
         5 -11.0070    248.6613    249.4136   1.1339884007e+02  -2.6593944882e+00    0.3554953    0.1541446  26.65  0.002367867    1.687    0.407
         6 -11.7640    139.8429    249.0750   1.3093988479e+02   1.0588980624e+01    0.3338391    0.2719836  45.69  0.002775385    1.275    0.215
         7 -11.0064    125.3767    249.7822   1.3350606279e+02   1.2272547209e+01      0.34394    0.1096185  31.06  0.001651709    2.885    0.653
         8 -10.7156     98.9869    249.4963   1.3806208198e+02   1.5431518560e+01    0.2731558    0.1233396  47.79  0.001718758    1.832    0.454
         9  -9.4082     74.4755    250.4590   1.4236257143e+02   1.8026408378e+01   0.09927271   0.07239725  45.37 0.0002110836    1.009    0.009
        10 -10.7513     66.5727    243.0006   1.4327406027e+02   1.9924481291e+01    0.2174155    0.1486961  71.28 0.0006524239    1.480    0.324
        11 -10.8135     67.0583    250.1155   1.4361150991e+02   1.8859224075e+01    0.2136547    0.1952322  40.76  0.001982138    1.311    0.237
        12  -9.4905     63.4708    250.5686   1.4424882830e+02   1.9168226507e+01    0.1613935   0.07194844  35.95 2.976124e-05    1.692    0.409
        13 -10.4072     46.4951    248.6177   1.4702455755e+02   2.1144482953e+01    0.2622032    0.1153235  59.39 0.0007813913    2.007    0.502
        14 -10.5528     28.8441    249.5498   1.5000225814e+02   2.2656642904e+01     0.205914     0.196201  75.37  0.001350154    1.450    0.311
        15 -11.6544     35.4238    245.4339   1.4875021777e+02   2.2657127469e+01    0.5003724    0.4038494 -81.12  0.004566156    1.495    0.331
        16 -14.1566      6.8639    187.3358   1.5170967124e+02   3.4816974899e+01     2.386193    0.9461219 -54.68   0.01241129    3.521    0.716
        17 -14.7953      4.0444    236.5770   1.5370557080e+02   2.6687530459e+01      6.14042    0.7729073 -77.14   0.02606541    6.650    0.850
        18 -13.7872     10.5546    207.5329   1.5171865151e+02   3.0897866760e+01     1.091335    0.6858403 -71.22  0.004755817    1.756    0.431
        19 -14.5702     55.4717    210.4593   1.4324500322e+02   2.6224076834e+01     8.550343    0.8205032  44.77   0.03051438    4.970    0.799
        20 -10.7933     76.7116    244.2379   1.4157575043e+02   1.8657975114e+01    0.2775813   0.09194766  39.74  0.001258506    2.090    0.522
        21 -10.5321     94.9334    241.6246   1.3816471954e+02   1.6974858363e+01    0.1939026    0.1494562 -72.92  0.001335235    1.650    0.394
        22 -12.7159     44.8530    233.4872   1.4657677579e+02   2.3561279728e+01    0.3142681    0.2574349  85.14 0.0008082903    1.312    0.238
        23  -8.7347     18.4775    236.4913   1.5128404644e+02   2.5512779720e+01    0.0977397     0.065844  55.49 -2.930734e-05    1.057    0.054
        24 -11.1294    233.4414    236.4916   1.1391413032e+02   1.9934131042e-01    0.2708588    0.1853496 -46.80  0.001747888    3.322    0.699
        25  -8.7125    172.2910    238.6450   1.2420380994e+02   7.6994498661e+00   0.09700826   0.07483245  51.09 0.0007028262    1.682    0.405
        26 -10.2182    183.1614    238.1632   1.2229149624e+02   6.3490663564e+00    0.1687321    0.1136312  15.14 0.0007033132    1.304    0.233
        27  -9.8186     35.2538    229.7493   1.4810474273e+02   2.5062210512e+01    0.2557866    0.1006269  47.82  0.001201742    1.823    0.452
        28 -14.9919     19.5187    171.7018   1.4831310567e+02   3.6832549537e+01      6.36573     1.732703  84.82   0.02041469    6.508    0.846
        29 -10.6296     19.1279    226.9829   1.5084709049e+02   2.6946917511e+01    0.3438051   0.08441187  51.10  0.001740244    2.710    0.631
        30 -10.8869    173.5686    221.8808   1.2186392147e+02   9.5089737386e+00    0.3402952    0.2640787  53.01  0.002389017    1.713    0.416
        31  -9.5343     27.5655    221.5472   1.4912607075e+02   2.7085903892e+01     0.173883    0.1230226  53.54  0.000652143    1.054    0.052
        32 -10.9474     83.6212    244.8403   1.4040412811e+02   1.7810675625e+01    0.3670554    0.1189649  48.13  0.001950722    2.559    0.609
        33  -8.7917    152.4677    212.9734   1.2455558965e+02   1.3590710120e+01    0.1363391    0.1138116 -37.55 0.0003858053    1.458    0.314
        34 -12.1069     28.5833    204.1358   1.4813247684e+02   2.9953773762e+01    0.4608246      0.16236  39.12  0.000740259    2.118    0.528
        35  -9.8925    192.0391    193.2337   1.1430349503e+02   1.0472409882e+01    0.3606134    0.2169468 -60.26  0.001495796    5.007    0.800
        36 -11.4485     68.9893    198.7320   1.3962914327e+02   2.6781002875e+01    0.2963281    0.2153569 -41.66   0.00155305    1.875    0.467
        37 -11.6363     74.0535    191.0407   1.3787255980e+02   2.7573847677e+01    0.2250204     0.210826 -44.95 0.0004711282    1.323    0.244
        38  -8.6474    105.8332    181.6136   1.2992865244e+02   2.5177016987e+01    0.1659676   0.09722314  45.40 0.0003295346    1.540    0.351
        39 -10.9074     82.9017    178.3457   1.3461632998e+02   2.8849203267e+01    0.2023886    0.1911226  78.14  0.000332375    1.110    0.099
        40 -13.2381     70.4667    176.1437   1.3718237213e+02   3.0806779365e+01    0.4349705    0.2601146 -41.69  0.001844563    2.293    0.564
        41  -9.0231    172.2559    174.2113   1.1483041387e+02   1.6206575468e+01    0.1615654    0.1422025  47.12 0.0006136942    1.350    0.259
        42 -11.9644     89.4479    168.9413   1.3198629218e+02   2.9803044728e+01    0.6580077    0.5131378  55.54   0.00415168    1.215    0.177
        43 -10.3642    193.7282    157.5124   1.0756931054e+02   1.5091517518e+01    0.3030669    0.2473761 -64.96  0.001211962    2.049    0.512
        44 -12.7372     66.8077    143.6541   1.3424448307e+02   3.7953627109e+01     1.079836    0.5917969  76.23  0.004839421    2.625    0.619
        45 -11.8286     57.8456    132.3624   1.3512570756e+02   4.1522383120e+01    0.6448218    0.2982934 -83.15  0.002623566    2.962    0.662
        46 -11.9912     90.1398    151.8926   1.2946148417e+02   3.3128766994e+01    0.2544549    0.2317943 -16.71 0.0005032392    1.286    0.222
        47  -9.2205    103.9962    148.0457   1.2541994353e+02   3.1884884682e+01    0.2065586    0.1581593 -16.10 0.0008558005    1.725    0.420
        48 -12.3734     29.9876    139.7804   1.4351157919e+02   4.2671249512e+01    0.3764922    0.2987085  73.29  0.002529495    1.114    0.102
        49 -10.6976    174.4474    137.8739   1.0728965860e+02   2.1550150520e+01    0.4292123    0.3168961  83.16  0.001953849    2.743    0.635
        50  -9.6735    111.3599    137.3187   1.2167299890e+02   3.2910171769e+01    0.2901903    0.2158625 -12.85  0.001367193    1.808    0.447
        51  -8.7223     88.5000    137.9477   1.2768455281e+02   3.6298377498e+01    0.1816395    0.1286006 -63.84 0.0004328513    1.448    0.310
        52 -10.7313     99.1559    135.0398   1.2438425597e+02   3.5326101403e+01    0.3205731    0.2301917 -45.65 0.0006939612    1.456    0.313
        53  -9.5087    168.8202    132.6517   1.0731137832e+02   2.3473190682e+01    0.2360669    0.2035022  78.50 0.0008882487    1.645    0.392
        54  -8.6248    192.0231    143.9879   1.0512764841e+02   1.7378815549e+01    0.1591119    0.1353701  -6.15 0.0003891816    1.076    0.070
        55 -13.9298     51.0440    224.1498   1.4494815625e+02   2.4416397181e+01    0.9321535    0.6239021  64.03  0.007072339    1.305    0.234
        56  -9.0510    108.1819    124.1424   1.1988468176e+02   3.6177444694e+01    0.1889265    0.1783545  -1.06 0.0003259768    1.108    0.097
        57  -9.8706    101.0872    152.4318   1.2684813690e+02   3.1435794767e+01    0.2378482    0.2153648 -51.51 0.0007128704    1.175    0.149
        58 -10.6541    168.0406    113.2530   1.0291351958e+02   2.6934852354e+01    0.3440919    0.2960078 -69.33  0.001055091    1.556    0.357
        59  -9.6995    150.7640    117.0413   1.0766722886e+02   2.9729542279e+01    0.5286227    0.3193587  73.59  0.001694004    4.575    0.781
        60 -11.0041    196.9473    242.6648   1.2055909059e+02   4.1191710224e+00    0.4310978     0.263162 -56.95  0.002320274    4.690    0.787
        61  -9.1312    203.4583    111.4938   9.5600701067e+01   2.0062303865e+01    0.1416426    0.1221502  -1.51 0.0001264996    1.023    0.023
        62  -9.7285     41.4097    108.8055   1.3662416884e+02   4.8743474072e+01    0.1955758    0.1008099 -57.89 0.0009565498    1.742    0.426
        63  -9.5511    126.2645     99.5473   1.0925768858e+02   3.7967649381e+01    0.2534291    0.2202453 -87.36 0.0009712035    1.446    0.308
        64  -9.6816     29.7614     90.9916   1.3778483222e+02   5.4065749997e+01    0.2402551    0.1713517  38.09 0.0006519771    1.538    0.350
        65  -9.8561    155.0183     75.5123   9.5325110834e+01   3.6250648089e+01    0.2263649    0.1491399  50.63  0.000662583    1.566    0.361
        66  -9.7636     22.2079     68.0890   1.3668307372e+02   6.0182048628e+01    0.2004604    0.1803339  44.27 0.0004541781    1.287    0.223
        67 -11.8117      2.5872     40.0409   1.4007945492e+02   6.7978688537e+01    0.5222892    0.1365532 -70.89  0.002011059    3.049    0.672
        68 -10.1637    161.9911    248.7526   1.2711914858e+02   7.8680679473e+00    0.1454399    0.1370479  79.88 0.0007024461    1.634    0.388
        69 -10.3101     81.5641    248.5418   1.4101670297e+02   1.7522579555e+01      0.21087     0.128547  52.31 0.0008083648    1.362    0.266
