#   1 NUMBER                 Running object number                                     
#   2 MAG_AUTO               Kron-like elliptical aperture magnitude                    [mag]
#   3 X_IMAGE                Object position along x                                    [pixel]
#   4 Y_IMAGE                Object position along y                                    [pixel]
#   5 X_WORLD                Barycenter position along world x axis                     [deg]
#   6 Y_WORLD                Barycenter position along world y axis                     [deg]
#   7 A_WORLD                Profile RMS along major axis (world units)                 [deg]
#   8 B_WORLD                Profile RMS along minor axis (world units)                 [deg]
#   9 THETA_WORLD            Position angle (CCW/world-x)                               [deg]
#  10 FWHM_WORLD             FWHM assuming a gaussian core                              [deg]
#  11 ELONGATION             A_IMAGE/B_IMAGE                                           
#  12 ELLIPTICITY            1 - B_IMAGE/A_IMAGE                                       
         1 -11.8853     76.4373     21.7471   7.3644958003e+01   6.2660794386e+01    0.5137354    0.4455048 -48.93  0.002239089    1.314    0.239
         2 -10.8783     42.6101     18.4732   8.6593968220e+01   6.9282080570e+01     0.581589    0.3260971 -22.51  0.002669743    2.172    0.540
         3 -11.6934     34.6700     12.8856   8.7794574348e+01   7.1426047715e+01    0.5856014    0.2667226 -52.21  0.002504721    2.628    0.620
         4 -11.7520     30.1139      7.2396   8.7096242788e+01   7.3039157828e+01     0.422958    0.3717101  42.86  0.002764104    1.467    0.319
         5 -10.0885     22.4436      9.5880   9.3335619445e+01   7.3571379188e+01    0.3259276    0.2223812 -13.93  0.001488918    1.574    0.365
         6 -10.0386     23.8851      4.9040   8.9559837667e+01   7.4251036056e+01     0.185852    0.1369305 -25.39  0.001140029    1.171    0.146
         7 -12.3406     17.5529      3.3221   9.2879136953e+01   7.5271112291e+01    0.4081393    0.2589826  10.59 0.0007314982    1.829    0.453
         8 -11.8138    234.6887     14.9687   4.4114766301e+01   2.4397668863e+01    0.2716207     0.230389 -88.86 0.0001797439    1.278    0.218
         9 -11.3700     89.3069     13.9752   6.5470821520e+01   6.0918730746e+01    0.4606573    0.3119536 -48.89  0.001337476    1.765    0.434
        10 -10.1463     88.7190      7.2621   6.2152829421e+01   6.1845768562e+01    0.2872271    0.2011146 -23.15 0.0008301726    1.391    0.281
        11 -10.2418    203.2307     12.0066   4.5812149983e+01   3.2003908545e+01     0.187617    0.1663109 -30.90   0.00031329    1.065    0.061
        12 -10.3423    125.9943     10.9993   5.5422878798e+01   5.2163083935e+01    0.1729826     0.162994  45.10 0.0009707612    1.034    0.032
        13 -11.0265     40.5672      7.6720   8.1400580142e+01   7.1433510260e+01    0.4019974     0.215587 -22.96  0.001233324    2.031    0.508
        14 -10.5171     93.0695      8.5817   6.1647459997e+01   6.0672711025e+01     0.432817    0.2337839  -8.11  0.001827702    2.144    0.534
        15 -12.2714    152.3930      8.4667   5.0208642496e+01   4.5433573753e+01    0.6103137    0.3209113  65.26  0.002651393    1.815    0.449
        16 -10.6053    210.7235      7.4307   4.3849781251e+01   3.0594514088e+01    0.1826424    0.1194049  60.34 0.0009478621    1.602    0.376
        17 -11.0375     70.8657      5.8354   6.6972115840e+01   6.6012377918e+01    0.3477827    0.2853877 -27.18  0.002002764    1.215    0.177
        18  -9.7378     65.0966      6.8925   6.9718783207e+01   6.7083031037e+01     0.198031    0.1783354 -31.77 0.0004676021    1.214    0.176
        19 -11.7727     57.3517      3.0443   7.0455967699e+01   6.9119809150e+01    0.4453257    0.3063336  -6.39  0.002391413    1.461    0.315
        20 -10.5628      2.1318      5.7390   1.0581298584e+02   7.6145768817e+01    0.3211466    0.2062657 -62.67  0.001552064    1.465    0.318
        21  -9.7970      4.1680     10.1137   1.0633523067e+02   7.5109216216e+01    0.1500892    0.1250847 -65.35 0.0003588792    1.266    0.210
        22 -10.4500    235.5047      4.4853   4.1326628869e+01   2.5140476298e+01    0.1277771    0.1099972 -41.40 0.0008104519    1.014    0.014
        23 -10.3931    230.9910      3.8024   4.1428725395e+01   2.6200748228e+01    0.1843956    0.1343494   7.60 0.0007827801    1.608    0.378
        24 -10.2969    194.0000      4.0139   4.4200050620e+01   3.4993501983e+01    0.2301527   0.07499474 -18.79 0.0008102354    2.997    0.666
        25 -11.1192    130.2347      3.4615   5.1473723556e+01   5.1752643122e+01    0.2624496    0.2519091  64.83 0.0007154918    1.049    0.046
        26  -9.9524    120.8509      3.9685   5.3287863859e+01   5.4168074582e+01    0.2229806     0.177774  28.03 0.0004753169    1.253    0.202
        27 -10.0487    101.1667      2.3646   5.6489818938e+01   5.9330731614e+01    0.1946478    0.1346799  78.64  0.000669772    1.683    0.406
        28 -11.2963     79.8014      1.8981   6.1788992571e+01   6.4480799125e+01     0.401106    0.2278031  42.19   0.00190577    1.684    0.406
        29 -10.7555    173.0114      2.7303   4.5736626285e+01   4.0483512433e+01    0.2529783    0.1867296 -84.25 0.0006442913    1.422    0.297
        30 -10.0049     15.1470      8.8589   9.7837275902e+01   7.4475303060e+01    0.1937341    0.1174325 -28.17 0.0004146366    1.603    0.376
        31 -10.3473     90.7476      2.7604   5.9213517451e+01   6.1835619319e+01    0.2986473    0.2239208  85.42 0.0009182517    1.695    0.410
        32  -9.4866    112.3293      2.7414   5.4327345045e+01   5.6477819201e+01    0.1400138    0.1071827 -63.94 0.0001275048    1.562    0.360
        33 -10.2627     10.0875      1.8270   9.7468974134e+01   7.6298348025e+01    0.1840912    0.1454835 -29.61 0.0007910343    1.047    0.044
        34  -9.8311    203.5164      1.4924   4.2676477208e+01   3.2841989389e+01    0.1303638    0.1260228 -41.12 -8.483481e-05    1.050    0.047
        35  -9.9815    187.0307      1.3659   4.3972901110e+01   3.6974067346e+01    0.1952199    0.1284937  79.27 0.0003133719    1.540    0.351
        36  -9.4978    153.9190      1.1790   4.7284186764e+01   4.5649109404e+01    0.1887219    0.1057704  74.74 0.0004470668    1.778    0.438
        37  -9.6630     67.0888      1.5136   6.5724996823e+01   6.7320098131e+01    0.1875913    0.1296631  51.36 0.0003558679    1.478    0.324
        38 -10.4421     22.5373    142.9638   1.2289771214e+02   4.3119682573e+01    0.1770085    0.1005302 -78.91 0.0008293907    1.570    0.363
        39 -10.6007     12.2073    249.8890   1.2998734164e+02   2.4681940867e+01    0.1375366    0.1152114   5.40  0.001232587    1.983    0.496
        40 -11.3794      2.8049    248.6865   1.3146060362e+02   2.5653167633e+01    0.3394877    0.1583902  47.96  0.002653448    1.388    0.280
        41 -11.9032      9.4745    245.0046   1.3029969823e+02   2.5630423027e+01    0.4116864    0.1856861  19.80  0.002334801    3.760    0.734
        42 -11.7150      6.3790    241.1929   1.3070796561e+02   2.6460075583e+01    0.3627428    0.2183436 -45.70  0.002514619    3.348    0.701
        43 -10.5962      1.6468    239.5229   1.3144426456e+02   2.7104570198e+01    0.1981527     0.090685  81.19  0.001439487    1.981    0.495
        44 -12.0927      4.1907    232.5793   1.3085562588e+02   2.7957481936e+01    0.2939169    0.1206686  52.23  0.002063236    1.622    0.384
        45 -12.8686      9.7016    228.4847   1.2980281645e+02   2.8135507168e+01     0.471945    0.2619674  73.68  0.001481678    1.511    0.338
        46 -10.4029     11.9850    141.2811   1.2548204719e+02   4.4346941820e+01    0.1578732    0.1305868  75.37 0.0005220128    1.040    0.039
        47  -9.4777     24.5757    139.1709   1.2205898864e+02   4.3772891101e+01    0.1685236   0.09281812 -64.64 0.0009426281    1.728    0.421
        48 -10.6672    213.6901    134.5199   7.7068380427e+01   1.4299262981e+01    0.3975417    0.2691547  70.64  0.001861802    2.856    0.650
        49 -11.1927      2.3385    132.9325   1.2747147629e+02   4.6859858567e+01    0.2946194    0.1547024  56.08  0.001517008    1.689    0.408
        50  -9.8044     35.2194    130.8449   1.1838363482e+02   4.4643434108e+01    0.1620323    0.1309745 -56.86 0.0005014172    1.341    0.254
        51 -11.6921     11.4365    129.6758   1.2482493875e+02   4.6945834302e+01      0.41093    0.1674185  38.40  0.002134712    2.252    0.556
        52 -10.2456    248.6709    129.3407   7.0556405127e+01   8.8243829371e+00    0.1165206   0.09269542 -46.51 0.0007051545    1.740    0.425
        53  -9.6474     20.4472    125.4240   1.2197740240e+02   4.7203501558e+01    0.1208994   0.09882008  79.62 -3.967899e-05    1.039    0.038
        54 -11.2226     20.0055    112.7388   1.2086785308e+02   5.0161229366e+01    0.1776206    0.1476729 -62.09 0.0002821488    1.234    0.189
        55 -11.9403     23.8950    121.6730   1.2063151735e+02   4.7772726936e+01     0.497428    0.2324431  73.70  0.001412589    2.444    0.591
        56 -10.8345     17.9912    121.9936   1.2236493038e+02   4.8183404527e+01    0.1751294    0.1480422  87.62  0.001202627    1.033    0.032
        57 -10.5105      8.0239    121.0539   1.2513790555e+02   4.9131352724e+01    0.1792788    0.1432067  80.68 0.0003712125    1.036    0.034
        58 -10.2054     72.1430    112.9930   1.0504229845e+02   4.4318769056e+01    0.1963222    0.1820397 -86.03 0.0003610027    1.012    0.012
        59 -10.2711     25.9774    113.7656   1.1916417810e+02   4.9425400304e+01    0.1479064    0.1030163  28.63 0.0006662026    1.613    0.380
        60 -10.9349     65.6309    110.7401   1.0657079939e+02   4.5742072189e+01    0.2912014    0.2188244  79.87 0.0008218594    1.464    0.317
        61 -11.9269      4.2826    108.9542   1.2531072597e+02   5.2148204524e+01    0.3878711    0.2541421   9.18  0.002374333    2.019    0.505
        62 -11.2165     17.0382    115.2291   1.2201235534e+02   4.9814468505e+01    0.1782251    0.1507147 -63.44 0.0005739229    1.232    0.189
        63 -11.6662     57.2980    108.0380   1.0863776226e+02   4.7458140013e+01    0.4100883    0.2158586  26.17  0.001889312    2.256    0.557
        64 -10.5823     40.8588    106.5458   1.1356772225e+02   4.9702948337e+01    0.2551555    0.1349881  18.11  0.001188423    2.523    0.604
        65 -10.1080     52.4128    105.1611   1.0966319723e+02   4.8732488014e+01    0.2493836    0.1238412 -78.60  0.001032077    2.406    0.584
        66  -9.6495    187.0250    103.2755   7.4401062340e+01   2.4102275049e+01     0.195304     0.176914  36.36 0.0005909351    1.136    0.119
        67 -10.2279     61.7844     97.9871   1.0527041236e+02   4.9227138410e+01    0.1925856    0.1030767 -60.77 0.0008813789    1.733    0.423
        68 -10.0090    100.8604     96.5473   9.2860434862e+01   4.3299752513e+01    0.2393211    0.2018346 -76.31  0.001265578    1.329    0.247
        69 -11.1725     78.8851     94.9784   9.9110815665e+01   4.7418391045e+01    0.2257342    0.2043045 -57.79 0.0002718142    1.053    0.051
        70 -10.3757      3.4096     95.5475   1.2444899712e+02   5.5329457545e+01    0.2039863    0.1644546 -82.47  0.000336958    1.031    0.030
        71 -11.5319     17.9543     94.9696   1.1948859008e+02   5.4513080875e+01    0.2668819    0.1638151  38.71 0.0008827501    1.734    0.423
        72 -11.6567     10.9045     91.5201   1.2149197854e+02   5.5827198216e+01    0.4070431    0.1942975 -76.79 0.0005590987    1.749    0.428
        73 -10.0139    125.0115     93.4401   8.5399906363e+01   3.9195826658e+01    0.2170577    0.1445549  45.31 0.0003162367    1.514    0.339
        74 -10.2683     38.9300     85.9176   1.1067261924e+02   5.4819850046e+01    0.2895714    0.1603894  85.65  0.001260535    2.483    0.597
        75 -10.5486     43.5373     92.9655   1.1038690486e+02   5.2643079087e+01    0.3387323     0.139026 -46.79  0.001380747    2.616    0.618
        76 -10.9857     57.3272     92.0363   1.0549154732e+02   5.1212354856e+01    0.2764179    0.1939241  18.00  0.001066544    1.785    0.440
        77 -10.6000     25.1517     89.8168   1.1627492208e+02   5.5176344143e+01    0.3499208    0.1972001  47.70  0.001834329    1.907    0.476
        78 -10.4885     76.5218     89.2165   9.8451196574e+01   4.9102096952e+01    0.2440814     0.223782   0.48  0.000534121    1.240    0.194
        79  -9.9605     64.9440     88.4855   1.0211222820e+02   5.1008392151e+01     0.223394    0.1714708 -59.07 0.0006423168    1.207    0.171
        80 -10.6134     18.4201     87.4952   1.1833192549e+02   5.6265887091e+01    0.3694101    0.2318869 -53.75  0.001639917    1.502    0.334
        81  -9.3307    150.0449     88.0144   7.7804753194e+01   3.4781583324e+01     0.176998    0.1700366   5.45 0.0003851251    1.012    0.012
        82 -11.0227    124.4443     82.6765   8.2449799618e+01   4.1425810647e+01    0.6351933    0.2592596 -38.44  0.001611021    2.471    0.595
        83 -10.8362     54.8209     84.4599   1.0467385099e+02   5.3320237720e+01    0.2943819    0.1961711 -66.60 0.0009115444    1.426    0.299
        84 -10.7566      3.9778     82.2403   1.2290393649e+02   5.8450923493e+01    0.3177376    0.1708218 -74.05  0.001755297    1.494    0.330
        85 -11.1632     64.4859     79.4715   1.0002302391e+02   5.3161482323e+01    0.4497547    0.2677682 -63.25  0.001586558    1.691    0.409
        86 -10.1339     89.4141     80.6084   9.1968812975e+01   4.8837470264e+01    0.2735556    0.2087562 -78.05 0.0005472495    1.655    0.396
        87 -10.8937     10.1254     79.2599   1.2025075279e+02   5.8806443443e+01     0.298205    0.1379278 -74.99  0.001069166    1.792    0.442
        88 -11.0771     27.2821     77.4697   1.1340664077e+02   5.7961454874e+01    0.3991905    0.2326618 -13.31 0.0006835869    2.697    0.629
        89 -10.1205    176.8378     76.8697   6.9087154585e+01   3.0460730679e+01    0.2343189    0.1998689  12.87  0.001122091    1.213    0.176
        90  -9.9718      5.8405     76.0846   1.2146790613e+02   5.9818207157e+01    0.3206011   0.07637407 -56.14  0.001243754    3.155    0.683
        91  -9.7199    170.1622     76.1584   7.0138024499e+01   3.2132969085e+01    0.2084153    0.1751466 -54.93   0.00090882    1.335    0.251
        92 -10.5917    160.5517     75.2047   7.1764306923e+01   3.4545604719e+01    0.3277544    0.2290594  28.24 -2.774451e-05    1.637    0.389
        93 -10.4718     71.2215     75.3100   9.6511729787e+01   5.3090438665e+01    0.4426681    0.2216461  31.88   0.00185941    2.313    0.568
        94 -10.9523     55.6704     75.2069   1.0209960665e+02   5.5376935332e+01     0.339996    0.3223167  55.61   0.00125444    1.147    0.128
        95 -10.7280     15.4530     75.5067   1.1765692297e+02   5.9358113000e+01    0.1985773    0.1869565 -42.13 0.0009883861    1.210    0.174
        96 -10.2954     36.9745     75.2246   1.0920762768e+02   5.7579134452e+01    0.2368842    0.2021642  28.87  0.000991545    1.339    0.253
        97 -10.4192     36.0681     71.9757   1.0884109951e+02   5.8446410839e+01    0.4563424    0.2625661 -15.15  0.001707642    2.932    0.659
        98  -9.4171    136.5282     74.4758   7.6889793670e+01   4.0270662310e+01    0.1510524     0.144908  -5.22 3.828542e-05    1.016    0.016
        99 -10.0371     92.5602     72.7494   8.8594567297e+01   4.9936631884e+01    0.2629148    0.1373582 -55.95 0.0006564515    2.187    0.543
       100  -9.3756     81.4086     73.1774   9.2378646058e+01   5.1873595317e+01    0.2056769    0.1329768 -59.76 0.0009424808    1.658    0.397
       101  -9.5412    217.0168     72.0810   6.1313611228e+01   2.2010256571e+01    0.1708129    0.1425912 -20.06 0.0004394184    1.077    0.071
       102 -10.4248    106.3665     72.0279   8.4146055825e+01   4.7346786938e+01    0.3117957    0.2092709  48.27  0.001321941    1.554    0.356
       103 -10.2126     79.7519     69.0335   9.1656350040e+01   5.3061990429e+01    0.2541946    0.1920866  19.52 0.0007595144    1.594    0.372
       104 -10.1693     46.3638     69.3252   1.0412520945e+02   5.7929607479e+01    0.2433718     0.171343  37.93  0.001125363    1.569    0.363
       105 -10.5914      9.9299     60.0338   1.1733274316e+02   6.3422146830e+01     0.225359    0.1496092 -60.48 0.0007291654    1.238    0.192
       106 -10.3534     10.5421     67.8888   1.1841268257e+02   6.1506979781e+01    0.3314601      0.14911 -79.43  0.001558055    2.043    0.511
       107 -11.2154      7.3038     64.0104   1.1914633768e+02   6.2625216738e+01    0.2402111    0.1563961  87.59  0.001383709    1.501    0.334
       108  -9.4366     57.5571     67.5555   9.9284128957e+01   5.6884496246e+01      0.13753     0.125531 -60.56 4.692807e-05    1.048    0.046
       109 -11.3147     14.2157     64.1166   1.1622043785e+02   6.2174408249e+01    0.3682914    0.2204736 -86.40 0.0006454686    1.672    0.402
       110 -13.8690     19.9838     57.6577   1.1237510951e+02   6.3297188992e+01    0.4356887    0.3073988 -72.39  0.001102155    1.262    0.207
       111 -10.3955     34.5254     64.7868   1.0777191479e+02   6.0308666225e+01    0.4175456     0.222055 -43.75  0.002011094    1.858    0.462
       112 -10.8077     39.0427     62.9309   1.0541136030e+02   6.0268398274e+01    0.6526578    0.2298625 -47.36  0.002307947    2.628    0.619
       113  -9.3711      1.4626     66.5144   1.2196198803e+02   6.2329828945e+01    0.1230544   0.09872737 -75.18 0.0002546722    1.003    0.003
       114 -10.3118    133.3489     65.3582   7.4709516858e+01   4.2622470823e+01    0.2434543    0.1801864  13.40  0.001103658    1.689    0.408
       115  -9.8635     75.8813     64.7891   9.1644050106e+01   5.4647008179e+01    0.2003059    0.1810509 -18.58 0.0002783184    1.151    0.131
       116 -10.8299     63.5584     61.6610   9.5175130652e+01   5.7330469743e+01     0.444125    0.3082935   8.40  0.002129481    2.007    0.502
       117  -9.5278    193.2682     62.0079   6.1963169111e+01   2.8733455699e+01    0.2125011    0.1434223 -25.29 0.0003326423    1.396    0.284
       118  -9.6952    192.7634     58.6347   6.1050168608e+01   2.9304792313e+01    0.2012304    0.1647933 -52.67 0.0003592284    1.317    0.241
       119 -10.2268     53.3259     62.0009   9.9293118458e+01   5.8731582513e+01    0.2093251    0.1880593  66.78 0.0005157578    1.271    0.213
       120 -10.2569    100.8114     60.9830   8.2085567469e+01   5.0678136442e+01    0.2813287    0.2030515 -57.72  0.001322099    1.594    0.373
       121  -9.7675    177.8504     58.9116   6.3525243745e+01   3.2864163732e+01    0.2119607     0.188888  10.49 0.0002641193    1.145    0.127
       122  -9.6099    130.3257     57.9976   7.2934654377e+01   4.4600532041e+01    0.3022965    0.1995964  88.92  0.001161193    2.650    0.623
       123 -10.5150     91.6930     55.3016   8.2914589520e+01   5.3650264145e+01    0.2628366    0.2041926  46.30 0.0003449154    1.358    0.264
       124 -10.9671     83.6154     56.8695   8.6201156892e+01   5.4913209245e+01    0.2577419    0.2178105 -75.64 0.0009049496    1.446    0.309
       125 -11.7332     87.7525     53.4622   8.3535500126e+01   5.4793493584e+01    0.5135232    0.3860077   0.69  0.001819458    1.707    0.414
       126  -9.5684     71.6709     56.5622   9.0378410272e+01   5.7120534208e+01    0.2492303     0.124428 -47.86  0.001051316    1.864    0.464
       127  -9.3674    158.4848     56.5114   6.6279288521e+01   3.7976524352e+01    0.1504485    0.1441003 -38.69 0.0008095167    1.066    0.062
       128 -10.2047     32.8716     55.4186   1.0603088178e+02   6.2672201648e+01    0.3372071    0.1394049 -36.93  0.001278165    3.184    0.686
       129 -11.9096    114.3996     53.6561   7.5493630972e+01   4.9062024792e+01      0.33352    0.3162713  29.25 0.0005633745    1.065    0.061
       130  -9.8777    164.2424     54.3025   6.4467276357e+01   3.6873090743e+01    0.3361593    0.1336279  57.92 0.0005423764    2.536    0.606
       131 -11.2548     17.3666     33.3358   1.0697937673e+02   6.9124080502e+01    0.7480564    0.3222141 -21.57  0.002674445    4.543    0.780
       132 -10.6412     12.9906     41.0875   1.1166933304e+02   6.7686094176e+01     0.262962    0.2162717  31.16  0.001005093    1.454    0.312
       133 -10.7697     18.5793     45.0980   1.0991226934e+02   6.6350318454e+01    0.4510492    0.3019225  26.79  0.001609765    1.743    0.426
       134 -13.2912      5.6601     50.7721   1.1755536668e+02   6.5862613833e+01    0.4191784    0.2563784 -44.00 0.0005566297    1.546    0.353
       135 -10.7200     13.8499     48.8223   1.1319141015e+02   6.5826980935e+01    0.2513584    0.2025996  76.70  0.001587773    1.402    0.287
       136 -10.0202    105.8506     53.2649   7.7770603807e+01   5.1048361939e+01    0.2664271    0.1809307  52.79  0.001065172    1.564    0.360
       137 -12.1191     66.1507     52.5233   9.1033258375e+01   5.8893535699e+01    0.5967135    0.2537369  35.75  0.002352966    2.651    0.623
       138 -10.2514    122.3815     51.4248   7.2558704562e+01   4.7588683426e+01    0.3033923    0.2439672 -79.47 0.0009912039    1.618    0.382
       139  -9.5476     98.1658     49.1556   7.8519833743e+01   5.3463046931e+01    0.3061944    0.1701136 -25.15  0.001223332    2.135    0.532
       140 -10.1107     75.9450     49.7702   8.6285648384e+01   5.7764136029e+01    0.3816015    0.1919911 -34.70   0.00122728    2.104    0.525
       141 -10.3394     79.0047     45.9277   8.3659091574e+01   5.7948882088e+01    0.2131419    0.2002842 -23.71 0.0003080214    1.020    0.019
       142  -9.3587    211.9340     48.9918   5.5638454035e+01   2.6007674808e+01     0.158419    0.1559589  -8.95 0.0003763541    1.080    0.074
       143 -10.6759     57.5663     47.1578   9.2513073026e+01   6.1382393990e+01    0.3661926    0.2217614 -61.39 0.0009601924    1.931    0.482
       144  -9.2567     53.3255     48.3388   9.4746254903e+01   6.1758928902e+01    0.1447887   0.09965771 -22.77 0.0007051412    1.726    0.421
       145  -9.1855    193.4562     47.4896   5.7624957237e+01   3.0572717250e+01    0.1445207    0.1339566 -32.31 2.011006e-05    1.040    0.039
       146  -9.5438    154.5670     47.5478   6.4023400004e+01   4.0264989566e+01    0.1490331    0.1436408  -9.67 5.269915e-05    1.005    0.004
       147  -9.4198    135.5280     46.4630   6.7584464647e+01   4.5193075845e+01    0.1498627    0.1457725 -14.03 0.0001228958    1.023    0.022
       148  -9.4640    104.6707     46.3135   7.5447383259e+01   5.2541942624e+01    0.1498313     0.118331 -71.79 0.0007043977    1.673    0.402
       149  -9.1163     48.3357     58.2605   1.0018793353e+02   6.0239563250e+01     0.134382    0.0987636 -23.96 0.0002526567    1.578    0.366
       150 -11.9137     26.9876     43.5675   1.0527924539e+02   6.5973533807e+01     0.401051    0.3956552  79.34  0.002743655    1.188    0.158
       151 -10.0079     25.7941     29.7046   1.0097327269e+02   6.9154137697e+01    0.2003963    0.1576366 -62.97 0.0005727241    1.290    0.225
       152 -10.6194     22.7241     38.5615   1.0583369201e+02   6.7497743683e+01    0.2143616    0.1807725  53.08 0.0004315618    1.456    0.313
       153 -11.6191     26.6979     35.2095   1.0258759357e+02   6.7868934360e+01    0.3984275    0.2220224 -36.12 0.0007806344    1.795    0.443
       154  -9.9413     69.9309     42.3305   8.5593339732e+01   6.0316758363e+01    0.2473771     0.198609 -67.76  0.001295529    1.569    0.363
       155  -9.6725    159.5129     41.9296   6.1179334526e+01   3.9785553780e+01    0.2253056    0.1428092 -28.52 0.0003598606    1.523    0.343
       156 -10.5868      3.4422     41.8732   1.1683000909e+02   6.8066064580e+01    0.3088954    0.1704584 -17.67  0.001647104    2.275    0.560
       157  -9.3176    183.3324     41.6607   5.7269439304e+01   3.3789598661e+01    0.1575649    0.1046496 -57.12 0.0007051713    1.745    0.427
       158 -11.2633    139.7971     40.2369   6.4366892436e+01   4.5037558628e+01    0.4611352    0.2989796 -40.97  0.001392811    1.560    0.359
       159  -9.5693     42.8547     40.8646   9.6650627836e+01   6.4793589829e+01    0.1912655    0.1625293 -24.49 0.0005677642    1.162    0.140
       160 -10.0002     35.0315     41.4809   1.0062410025e+02   6.5604580479e+01    0.3029233    0.1310017  29.24  0.001335237    2.626    0.619
       161 -10.1323    127.9603     38.6980   6.6377246184e+01   4.8228331919e+01    0.2955196    0.2303748  65.82 0.0003801714    1.387    0.279
       162 -12.1271    121.6184     37.3562   6.7348179055e+01   4.9990936584e+01    0.5053275    0.4565035 -67.11   0.00138329    1.253    0.202
       163  -9.6648    131.4526     38.5300   6.5521508660e+01   4.7381573548e+01    0.2111305    0.1443299 -14.23 6.364391e-05    1.594    0.373
       164  -9.6041    115.0955     38.8812   6.9597785096e+01   5.1341264350e+01    0.2089562    0.1721085  16.25 0.0005804503    1.301    0.231
       165  -9.6964     99.6153     39.1899   7.4052878247e+01   5.4879863348e+01    0.2023871    0.1369066 -21.76 0.0004126235    1.555    0.357
       166 -10.5022      2.8133     35.5908   1.1571906646e+02   6.9553994272e+01    0.3490495    0.1705403 -30.61  0.001771619    2.280    0.561
       167  -9.1018    146.4990     36.5415   6.1664547771e+01   4.3836019597e+01    0.1478624    0.1450337 -21.53 0.0001231734    1.030    0.029
       168 -10.8482     38.9232     35.6364   9.6495214891e+01   6.6405350191e+01    0.2557025    0.2047214   6.50  0.001152954    1.405    0.288
       169 -12.0476     40.3061     30.5763   9.3671157798e+01   6.7277025284e+01    0.6749461    0.4335311   0.31  0.001232566    2.194    0.544
       170 -11.0764     96.6205     32.9512   7.2277938734e+01   5.6560072181e+01    0.3885829     0.225456 -35.50  0.001730497    1.658    0.397
       171  -9.6552     90.6649     35.3060   7.5177328246e+01   5.7490195206e+01    0.1442461    0.1159127 -71.23 0.0003623143    1.669    0.401
       172  -9.6843    134.1831     34.2483   6.3278805414e+01   4.7290885727e+01    0.2108812     0.180385  28.62 0.0003543094    1.193    0.162
       173  -9.8164     50.4693     33.8470   9.0214539455e+01   6.5186196987e+01    0.1969588    0.1222431 -46.58 0.0007526148    1.468    0.319
       174  -9.1348     73.2814     32.3180   7.9925411955e+01   6.1553770468e+01    0.1428532    0.1060508  -2.50 0.0002231343    1.581    0.367
       175  -9.8164    205.5175     31.0130   5.1207388022e+01   2.9558087369e+01    0.2158995   0.08504578 -43.91 0.0008100337    2.520    0.603
       176  -9.9544    166.4973     30.9738   5.6258171717e+01   3.9366442138e+01    0.2223656    0.1413023 -24.89 0.0005054473    1.530    0.346
       177 -10.2195    128.6507     31.0808   6.3221288862e+01   4.9120614737e+01    0.3738279     0.203662  55.95  0.001224712    1.797    0.443
       178 -10.8304      8.0185     28.5276   1.1076625080e+02   7.0870477745e+01    0.2876776    0.2206212  69.72  0.001788784    1.680    0.405
       179  -9.8054    146.9274     26.6102   5.7898279420e+01   4.4975792813e+01    0.2031236    0.1860129  60.04 0.0004898605    1.101    0.092
       180  -9.1424     18.2996     26.2985   1.0389481137e+02   7.0593116659e+01    0.1306304   0.07966439 -34.24 0.0006995639    1.577    0.366
       181  -9.6242    153.7269     25.5935   5.6368708329e+01   4.3317837213e+01    0.1984007    0.1433232  83.26 0.0005538703    1.572    0.364
       182  -9.6237    120.2369     24.7829   6.2500973709e+01   5.2067684532e+01     0.197201    0.1583207  23.52 0.0009941746    1.297    0.229
       183 -10.3467     58.8046     24.2000   8.1894951438e+01   6.5637403440e+01    0.2551553    0.2149022  10.78   0.00148109    1.210    0.174
       184 -11.4165     18.0153    249.0645   1.2902584277e+02   2.4290285065e+01    0.2095021    0.1434425  15.10  0.001629729    2.247    0.555
       185 -10.4477      1.9680     21.9535   1.1239400798e+02   7.2684530532e+01    0.2476419    0.1479321 -68.27 0.0007334132    1.461    0.316
       186 -11.4194     30.5926     21.2391   9.4538254872e+01   7.0374667144e+01    0.2679421     0.207384 -35.16 0.0005743819    1.100    0.091
       187 -11.1005     14.4882     21.4664   1.0426470931e+02   7.1952368849e+01    0.2844685      0.21324  41.50  0.001435876    1.687    0.407
       188  -9.2316    175.6915     21.3195   5.1699146194e+01   3.8055981066e+01    0.1533335    0.1017239 -55.48 0.0003479764    1.640    0.390
       189  -9.7008    165.0000     21.0208   5.3024560648e+01   4.0869877502e+01    0.2366091    0.0814059 -21.90 0.0007036604    2.872    0.652
       190  -9.5685     84.7802     21.3637   7.0594714380e+01   6.0940165524e+01    0.2030367    0.1238148  41.33 0.0005605072    1.660    0.397
       191  -9.6752    101.0003     19.7651   6.5008828898e+01   5.7437860418e+01    0.2150105    0.1503803 -47.48  0.000991412    1.621    0.383
       192  -9.8474    229.6543    247.9895   9.3822768363e+01  -5.0730992764e-01    0.1340579   0.09597624  11.42 0.0006289073    1.128    0.114
       193 -10.0463    224.2399     17.9952   4.5728568400e+01   2.6464666148e+01     0.174961    0.1019909 -23.13 0.0004144516    1.559    0.358
       194  -9.7880     57.5750    248.1734   1.2240378794e+02   2.0563856307e+01     0.196446   0.04828628  36.82  0.001002445    2.734    0.634
       195  -9.8301    224.9628    246.7091   9.4360253425e+01   1.6522775818e-01    0.1466065   0.09304612  23.34  0.001028917    1.090    0.082
       196  -9.4464    136.5058    245.5580   1.0860210356e+02   1.1558810464e+01    0.1058095   0.07647842  38.20 -7.584978e-05    1.048    0.046
       197  -9.1628     45.2544    244.9694   1.2433662075e+02   2.2296581804e+01    0.1025545    0.0729093  82.74 0.0002421185    1.448    0.310
       198  -9.8756     60.4019    240.9896   1.2151729615e+02   2.1296738164e+01    0.2418502   0.07054846  34.71  0.001249349    2.659    0.624
       199 -10.3846    108.3006     16.5235   6.1640381529e+01   5.6063914090e+01    0.2323233    0.1849644 -18.91 0.0008758466    1.238    0.192
       200 -10.6204    114.6280     24.8421   6.3835394334e+01   5.3460070315e+01    0.4078566    0.2483579  46.24  0.001839055    1.617    0.382
       201  -9.8847     20.0722     16.8930   9.8714555848e+01   7.2398658018e+01    0.2011408    0.1789095  28.34 0.0008476205    1.354    0.261
       202 -10.9948     13.8487     16.1043   1.0234882348e+02   7.3133765972e+01    0.3024116    0.1821253  22.72  0.001048567    1.909    0.476
       203  -9.6809    202.4181    240.2742   9.7026500829e+01   3.5681407499e+00    0.1109413   0.09547661 -16.01 0.0006878347    1.505    0.336
       204  -9.3360     30.3357     16.2460   9.2149605682e+01   7.1376085095e+01      0.12642   0.08840514 -14.14 0.0001867325    1.555    0.357
       205 -10.0784     26.4964     16.1612   9.4384413684e+01   7.1853219280e+01    0.2008657    0.1097328 -48.33  0.001033149    1.594    0.373
       206  -9.8626    175.5326     15.0250   4.9610705247e+01   3.8728609843e+01     0.213387    0.1370005 -21.46 0.0003694757    1.531    0.347
       207 -10.5681    154.6615     14.9540   5.2309669767e+01   4.4214652835e+01    0.3068544    0.2076588  60.61 0.0005142458    1.437    0.304
       208  -9.9615    148.5364    238.9997   1.0585136484e+02   1.0786557529e+01    0.1283326    0.1067437 -41.60  0.001028127    1.601    0.375
       209 -10.5306    190.9437     13.6903   4.7492209209e+01   3.4905852389e+01    0.1957668    0.1808123  77.30 0.0008070979    1.111    0.100
       210 -10.2272    162.0879     13.4573   5.0743371003e+01   4.2400224615e+01    0.2169213    0.1385367  67.50  0.000600908    1.549    0.354
       211 -10.9615     14.1229    238.6949   1.2935494933e+02   2.6171264954e+01    0.1558433   0.09257271  65.11  0.000349605    1.296    0.228
       212 -10.1237     69.5202     13.5035   7.1829511862e+01   6.5290381492e+01    0.2372703    0.1391701  65.82  0.001024783    2.522    0.603
       213 -11.8699     26.6993    235.7167   1.2711577109e+02   2.5486637175e+01    0.2578485    0.1838951 -81.63  0.002181758    1.577    0.366
       214  -9.3326    209.5389    229.5151   9.4460298062e+01   3.6936664300e+00    0.1077432   0.07798675  20.92 0.0001567425    1.018    0.018
       215 -10.6554    140.3032    227.8311   1.0607065257e+02   1.3290724517e+01    0.2300265    0.1458835 -59.04   0.00152039    2.266    0.559
       216  -9.9758    249.1894    234.1071   8.9053796661e+01  -1.7017709181e+00    0.1539541   0.09508784  13.50  0.000433507    1.178    0.151
       217 -10.0739      7.0069    142.2657   1.2680646902e+02   4.4505348080e+01    0.1291264   0.09294633  34.83 0.0003136817    1.473    0.321
       218 -11.5613      8.5695    218.3637   1.2969614721e+02   2.9866826850e+01    0.2548742    0.1602768  18.33   0.00182523    2.180    0.541
       219 -10.3073      4.1021    211.8139   1.3030653698e+02   3.1331547026e+01     0.220775   0.04485234  46.25  0.001157432    2.674    0.626
       220 -10.3848     20.1362    209.8196   1.2726021297e+02   3.0293364679e+01    0.1665878   0.09651431  55.90 0.0009088002    1.289    0.224
       221  -9.4569    247.0000    207.0966   8.5309124677e+01   9.0809574031e-01    0.1562341    0.0535322 -27.39 0.0007998481    2.925    0.658
       222  -9.8712    199.7855     17.4071   4.7752381118e+01   3.2344739203e+01     0.188375    0.1232643  57.54 0.0004581856    1.576    0.366
       223  -9.3618    197.0000    204.0117   9.2836746544e+01   8.1806215939e+00    0.1591238   0.06307111 -35.40 0.0007834237    2.873    0.652
       224 -11.4785      9.5384    203.7308   1.2903268354e+02   3.2271928638e+01    0.2144734    0.1112866  29.09  0.001420407    1.957    0.489
       225 -10.0558     23.1304    197.1520   1.2610934340e+02   3.2248715272e+01    0.1448373    0.1305883  73.46  0.000582945    1.258    0.205
       226 -11.1169     13.9217    192.6616   1.2774690555e+02   3.3881967168e+01    0.1826402    0.1166786  72.46 0.0004268788    1.275    0.215
       227  -9.2865     19.3062    192.6345   1.2666122824e+02   3.3416557632e+01    0.1178928   0.05554265  60.70 0.0001048596    1.745    0.427
       228 -11.2226      6.5170    191.5731   1.2918397500e+02   3.4697997440e+01    0.1911974    0.1387966  63.84  0.001498844    1.021    0.020
       229 -10.5383     12.9660    179.7059   1.2736919231e+02   3.6393351499e+01    0.2396553   0.08625533  68.97  0.001180392    2.715    0.632
       230  -9.5656     22.5344    179.5646   1.2531842881e+02   3.5588140715e+01    0.1089271   0.08597784  65.59 8.871141e-05    1.019    0.019
       231 -11.5304      5.3780    167.2838   1.2845307704e+02   3.9433838663e+01    0.2607685    0.1386549  88.31  0.001192072    1.623    0.384
       232  -9.4901    226.5083    163.9601   8.0962636263e+01   8.3900204210e+00    0.1729903    0.1074447 -22.33 0.0006019539    1.525    0.344
       233 -10.5506     14.7870    163.7932   1.2615982844e+02   3.9387416549e+01    0.1729234   0.09837916 -41.76 0.0009520014    2.789    0.641
       234  -9.5544    247.4906    155.5085   7.6086358508e+01   6.0643498388e+00    0.1223678   0.09363926   3.46 1.512422e-05    1.024    0.024
       235 -10.8848      2.7728    153.5443   1.2842735197e+02   4.2423888162e+01    0.2457467   0.09239985  28.75   0.00130056    2.590    0.614
       236 -10.7677     23.6809    150.8615   1.2321123441e+02   4.1318018877e+01    0.1755619    0.1596809  27.75  0.000690662    1.353    0.261
       237 -10.0079     15.8303    150.3509   1.2510830607e+02   4.2094724800e+01    0.1449906    0.1072935  14.08 0.0009552732    1.775    0.437
       238 -10.4765      2.4138    148.2386   1.2825985836e+02   4.3559579502e+01    0.1638386     0.083657  81.32 0.0009534857    1.671    0.402
       239  -9.7014      7.9900    147.1418   1.2684044445e+02   4.3388965464e+01    0.2053609    0.0876153  53.71  0.001101768    2.027    0.507
