#   1 NUMBER                 Running object number                                     
#   2 MAG_AUTO               Kron-like elliptical aperture magnitude                    [mag]
#   3 X_IMAGE                Object position along x                                    [pixel]
#   4 Y_IMAGE                Object position along y                                    [pixel]
#   5 X_WORLD                Barycenter position along world x axis                     [deg]
#   6 Y_WORLD                Barycenter position along world y axis                     [deg]
#   7 A_WORLD                Profile RMS along major axis (world units)                 [deg]
#   8 B_WORLD                Profile RMS along minor axis (world units)                 [deg]
#   9 THETA_WORLD            Position angle (CCW/world-x)                               [deg]
#  10 FWHM_WORLD             FWHM assuming a gaussian core                              [deg]
#  11 ELONGATION             A_IMAGE/B_IMAGE                                           
#  12 ELLIPTICITY            1 - B_IMAGE/A_IMAGE                                       
         1 -13.6194    200.1965     36.3348   4.9416565295e+01   3.0501295521e+01     1.510564     1.214771  -1.57  0.004868973    1.572    0.364
         2 -13.4785    208.0152     30.7663   4.6898317553e+01   2.9252374821e+01     1.153904    0.8472531 -53.23   0.00401143    1.304    0.233
         3 -12.8973    214.9932     23.8676   4.4281687302e+01   2.8373480408e+01    0.6591681    0.5540221  37.01  0.001554997    1.458    0.314
         4 -13.7865    226.9300     11.1498   3.9937824215e+01   2.6956655522e+01    0.8857546    0.8563144  45.00  0.002793694    1.288    0.224
         5 -11.5593      2.2032      6.7799   9.8355678656e+01   7.3405479353e+01    0.7828131    0.1001076 -51.84  0.002274557    7.624    0.869
         6 -11.7467     41.5126    177.2054   1.1997581225e+02   3.3072530702e+01    0.4264117    0.3415586  10.45  0.001837676    1.928    0.481
         7 -12.7231     64.2199    179.6506   1.1523014945e+02   2.9735993885e+01     1.055001    0.5795246 -32.29  0.003752151    5.208    0.808
         8 -15.5035     93.5103    246.3709   1.1626066953e+02   1.2483982092e+01     9.092361     1.850184  38.34   0.03106269    4.738    0.789
         9 -12.9396     82.4783    159.3222   1.0819012844e+02   3.1789238020e+01     1.268488    0.7217672  58.17  0.001662378    1.908    0.476
        10 -13.3289     67.8979    144.0368   1.0945545696e+02   3.7502657418e+01    0.9273334    0.5850167  83.47  0.002832072    1.888    0.470
        11 -13.3991     63.9785    162.7160   1.1316929718e+02   3.3621067861e+01    0.4865764    0.2903096 -47.38  0.001499991    1.995    0.499
        12 -15.7650      9.0541    240.8497   1.3022093198e+02   2.3795689771e+01     2.739405     1.770543 -85.35   0.02134504    1.397    0.284
        13 -10.5336    134.0000    144.9653   9.2729786613e+01   2.5979834270e+01    0.8540685    0.2032155 -55.20  0.001762194    7.666    0.870
        14 -10.1743    194.8976    168.6822   8.4219356110e+01   8.7396693148e+00    0.3066658    0.2560102  33.41 0.0008763321    1.140    0.123
        15 -10.3800     97.9805    144.7040   1.0175610518e+02   3.2741006968e+01    0.2933656    0.2644792  48.28 0.0007955667    1.153    0.132
        16  -9.8213    100.9988    141.2293   1.0030015879e+02   3.3043053322e+01    0.3838121    0.2578961 -21.81  0.001603308    2.501    0.600
        17 -12.1654     86.2047    143.3844   1.0456798636e+02   3.4974535155e+01    0.2960316    0.2496424 -50.98 0.0005741781    1.234    0.190
        18 -11.6980     83.8799    232.6752   1.1675689086e+02   1.6248561292e+01    0.2952128    0.1670243  51.61  0.001428553    1.420    0.296
        19  -8.9999     81.5725    137.5461   1.0472540471e+02   3.7086037707e+01    0.1426762    0.1269688 -83.70 6.878881e-06    1.039    0.038
        20 -11.3540     76.7185    166.4421   1.1064251863e+02   3.0992632403e+01    0.2520501    0.2225245 -82.82 0.0003146993    1.076    0.071
        21 -10.7419     96.5414    128.8236   9.8941479272e+01   3.6749854978e+01    0.2865422     0.248452 -32.30 0.0007647693    1.305    0.234
        22 -10.0092    136.0000    128.9967   8.8610869454e+01   2.9138335276e+01    0.2604151   0.08745143 -47.19 0.0008046749    2.958    0.662
        23 -10.7263    107.5784    131.7206   9.6593503993e+01   3.4110103539e+01    0.5828725    0.3303371  54.05  0.002427547    1.998    0.499
        24 -10.2519    160.7012    127.1371   8.2198689576e+01   2.4176497841e+01    0.2890331    0.1964227 -48.18  0.001273717    1.494    0.330
        25  -9.9684    115.9948    125.9935   9.3066382804e+01   3.3862464410e+01    0.2453646    0.1920808 -11.43  0.001134811    1.749    0.428
        26 -13.5520     34.2762    211.3673   1.2426532833e+02   2.6675932359e+01    0.6317856    0.5459612 -44.64  0.003778848    1.814    0.449
        27  -9.7118    106.4894    120.7561   9.4409154452e+01   3.6881615331e+01    0.2335692    0.2051454  42.70  0.000441444    1.191    0.160
        28  -9.9885    134.7776    119.9913   8.6715957991e+01   3.1404635298e+01    0.2162879    0.1265371 -46.35 0.0007966498    1.686    0.407
        29 -11.5911    193.3262    194.4594   8.9589748766e+01   4.5973954053e+00    0.6541805    0.4276215 -61.86  0.003065606    2.487    0.598
        30  -9.9756    168.2193    113.2456   7.6941106172e+01   2.5336377763e+01     0.367921    0.2733753 -79.10  0.001223421    1.881    0.468
        31  -9.5219    205.2294    110.1943   6.8558739592e+01   1.7301630022e+01    0.2306731     0.207101   0.05  0.001056501    1.185    0.156
        32 -14.5699      9.8282    207.0922   1.2847079701e+02   3.0044232230e+01     1.075378    0.9220899  47.24   0.00356792    1.485    0.327
        33  -9.0339    159.6678     80.6867   6.9730152120e+01   3.3786833396e+01    0.1624195    0.1238201  15.86 0.0003508165    1.680    0.405
        34  -9.6523     13.4799     60.0433   1.1050808804e+02   6.2558301992e+01    0.1838643   0.09522811 -60.53 0.0004556483    1.526    0.345
        35 -16.2467     42.1616    198.3127   1.2174604926e+02   2.8443272615e+01     9.726951     3.759552  78.36   0.03673941    4.057    0.754
        36 -10.7091     49.3479    180.8573   1.1863612242e+02   3.1350092845e+01    0.2589261    0.1866217 -84.68  0.000826885    1.196    0.164
        37 -12.3902    101.5030    171.4881   1.0554385584e+02   2.5982803079e+01     1.988809    0.2403209  45.62  0.004218753    8.381    0.881
        38 -13.1646     57.7010    130.6671   1.0999420971e+02   4.2046119078e+01     2.570061    0.7915193 -73.63  0.005801417    8.026    0.875
        39 -10.1664    189.4958     15.0699   4.4822240163e+01   3.5773119975e+01    0.2005891    0.1353496 -29.42 0.0007238897    1.572    0.364
