#   1 NUMBER                 Running object number                                     
#   2 MAG_AUTO               Kron-like elliptical aperture magnitude                    [mag]
#   3 X_IMAGE                Object position along x                                    [pixel]
#   4 Y_IMAGE                Object position along y                                    [pixel]
#   5 X_WORLD                Barycenter position along world x axis                     [deg]
#   6 Y_WORLD                Barycenter position along world y axis                     [deg]
#   7 A_WORLD                Profile RMS along major axis (world units)                 [deg]
#   8 B_WORLD                Profile RMS along minor axis (world units)                 [deg]
#   9 THETA_WORLD            Position angle (CCW/world-x)                               [deg]
#  10 FWHM_WORLD             FWHM assuming a gaussian core                              [deg]
#  11 ELONGATION             A_IMAGE/B_IMAGE                                           
#  12 ELLIPTICITY            1 - B_IMAGE/A_IMAGE                                       
         1 -10.1384     38.9499      8.6806   6.2413252954e+01   7.3469273127e+01    0.7277244    0.4817009 -46.59  0.003768269    1.682    0.406
         2 -12.1913     44.7712     23.2623   6.7219829599e+01   6.9812269723e+01     1.098275    0.9078071 -72.94  0.005937668    1.651    0.394
         3 -11.1998     77.4541     17.7120   4.7751291437e+01   6.4077963624e+01     1.438014    0.4908574 -24.17  0.004263715    4.363    0.771
         4 -11.5773    144.2244      3.5920   2.6015416880e+01   4.7890839766e+01     1.103548    0.4972609  75.12  0.004505882    2.078    0.519
         5 -12.9387    168.7666     16.1169   2.7363755696e+01   4.0181165259e+01     1.297749    0.7914044  88.57  0.005139389    1.725    0.420
         6 -13.5939    162.4034      6.5708   2.4965960261e+01   4.2763318247e+01     2.885633     1.467019  66.55   0.01304494    1.815    0.449
         7 -10.4732    116.2627     17.3870   3.6221889030e+01   5.4124889065e+01    0.7540489    0.3459772 -44.75  0.002884617    2.440    0.590
         8  -9.9989    129.4642     12.8368   3.1751746181e+01   5.1034557981e+01    0.4497145    0.2737578  38.55   0.00200124    1.836    0.455
         9 -10.4522    248.1994     16.3030   2.0984335601e+01   2.2287393327e+01    0.2656332    0.1306846 -29.56  0.001418084    1.661    0.398
        10  -9.7941    228.8475     16.0794   2.2113948385e+01   2.6135939804e+01     0.248993    0.1751004 -82.33  0.001533107    1.482    0.325
        11 -10.3358    128.4334     17.7594   3.3904500200e+01   5.0781612527e+01    0.4092495     0.369926  64.94  0.001682932    1.036    0.034
        12 -11.6263     83.8128      3.7560   3.7882880487e+01   6.4229099888e+01     1.077188    0.4388902  63.35  0.003909122    2.284    0.562
        13  -9.6073     20.7804     13.8338   7.9935029314e+01   7.4933879914e+01     0.454659    0.1834391 -44.09  0.001949825    2.253    0.556
        14  -9.2391    105.0939     12.8828   3.6784386591e+01   5.7645596286e+01    0.3668059    0.2226831 -29.67  0.001669265    1.741    0.426
        15 -10.3854    250.0981      6.6949   1.8759017390e+01   2.2805530662e+01    0.5134659    0.1048323 -28.09  0.002072374    3.332    0.700
        16 -10.7299     71.2143      5.6383   4.3288140216e+01   6.7160189750e+01    0.5329601    0.3062082  58.60   0.00176944    1.659    0.397
        17  -9.2107    230.1511      7.1548   1.9895106249e+01   2.6696652440e+01    0.2373739    0.1051858 -43.55  0.001216277    1.815    0.449
        18 -10.5238    192.4765      5.5869   2.1955229539e+01   3.5266853900e+01    0.3299519    0.1978207 -48.94  0.001430694    1.516    0.340
        19  -9.2974    110.7401      1.5549   3.0309212253e+01   5.7250179868e+01    0.2964961    0.2001613  84.31 0.0007551094    1.506    0.336
        20 -11.0271    131.1044      3.8265   2.7884198464e+01   5.1454658304e+01     0.899639    0.3269923  60.60  0.003313367    2.315    0.568
        21 -11.1679    120.9931      4.0137   2.9563215008e+01   5.4217197886e+01      0.80493    0.4466384  71.34  0.003262955    1.652    0.395
        22 -10.0195    112.4346      5.1536   3.1624898222e+01   5.6458508614e+01     0.365995    0.2488691  82.72  0.001114522    1.499    0.333
        23 -10.9528    106.4996      4.7446   3.2645032751e+01   5.8114066010e+01    0.7015159     0.406025 -83.22  0.002881581    2.273    0.560
        24 -10.4785    223.3255      4.6688   1.9680257341e+01   2.8349921546e+01    0.4544007    0.1736646 -41.16  0.002175316    2.054    0.513
        25 -10.3587    204.0620      4.6730   2.0873028503e+01   3.2619876966e+01     0.288241    0.2078381 -86.94  0.001698995    1.355    0.262
        26  -9.8357    208.4835      4.0734   2.0424344605e+01   3.1663091701e+01    0.2407248    0.2038947 -40.63  0.001082408    1.103    0.093
        27 -10.0802     95.2665      2.2461   3.3965115782e+01   6.1375936379e+01    0.3532035    0.3082347  84.65  0.001963545    1.178    0.151
        28 -10.4641     61.1381      2.2782   4.5351326317e+01   6.9930305943e+01    0.5465106    0.2728451  45.86  0.002424376    1.799    0.444
        29  -9.4601    217.3684      1.8778   1.9326904462e+01   2.9879892625e+01    0.2189413    0.1493831 -73.98   0.00130987    1.401    0.286
        30  -8.3558     17.4771      1.5375   7.5700889141e+01   7.7787429184e+01    0.1290962    0.1107708 -15.08 0.0001536873    1.005    0.005
        31  -7.7799      1.2955      1.3522   9.3433770746e+01   7.8999143704e+01     0.139031   0.06951308 -39.14 0.0007033145    1.685    0.407
        32  -8.9100    215.5118     50.5057   3.1818654185e+01   2.5237006401e+01    0.1290164    0.1162703 -35.84 0.0008105187    1.012    0.012
        33 -10.2187     85.4154     47.9983   5.8775945865e+01   5.7074202415e+01     0.590921    0.3752972  57.05  0.002544374    1.761    0.432
        34 -10.6013     81.8429     38.3938   5.6116763809e+01   5.9678534967e+01    0.6070577    0.4721388 -39.43  0.003031264    1.340    0.254
        35 -10.6824      3.2549     41.1022   1.0193773610e+02   6.9509062769e+01    0.5149338    0.4245224  61.84  0.002863429    1.347    0.258
        36  -9.6300      6.0652     35.5942   9.9059738724e+01   7.0791640042e+01    0.3257439    0.2258738  16.12  0.001843749    1.566    0.361
        37 -11.0650    203.7196    223.0045   6.8927294947e+01   4.5196183149e+00    0.2525641    0.1529379  33.59  0.001525078    1.575    0.365
        38  -9.7054     53.2520     39.5014   6.9986047312e+01   6.5077102428e+01     0.425887    0.2091191 -48.57  0.001767689    2.029    0.507
        39 -10.4071     48.1519     35.0699   7.0909227255e+01   6.6848046784e+01    0.7365326    0.4334742 -65.95  0.003073369    2.462    0.594
        40 -10.8834     40.1532     28.9277   7.2981188072e+01   6.9357024161e+01    0.6429217    0.3684887 -45.44  0.002516928    1.681    0.405
        41  -8.1154    116.0415    220.0024   8.5995044026e+01   1.6214464968e+01    0.1435626     0.107189  29.14  0.000941902    1.018    0.017
        42 -10.6869    184.2703     39.9000   3.2694914583e+01   3.3606063165e+01    0.3411899    0.2816758   4.90  0.001883062    1.420    0.296
        43  -9.8771    190.9543     37.7971   3.1251768164e+01   3.2261582919e+01    0.4940681    0.1289321 -34.24  0.001716876    3.079    0.675
        44  -9.3422     12.0181     33.7353   9.4390485708e+01   7.0990746080e+01    0.4127652    0.1556944 -67.64  0.001515352    2.339    0.572
        45  -9.6277    198.1267     34.8595   2.9607845178e+01   3.0923652965e+01    0.2198623    0.1693029 -57.98  0.001017584    1.271    0.213
        46  -8.7757     66.0101     35.5162   6.1703935856e+01   6.3568932389e+01    0.2321861    0.1409124  43.52  0.001035367    1.611    0.379
        47 -10.5114     86.0195     31.4819   5.1378304438e+01   5.9918044952e+01    0.3598399     0.281427  48.04  0.001592898    1.209    0.173
        48  -9.2961     90.2612     28.7514   4.8594903339e+01   5.9336419000e+01    0.3405311    0.2778778 -12.73   0.00173023    1.353    0.261
        49  -9.6064     66.9744     29.5123   5.8373126635e+01   6.4499140870e+01    0.2915826    0.2049356 -18.51  0.001371722    1.676    0.403
        50  -9.8604    226.5064     29.0857   2.5442268145e+01   2.5321764540e+01    0.3368746    0.1852122  72.81  0.001798233    2.004    0.501
        51  -9.2070    211.6272    214.1857   6.6262015512e+01   4.5481176215e+00    0.1512359    0.0868472 -16.75 0.0009510191    1.696    0.410
        52 -11.4207    178.3755     23.7394   2.8624263067e+01   3.6932796297e+01    0.5751599    0.4034178  81.01  0.003001541    1.441    0.306
        53 -11.8606     10.7994    142.2466   1.0693476053e+02   4.3703194489e+01    0.6974772    0.2907594  85.34  0.003143072    2.376    0.579
        54  -8.9105     53.9868    143.4883   9.3497957141e+01   3.9490308860e+01    0.2112842    0.1825895 -85.25 0.0007748767    1.192    0.161
        55  -9.4239     39.1811    141.1372   9.7940953936e+01   4.1644245203e+01    0.2879379    0.1715022 -60.38  0.001450284    1.751    0.429
        56 -10.1784    187.5280     19.3400   2.6333709947e+01   3.5138311066e+01    0.2688995    0.2424197 -73.76  0.001233962    1.044    0.042
        57  -8.1273     24.3171    141.6535   1.0269667579e+02   4.2854097241e+01    0.1454536   0.07856144  56.13 0.0007048407    1.724    0.420
        58 -12.8405    240.6085    130.5142   4.6768796539e+01   1.0610350515e+01     1.095387    0.8211981 -37.10  0.007179901    1.465    0.318
        59  -9.6936     94.5602     17.3779   4.1770287865e+01   5.9873812889e+01     0.424015    0.2695106  83.30   0.00178689    2.116    0.527
        60 -11.8056    250.0009    127.6007   4.4903871140e+01   9.5600313165e+00     1.380821    0.2069956 -33.39   0.00450167    5.064    0.803
        61  -9.9300     18.0269    127.9650   1.0379986822e+02   4.6656445425e+01     0.202871    0.1809884  71.33 0.0006972711    1.016    0.016
        62  -9.9751      4.6996    124.4134   1.0808520161e+02   4.8351235771e+01    0.3039656    0.1017119  47.89  0.001264587    2.611    0.617
        63  -9.5598    188.4173    117.3112   5.2422002544e+01   2.1441100587e+01    0.2690708    0.1275936 -29.30  0.001136429    2.176    0.540
        64  -9.6190     64.2707     15.9874   5.2413602959e+01   6.7342992512e+01    0.2008161    0.1857218  -1.03 0.0007666125    1.074    0.069
        65 -11.0724    242.4228    108.5639   4.2001163519e+01   1.3022394429e+01     0.331625     0.263638 -87.42  0.002040358    2.149    0.535
        66 -10.2106     17.3962    104.3087   1.0217731896e+02   5.2651365799e+01    0.3184825    0.2320232 -82.75  0.001777461    1.284    0.221
        67  -9.6628     30.6215    101.9011   9.6674151429e+01   5.2278985443e+01    0.3168895    0.1373917 -60.71  0.001329675    2.122    0.529
        68 -10.0728      2.5365     88.5952   1.0701534064e+02   5.7429433739e+01    0.4713836    0.2170075  85.34  0.002132974    2.080    0.519
        69  -8.2320    220.4786     11.4768   2.1536160508e+01   2.8337857644e+01    0.1231782    0.1064129 -50.50  0.000116299    1.017    0.016
        70  -8.7225    193.7971     87.0362   4.4129744953e+01   2.4973168434e+01    0.1916827     0.158497 -81.96  0.001042126    1.584    0.369
        71 -11.8528     42.9464     80.9568   8.7913695935e+01   5.6486951536e+01     1.167654    0.7677234  -7.27  0.005348335    1.965    0.491
        72 -11.4332      4.6510     76.3649   1.0517422933e+02   6.0489170109e+01    0.8294762    0.4656506  65.55  0.004007224    1.852    0.460
        73 -11.4287     13.4785     72.9005   1.0056281241e+02   6.0998043795e+01    0.8843866    0.5056465  60.10  0.004239904    1.933    0.483
        74 -10.6461     18.8830     73.6782   9.8012401579e+01   6.0485497288e+01    0.4032746    0.3095752 -46.12  0.002262413    1.278    0.218
        75  -8.8265    169.9619     76.1909   4.5463139128e+01   3.1899998930e+01    0.2189663    0.1587354 -55.04 0.0009854255    1.580    0.367
        76  -9.9031     75.3257     69.1155   7.0497081958e+01   5.4596484949e+01    0.4413927    0.3565418  19.59  0.002040427    1.326    0.246
        77  -9.0270     83.5070     69.1430   6.7235558822e+01   5.3032741183e+01    0.2599926    0.2191411  12.73  0.001174363    1.308    0.235
        78 -10.0821     25.0973     65.5664   9.3483684592e+01   6.2146710000e+01    0.4746338    0.2870683 -57.83  0.001862078    1.501    0.334
        79  -9.0699    144.8367     80.9221   5.2180771245e+01   3.6968280460e+01    0.2472625    0.2098581  13.83  0.001246393    1.299    0.230
        80  -8.5761     76.3250     59.6487   6.6883671598e+01   5.6536611209e+01    0.1562587    0.1221364  81.28 0.0007048163    1.758    0.431
        81  -9.1753    198.8566     55.1655   3.5037564592e+01   2.8286033846e+01     0.187542    0.1591084  23.84  0.001027859    1.333    0.250
        82  -8.5408    165.0000     53.0075   3.9554520583e+01   3.6594880017e+01    0.2451323   0.08205768 -30.34 0.0008077752    2.980    0.664
        83  -8.9997     34.8987     52.7299   8.5041859259e+01   6.4492132591e+01    0.2700321    0.1745999  27.01  0.001327642    1.575    0.365
