#   1 NUMBER                 Running object number                                     
#   2 MAG_AUTO               Kron-like elliptical aperture magnitude                    [mag]
#   3 X_IMAGE                Object position along x                                    [pixel]
#   4 Y_IMAGE                Object position along y                                    [pixel]
#   5 X_WORLD                Barycenter position along world x axis                     [deg]
#   6 Y_WORLD                Barycenter position along world y axis                     [deg]
#   7 A_WORLD                Profile RMS along major axis (world units)                 [deg]
#   8 B_WORLD                Profile RMS along minor axis (world units)                 [deg]
#   9 THETA_WORLD            Position angle (CCW/world-x)                               [deg]
#  10 FWHM_WORLD             FWHM assuming a gaussian core                              [deg]
#  11 ELONGATION             A_IMAGE/B_IMAGE                                           
#  12 ELLIPTICITY            1 - B_IMAGE/A_IMAGE                                       
         1 -14.2799    170.0436     42.9075   7.5165158545e+01   3.7676589278e+01     1.556113    0.8898162  33.08  0.005504312    2.526    0.604
         2 -13.9965    182.0970     30.3096   6.9776033636e+01   3.6326609884e+01    0.7381616    0.6928115   0.75  0.004273289    1.314    0.239
         3 -14.5913    187.0773     22.5307   6.7036550905e+01   3.6029763641e+01     1.091582     0.859847  -6.25  0.001618211    1.737    0.424
         4 -10.3532     77.9846    231.0469   1.3699129550e+02   1.6929778309e+01    0.2261497    0.1230163  69.77   0.00114877    1.887    0.470
         5 -15.9523     71.2436    149.6478   1.2760072356e+02   3.6323386520e+01     4.070572      2.35771  72.66    0.0173486    2.435    0.589
         6 -12.9666     11.7950    206.3288   1.4723123399e+02   3.0354932633e+01    0.4205075    0.2948837  36.56  0.002660947    1.793    0.442
         7 -19.2576     28.7219    139.0263   1.3684046661e+02   4.3861963396e+01     19.77347     2.351581 -68.01   0.04345549    9.009    0.889
         8 -11.3566     59.0107    201.7666   1.3763365260e+02   2.5845832294e+01    0.2419464    0.1690106  63.22  0.001358738    1.271    0.213
         9 -12.9584    197.8900    197.8502   1.0736536352e+02   2.0042144850e+00    0.8294882    0.5066744  55.33  0.003812216    1.921    0.479
        10 -11.7632    189.2961    187.4211   1.0708917283e+02   5.6408307042e+00     0.642126    0.3660314 -57.80  0.002677898    2.302    0.566
        11 -13.5450     76.8003    195.3515   1.3310683204e+02   2.4749351919e+01    0.7399434    0.6782563  78.35  0.003184448    1.171    0.146
        12  -9.7553     58.3063    225.7163   1.4019543158e+02   2.0820094100e+01    0.1276187   0.07372048  69.38 0.0004185353    1.562    0.360
        13 -10.4439     93.1435    197.9789   1.2990762946e+02   2.1601547104e+01     0.209764    0.1574254  75.90 0.0002681527    1.265    0.209
        14 -10.6268    181.2398    195.1710   1.1026967701e+02   5.7415281848e+00    0.3216779    0.2257475 -84.10  0.001367671    2.380    0.580
        15 -10.0021    158.2807    193.6321   1.1487330472e+02   1.0588958706e+01    0.1481209      0.11247  85.17  0.000701363    1.688    0.408
        16 -11.7572    208.1273    186.1832   1.0302455425e+02   2.1656990630e+00    0.3351434    0.2735395  -1.10 0.0009418347    1.350    0.259
        17 -12.0454    212.7035    182.6270   1.0140310754e+02   1.9306865852e+00    0.3897054    0.2681979  16.71  0.001342497    1.808    0.447
        18 -10.0195     92.2363    185.3785   1.2828304020e+02   2.4610411997e+01    0.1907897    0.1183025  53.29  0.000235297    1.555    0.357
        19 -12.3530     85.9628    179.7930   1.2887862887e+02   2.6916940481e+01    0.4427031    0.2689264 -52.90  0.002154321    1.712    0.416
        20 -12.1556     89.0714    174.7764   1.2737546031e+02   2.7596839028e+01    0.3835936     0.271377 -46.54 0.0009925935    1.622    0.384
        21 -16.3615    120.8727    246.1366   1.3049702724e+02   7.2110861872e+00     5.848614     2.471812  41.60   0.02712427    2.060    0.514
        22 -11.2865    198.6905    178.1030   1.0327188893e+02   5.5537254301e+00    0.3499092    0.2582086 -55.64  0.001020413    1.538    0.350
        23 -10.5954    166.5803    208.7928   1.1580993944e+02   5.9679599128e+00    0.3148203    0.2141782  70.22  0.001265442    1.994    0.499
        24 -11.5093    126.5505    172.8749   1.1818652196e+02   2.1367640930e+01    0.3217324    0.1856941  58.73  0.001331959    1.953    0.488
        25 -11.8184     79.2941    220.2665   1.3557941066e+02   1.8945738818e+01    0.4352161    0.2203186  48.65  0.002111573    1.736    0.424
        26 -11.6129    137.1612    170.8633   1.1531423161e+02   1.9740136674e+01    0.2433956    0.2039026  78.28 0.0007986832    1.253    0.202
        27 -11.0389    184.7788    168.2028   1.0409160842e+02   1.0398932470e+01    0.3147146    0.2388621 -74.10 0.0009606748    1.716    0.417
        28  -9.5995    121.2622    164.6181   1.1787090407e+02   2.4295231638e+01    0.1563741    0.1130212  88.97 0.0005957924    1.680    0.405
        29 -12.2148     99.8766    157.8866   1.2183600587e+02   2.9801995382e+01    0.5988172     0.357494 -37.16  0.001709154    2.275    0.560
        30 -13.7560     66.9464    210.1873   1.3693803432e+02   2.2901179900e+01     0.847078    0.6254618  58.20  0.002074537    1.212    0.175
        31 -10.5513    161.4967    153.5091   1.0602895759e+02   1.8535246817e+01    0.1543851    0.1511214  78.33 -8.728318e-05    1.013    0.012
        32 -11.4739    134.0000    144.0080   1.1044550464e+02   2.6558461445e+01    0.7135852    0.2144026 -55.60  0.001878752    4.372    0.771
        33 -11.3345    110.1639    141.4408   1.1591618081e+02   3.1873683783e+01    0.4858919    0.2600176 -35.65   0.00179871    2.615    0.618
        34 -12.3848     98.9710    142.1823   1.1898521858e+02   3.3720327681e+01    0.2782947    0.2723477 -14.73 0.0004474893    1.177    0.150
        35 -11.3574     53.8335    209.7561   1.3951693448e+02   2.4787423349e+01    0.3073317    0.2704095  22.13  0.001996463    1.706    0.414
        36 -10.8967     82.5039    212.2567   1.3400629990e+02   2.0155441927e+01    0.2660791    0.2261283  33.62  0.000988003    1.498    0.332
        37 -11.3644    116.8436    131.2641   1.1190247305e+02   3.2992720430e+01    0.4161606     0.280975 -15.76  0.001621027    2.591    0.614
        38 -11.6513    105.1168    128.8795   1.1446436449e+02   3.5777406562e+01    0.4843837    0.2995823 -64.61  0.001430043    1.775    0.437
        39 -11.4318    160.5830    126.5291   9.9907838270e+01   2.4672530757e+01     0.361737    0.2266798 -55.42  0.001223471    1.711    0.416
        40  -9.9915    111.2496    120.1835   1.1075460766e+02   3.6645372255e+01    0.1996561    0.1717788 -89.47  0.000317029    1.285    0.222
        41 -11.1596    168.6996    113.5284   9.4784107280e+01   2.5552854486e+01     0.332991     0.260304 -75.79 0.0009776033    1.511    0.338
        42 -10.8996     52.9274    206.0026   1.3931830990e+02   2.5721731063e+01    0.2279191    0.1514844  57.28 0.0005383343    1.349    0.259
        43 -10.2236    205.5948    110.2212   8.6433406236e+01   1.7480721447e+01    0.2091598    0.1448955 -31.02 0.0005910209    1.570    0.363
        44 -11.0095    169.0001    212.3048   1.1591327963e+02   4.8444145419e+00    0.2076295    0.1870394 -50.95 0.0003991404    1.227    0.185
        45 -10.1155      5.2132    236.3715   1.5022023845e+02   2.4965180366e+01     0.096423    0.0644424 -71.76 0.0003807233    1.579    0.367
