#   1 NUMBER                 Running object number                                     
#   2 MAG_AUTO               Kron-like elliptical aperture magnitude                    [mag]
#   3 X_IMAGE                Object position along x                                    [pixel]
#   4 Y_IMAGE                Object position along y                                    [pixel]
#   5 X_WORLD                Barycenter position along world x axis                     [deg]
#   6 Y_WORLD                Barycenter position along world y axis                     [deg]
#   7 A_WORLD                Profile RMS along major axis (world units)                 [deg]
#   8 B_WORLD                Profile RMS along minor axis (world units)                 [deg]
#   9 THETA_WORLD            Position angle (CCW/world-x)                               [deg]
#  10 FWHM_WORLD             FWHM assuming a gaussian core                              [deg]
#  11 ELONGATION             A_IMAGE/B_IMAGE                                           
#  12 ELLIPTICITY            1 - B_IMAGE/A_IMAGE                                       
         1 -11.9201     41.4569     29.4603   8.9242424149e+01   6.6065489885e+01     0.759024    0.4169361   1.06  0.002455765    2.687    0.628
         2 -11.7590     76.3975     22.5121   7.2270384324e+01   6.1836528848e+01    0.5301661    0.3129918 -40.76  0.002455352    1.893    0.472
         3 -10.7995      1.9563     22.6665   1.0566780802e+02   7.0655697939e+01    0.3794746    0.1256362 -55.48   0.00189051    2.295    0.564
         4 -10.6320     22.6716      9.1979   8.9063306455e+01   7.1369613204e+01    0.3436067    0.2017315  -1.82   0.00204372    1.827    0.453
         5 -11.0353     20.5641      1.9948   8.6468664368e+01   7.2629590779e+01    0.2217823    0.1502598   4.44 0.0007578856    1.346    0.257
         6  -9.9702     25.7455      2.6720   8.4082156290e+01   7.1981155058e+01    0.2348316    0.1495192  13.92  0.001115319    1.506    0.336
         7 -11.9191     30.2367      7.1422   8.4152812493e+01   7.0852881036e+01    0.3468873    0.2878297  -9.36  0.002295708    1.167    0.143
         8 -11.9250     34.7849     12.8836   8.4817351056e+01   6.9493607488e+01    0.4294727    0.2840533 -36.79  0.002146704    1.433    0.302
         9 -10.6744     42.9575     18.6799   8.3802339303e+01   6.7614707739e+01    0.4313056    0.2164298 -18.10  0.002018616    2.466    0.595
        10 -10.6531     20.9599     17.8723   9.3992918364e+01   7.0153641511e+01    0.2815482    0.2408506 -77.85  0.001900333    2.058    0.514
        11 -11.8295    234.3053     14.8010   4.0488494895e+01   2.4903935341e+01    0.4048056    0.2270679 -73.90  0.001985255    1.868    0.465
        12  -9.5652     88.8186      7.3954   6.1475066840e+01   6.1188001437e+01    0.4220023     0.124835 -34.99  0.001562438    3.592    0.722
        13 -11.0386     89.2479     13.4094   6.4049855322e+01   6.0465203610e+01    0.4291932    0.3358092  74.03   0.00162866    1.764    0.433
        14 -10.2984     92.5403     10.0039   6.1582513427e+01   6.0147106179e+01    0.2555998    0.1481756  38.21  0.000363102    1.579    0.367
        15 -10.6891     71.9995     13.6494   6.9749197447e+01   6.3768893991e+01    0.3592049    0.1930133 -25.08  0.001194536    1.796    0.443
        16  -9.8568     63.5358     10.7515   7.1436762561e+01   6.5602667077e+01    0.2005679    0.1710737  84.64 0.0009398903    2.078    0.519
        17 -10.5389    125.7542     10.6515   5.3841137642e+01   5.2534657265e+01    0.3186409    0.2167615 -53.88  0.001184594    1.850    0.459
        18 -11.8466     57.1421      3.6089   7.0291602877e+01   6.7497165117e+01    0.5299522    0.3143511 -15.17   0.00301656    1.594    0.373
        19  -9.8546     15.2160      9.0149   9.2951664292e+01   7.2090369592e+01    0.1734714     0.110735 -23.70 0.0004224098    1.250    0.200
        20 -10.5879    224.1290      7.8066   3.9688325155e+01   2.8082462999e+01    0.2087404    0.1536721 -66.66  0.000585772    1.221    0.181
        21  -9.7091    156.1622      7.8359   4.7493141432e+01   4.5202343254e+01    0.1850031    0.1470885  41.51 0.0002457393    1.271    0.213
        22  -9.8899    210.6750      7.6532   4.0878198348e+01   3.1363286488e+01    0.1343778   0.09647637  39.63 0.0007049914    1.745    0.427
        23 -11.0491     71.3398      5.9634   6.6287943806e+01   6.4759578575e+01    0.3298017    0.3007365  48.18  0.002208925    1.368    0.269
        24 -10.8145     36.7384      6.1659   8.0474519020e+01   7.0191307925e+01    0.2154794    0.1791253 -22.27 0.0008610205    1.290    0.225
        25 -10.5725      8.3774      5.5366   9.5090909818e+01   7.3189727367e+01    0.3525921    0.1813182  39.65  0.001946437    3.223    0.690
        26  -9.8800      2.4236      6.4867   9.8967518478e+01   7.3452285189e+01    0.1923043    0.1200441  17.88 0.0009081525    1.797    0.443
        27  -9.9553     41.0867      6.1183   7.8421176643e+01   6.9621520194e+01    0.1889315    0.1300131  -4.63 0.0006074054    1.277    0.217
        28 -10.7195    107.3538      4.9304   5.5585948533e+01   5.7389170424e+01    0.3724612    0.2141665  59.73  0.001864253    1.640    0.390
        29 -10.2640    101.2655      2.2643   5.5906904146e+01   5.8992040907e+01    0.4022187    0.2393827  56.93  0.001229529    1.548    0.354
        30  -9.4130    120.8377      4.1749   5.2348574268e+01   5.4311640523e+01    0.1910054    0.1375038  36.31 0.0003622735    1.307    0.235
        31 -10.1727    130.0226      3.0513   5.0153844962e+01   5.2187888156e+01    0.2046016    0.1556228 -66.16 0.0004781362    1.609    0.379
        32  -8.8365    112.2973      3.2636   5.3782352091e+01   5.6400412016e+01    0.1368452   0.08616187  35.12 0.0002042461    1.511    0.338
        33  -9.7638    176.3031      2.1644   4.3024467553e+01   4.0567185002e+01    0.2092633    0.1668407  28.18  0.001179287    1.481    0.325
        34  -9.6741    139.6725      2.6561   4.8330031775e+01   4.9835909713e+01     0.148756   0.08874111  36.78 0.0007050821    1.744    0.427
        35  -9.2796     90.3425      2.6873   5.8911391562e+01   6.1317692681e+01    0.1210819    0.1009532 -65.10 0.0007046683    1.703    0.413
        36 -11.4359     80.2873      1.6817   6.1336801290e+01   6.3467106528e+01    0.3032691    0.1522834  48.35  0.001103625    1.770    0.435
        37  -9.7658    187.1143      1.2608   4.1543289111e+01   3.7896485893e+01    0.1885783    0.1062784  83.33 0.0003599699    1.716    0.417
        38  -9.7512     64.9862      7.0192   6.9056461893e+01   6.5786143695e+01    0.1719749    0.1535466 -51.89 0.0006493312    1.645    0.392
        39  -9.9377      9.9408      1.4772   9.2157286711e+01   7.3687916049e+01    0.1445683   0.09606757  14.08  0.001011379    1.536    0.349
        40  -9.1720    237.7372    149.6686   7.2513072370e+01   3.6616520852e+00    0.1400527   0.09968279  -2.15 0.0002748402    1.574    0.365
        41 -12.3512      9.8407    227.9996   1.2972915224e+02   2.6008967740e+01    0.3926142    0.2272724 -88.53  0.001690694    1.410    0.291
        42 -11.2828      3.0935    248.9613   1.3164662806e+02   2.2959276801e+01    0.4116532    0.1829993  54.21   0.00287348    1.573    0.364
        43 -12.2673      4.4388    233.0069   1.3082125882e+02   2.5619918961e+01    0.4630012    0.1441093  62.65  0.002477372    2.542    0.607
        44 -11.1226      1.5270    226.1765   1.3100810076e+02   2.7137377496e+01    0.2821376    0.1075486 -87.65  0.001642364    2.189    0.543
        45 -12.0368      9.0224    245.1736   1.3059860870e+02   2.3025461177e+01    0.3814654    0.2183188  27.57  0.002484426    2.758    0.637
        46 -12.4850      5.1283    240.8423   1.3102830299e+02   2.4161875646e+01    0.5405874    0.2004661  51.42  0.003413014    1.901    0.474
        47  -9.5079     24.6225    139.1493   1.2029281200e+02   4.3440000093e+01    0.1795135    0.0885627 -63.32 0.0007940777    1.684    0.406
        48 -10.2044    212.6144    133.9097   7.3450719471e+01   1.1390576175e+01    0.2621269    0.2153349  56.86 0.0006063888    1.369    0.269
        49  -9.3818     96.0170    133.9374   1.0060833358e+02   3.5587704094e+01    0.1756289    0.1619178 -77.73 0.0004873423    1.008    0.008
        50 -10.4953      2.2425    133.1049   1.2524745172e+02   4.6557619928e+01    0.2435126    0.1537068  50.13  0.001356655    1.685    0.407
        51  -9.2815     35.3778    130.8484   1.1648956034e+02   4.4401935547e+01     0.182948   0.09422877 -59.97 0.0004997215    1.649    0.394
        52 -10.9791     11.7777    129.7150   1.2253413707e+02   4.6676879710e+01    0.2293792     0.169554  82.42  0.000862781    1.205    0.170
        53 -10.3335    248.5056    129.4890   6.6217338065e+01   4.8560882075e+00    0.1393814    0.1224266 -21.90 -6.55671e-05    1.010    0.010
        54  -9.0059     20.2902    125.2796   1.1981021436e+02   4.7061600639e+01    0.1184375   0.07941948 -50.76            0    1.525    0.344
        55  -8.8383    134.7192    124.6674   8.8381036541e+01   3.0374523566e+01    0.1544016    0.1239418 -11.00 0.0002618261    1.610    0.379
        56 -11.9415     23.8968    121.0577   1.1830088073e+02   4.7763599788e+01    0.4297945     0.248113  81.37   0.00112938    1.885    0.469
        57 -11.1709      8.2856    121.6038   1.2258858956e+02   4.8803066759e+01    0.3070342    0.1750567  72.19 0.0006960366    1.840    0.457
        58 -11.3046     65.9194    110.8919   1.0438526302e+02   4.5699185373e+01    0.3140031     0.244517  81.12  0.001016983    1.464    0.317
        59 -11.8448      4.5932    108.5623   1.2214259076e+02   5.2054434761e+01    0.3751843    0.2674149 -31.71  0.001971246    1.751    0.429
        60  -8.9614    102.9984    109.2258   9.3093252846e+01   4.0195442733e+01     0.175564     0.125603  41.28  0.000823414    1.473    0.321
        61  -9.3526     35.6908    109.3171   1.1316998475e+02   4.9514223651e+01    0.1299059    0.0899234  77.17 0.0003340297    1.636    0.389
        62 -11.3080     57.8321    107.4621   1.0612207094e+02   4.7560107267e+01    0.3181994     0.238864  -5.89  0.001143614    1.842    0.457
        63  -9.5921     88.6910    105.6373   9.6370737895e+01   4.3536182463e+01    0.1531069    0.1107271 -25.18 0.0004308061    1.745    0.427
        64 -10.4249     18.1869    104.5772   1.1766635572e+02   5.2090511634e+01    0.1510027    0.1160594 -15.59 0.0009530495    1.715    0.417
        65  -9.9798    186.9418    103.0891   7.0739695599e+01   2.2947291573e+01    0.2298021    0.2256128 -64.94 0.0005129649    1.039    0.038
        66  -9.3054    161.5063    102.4495   7.6064802238e+01   2.9136440429e+01    0.1564644    0.1548008 -55.11 0.0001005381    1.011    0.011
        67  -9.2730     66.6617    101.7180   1.0215666086e+02   4.7786975591e+01    0.1395367    0.1026184 -27.61 0.0003700875    1.624    0.384
        68 -10.3425     61.8658     97.9473   1.0280361124e+02   4.9312827305e+01    0.2431591    0.1326477 -39.12  0.001079955    2.009    0.502
        69 -10.2545      3.4054     95.5178   1.2087323386e+02   5.5122685877e+01    0.2054689    0.1553964 -70.80 0.0005146161    1.003    0.003
        70  -9.7360     19.1279     87.3963   1.1460969164e+02   5.6020008642e+01    0.3507609    0.1698288 -56.36  0.001346021    1.590    0.371
        71 -12.2849     20.7416     92.8092   1.1502315930e+02   5.4652533070e+01    0.3534087    0.2543505 -36.61 0.0004779956    1.491    0.329
        72 -10.6304     24.1007     88.3460   1.1313148444e+02   5.5435574099e+01    0.2809467    0.1652252 -73.06 0.0001098366    1.535    0.349
        73 -11.0372    125.1418     93.3030   8.2580337401e+01   3.9335196714e+01    0.2651752    0.2435051 -47.89   0.00019076    1.067    0.063
        74 -10.0151     94.0185     93.4839   9.1608498474e+01   4.5425222550e+01    0.2152048     0.148366  38.75 0.0005379801    1.554    0.356
        75 -10.4789     43.7164     91.1233   1.0717448207e+02   5.3025837534e+01    0.4615361    0.2267021 -69.63  0.001976471    2.106    0.525
        76 -10.6902     29.3071     92.5859   1.1220838711e+02   5.4032689963e+01    0.2342729     0.182724 -61.67 0.0004086732    1.038    0.037
        77 -11.0465     10.1031     79.4316   1.1625218094e+02   5.8414873465e+01    0.3542069    0.1930971 -73.20 0.0009636124    1.574    0.365
        78 -11.9739      9.5222     91.2384   1.1836226589e+02   5.5758027510e+01    0.3434792    0.3065629  -8.40  0.002506533    1.423    0.297
        79 -10.4246     11.3939     85.1676   1.1679319022e+02   5.7036048115e+01    0.2309406    0.1442822 -85.76 0.0007890672    1.622    0.383
        80 -11.0735     57.6629     92.0329   1.0278224472e+02   5.1229877739e+01    0.2348186      0.19889   1.29 0.0006744784    1.405    0.288
        81 -10.6073     76.5160     89.4171   9.5984005845e+01   4.9231454947e+01    0.2625654     0.234347  -0.11  0.001494738    1.252    0.201
        82  -9.6236     64.5429     88.5161   9.9653877702e+01   5.1155547261e+01    0.1396048    0.1232894 -52.50 1.876562e-05    1.019    0.018
        83  -8.8965    250.6810     87.7037   5.6167397993e+01   1.1079792428e+01    0.1344072    0.1063139   8.98 0.0002701305    1.613    0.380
        84  -9.4431    113.7008     85.8660   8.3582660480e+01   4.3328677426e+01    0.2097198    0.1779828 -37.45  0.001061574    1.141    0.124
        85 -10.7586     55.1559     85.4556   1.0202245743e+02   5.3056164372e+01     0.250705    0.2105838 -61.15 0.0006746098    1.111    0.100
        86 -10.0137    124.5234     82.9182   7.9660001291e+01   4.1644011564e+01    0.2754444    0.2142687 -24.44 0.0003616037    1.393    0.282
        87  -9.6830    124.4239     79.2553   7.8555497809e+01   4.2408447225e+01    0.2104132    0.1433698 -51.32 0.0005476649    1.552    0.356
        88 -10.0436     76.9045     82.9412   9.4075054099e+01   5.0629988739e+01     0.207296    0.1895795 -44.80 0.0003715975    1.023    0.023
        89 -10.9411      3.7650     82.3166   1.1886933190e+02   5.8108037507e+01    0.3215328    0.1830251 -64.07   0.00193519    1.303    0.232
        90 -10.6796      5.0261     77.0093   1.1758506928e+02   5.9237480557e+01    0.2335855    0.1134403 -51.78 0.0004431005    1.615    0.381
        91  -9.3881    250.3275     81.2899   5.4693013427e+01   1.2148973193e+01    0.1332355    0.1065328  12.36 0.0006012848    1.617    0.382
        92  -9.7128     89.5826     80.7856   8.9345833541e+01   4.9014558819e+01    0.2027155    0.1339831 -57.18 0.0004558831    1.607    0.378
        93 -10.6701     64.7568     80.0570   9.7337686180e+01   5.3043088275e+01    0.2799089    0.2704578 -21.67  0.001449536    1.110    0.099
        94  -9.1360     42.4844     81.5898   1.0543600611e+02   5.5352660404e+01    0.1327135    0.1087148 -46.05 0.0001475512    1.081    0.075
        95  -8.9770     85.3848     79.3005   9.0246668000e+01   5.0056758024e+01    0.1510584    0.1100363 -10.09 0.0007018928    1.781    0.439
        96  -9.7136     48.6412     78.6863   1.0256601276e+02   5.5352324411e+01    0.2025522    0.1323686 -30.96 0.0005956359    1.656    0.396
        97  -9.6064     24.0547     78.9770   1.1131273343e+02   5.7586163298e+01    0.2091724    0.1178613 -40.76  0.001129535    1.693    0.409
        98  -9.7475    176.6687     76.7862   6.5474417276e+01   3.0329882083e+01    0.2208421    0.1989702  48.77  0.001046372    1.129    0.114
        99 -10.7250     28.0891     77.0723   1.0947844212e+02   5.7699911813e+01    0.1851399    0.1504115 -54.53 0.0003487789    1.010    0.010
       100  -9.9767     70.0373     75.6804   9.4282645974e+01   5.3261640942e+01    0.1914843    0.1761524 -16.11 0.0007704204    1.105    0.095
       101 -10.7372     55.2433     75.7954   9.9471112237e+01   5.5224859880e+01    0.2711986    0.2384507 -36.36 0.0007864137    1.064    0.060
       102 -10.2865     42.0216     75.8556   1.0420158639e+02   5.6696560098e+01    0.2237397    0.1629873 -56.24  0.001302003    1.170    0.145
       103 -10.6243     15.0798     75.8199   1.1384921879e+02   5.8926188508e+01    0.2446955    0.1861016 -59.64  0.001119488    1.024    0.024
       104 -11.3826     20.4540     73.0424   1.1135388337e+02   5.9187339893e+01    0.3733568    0.1683257 -47.47  0.001262443    1.816    0.449
       105 -10.1608     37.0103     75.2616   1.0585794813e+02   5.7322618174e+01    0.2071898    0.2017309 -35.83  0.001212322    1.180    0.152
       106 -10.6403     35.9592     71.8884   1.0540907721e+02   5.8174059502e+01    0.6159546    0.3406838   8.60  0.003037898    2.522    0.603
       107  -8.7641    224.2996     74.3143   5.6575962585e+01   1.9059781824e+01    0.1426159    0.1142202  13.95 0.0003742787    1.609    0.379
       108 -10.0929    217.0174     72.4592   5.7185551255e+01   2.1082469138e+01    0.2259151    0.1822914 -37.65 0.0004524322    1.172    0.147
       109 -10.8638    106.0224     72.0672   8.1527135482e+01   4.7738853789e+01    0.2625077    0.2129349  45.55 0.0004014818    1.295    0.228
       110  -9.5652     92.4772     72.4713   8.5847920977e+01   5.0255636411e+01    0.2179035    0.1345762 -53.11 0.0002186682    1.715    0.417
       111  -9.2382     91.4053     69.5110   8.5233910851e+01   5.1056223569e+01    0.1911529    0.1414568  53.76 0.0005315889    1.600    0.375
       112  -9.4586     81.2174     72.2166   8.9443046331e+01   5.2263512804e+01    0.2328511    0.1088791 -55.73 0.0008830528    2.484    0.597
       113 -10.0994     99.9841     70.5895   8.2881941056e+01   4.9227918617e+01     0.209103    0.1856601 -36.09  0.000513069    1.072    0.067
       114  -9.8930     76.1853     70.3228   9.0546648652e+01   5.3473590628e+01     0.335664    0.0864808 -43.16  0.001015777    3.705    0.730
       115 -11.1279     46.4158     69.2177   1.0084590869e+02   5.7698629346e+01    0.3034207    0.2193004   8.42 0.0005421105    1.657    0.397
       116 -11.8996      5.3243     68.7219   1.1600708275e+02   6.1064705544e+01    0.3999784    0.1776052 -79.38  0.001889265    2.497    0.600
       117 -10.3925     10.7180     67.7426   1.1382708784e+02   6.0988595488e+01    0.2841763    0.1425101 -63.89   0.00105805    1.549    0.355
       118 -11.4537      7.3799     64.2259   1.1436230735e+02   6.1944090432e+01    0.2498158    0.2024006 -85.28  0.001736651    1.351    0.260
       119 -10.1373      1.4084     66.8691   1.1709987313e+02   6.1660564441e+01    0.1758253   0.08867657 -67.18 0.0006281402    1.521    0.342
       120  -9.9505    132.8995     65.7863   7.1984457874e+01   4.3055705823e+01    0.3247333     0.228805  22.36  0.001424089    1.780    0.438
       121 -11.0251     63.2473     62.3908   9.2582052938e+01   5.7047165931e+01    0.5150278    0.3661568 -29.22  0.002789638    1.367    0.269
       122 -10.2701     34.5063     64.7775   1.0411174840e+02   5.9868090698e+01    0.2604836    0.1605212 -45.12  0.000949292    1.341    0.254
       123 -10.3930     39.0535     61.8654   1.0155264996e+02   6.0056220527e+01    0.3664662    0.1916086 -58.16  0.001509827    1.744    0.427
       124 -10.1408     41.5485     58.9761   9.9731714046e+01   6.0410387580e+01    0.2403108     0.160472 -36.12 0.0002926528    1.334    0.250
       125 -10.5882    101.3659     61.3344   7.9338412774e+01   5.0756252703e+01    0.2543771    0.2452163 -62.36 0.0007437331    1.176    0.150
       126  -9.9266     48.8704     58.8470   9.6847108655e+01   5.9624446681e+01    0.3056562    0.2215007 -83.38   0.00157261    2.219    0.549
       127 -11.1894     10.6072     59.8210   1.1217320587e+02   6.2721031115e+01    0.2768451    0.1942492 -24.74  0.001282833    1.508    0.337
       128 -11.1936     14.7215     65.0163   1.1174268685e+02   6.1345860859e+01    0.3770896    0.2782383 -72.28  0.002402636    1.304    0.233
       129  -9.6872    193.1462     58.6980   5.7214510250e+01   2.9173419316e+01    0.2982861    0.1406202  69.94  0.001072185    2.572    0.611
       130 -10.8770     83.8181     56.6593   8.3359754373e+01   5.4933501298e+01    0.2755177    0.2540171 -53.13  0.001064303    1.236    0.191
       131 -12.0019     88.2654     52.7938   8.0475505728e+01   5.4848905124e+01    0.5427205    0.3891594  47.55  0.001961442    1.545    0.353
       132 -13.4283     20.1227     57.8136   1.0791472696e+02   6.2539764214e+01    0.3894075    0.2486655 -67.62  0.001266007    1.526    0.345
       133  -9.3732     71.6480     56.8250   8.7663779826e+01   5.6920508415e+01    0.1888522    0.1200968 -51.11 0.0007060207    1.626    0.385
       134 -10.1617     32.9568     56.2605   1.0233155285e+02   6.1823101724e+01    0.3672832    0.2105581 -35.66  0.001990509    1.611    0.379
       135  -9.9900     29.2539     54.2482   1.0324253282e+02   6.2572239867e+01    0.3161451    0.1605097 -34.92 0.0009532116    1.902    0.474
       136 -12.5281    114.4562     53.9250   7.2870141998e+01   4.9341773845e+01    0.3384927    0.2994617  39.05 0.0005359639    1.127    0.113
       137 -10.0213     96.6256     55.1839   7.8641618123e+01   5.2827577059e+01    0.2066247    0.1292663 -28.23 0.0009425637    1.646    0.393
       138 -12.3017     65.7571     52.4979   8.8288359249e+01   5.8652699138e+01      0.48043    0.2371745  35.75  0.002205214    2.195    0.545
       139  -9.6241    149.0457     52.2043   6.3644095047e+01   4.1436099432e+01    0.2050392    0.1177773  55.52 0.0004347763    1.697    0.411
       140  -9.9918    121.9941     51.1028   6.9805330576e+01   4.8124514768e+01    0.2172381    0.2103328  15.43 0.0003621654    1.029    0.029
       141  -9.8014     19.9339     44.7152   1.0433320365e+02   6.5269241496e+01    0.2299465     0.127677 -49.89  0.001045274    1.393    0.282
       142 -11.6790     13.7953     41.6945   1.0612837478e+02   6.6301774217e+01    0.5988231    0.4158823 -85.85  0.003215167    2.182    0.542
       143 -11.5900      5.6526     50.7680   1.1207253743e+02   6.4912107415e+01    0.2287769    0.1834012 -18.91  0.000236327    1.350    0.259
       144 -11.4968     13.0614     48.5787   1.0839928730e+02   6.4948623791e+01    0.5188014    0.2885063  38.28  0.001003895    2.411    0.585
       145 -11.5555     77.7743     46.6065   8.1749517144e+01   5.7820491118e+01    0.4787521    0.3357993   0.14 0.0007160166    1.700    0.412
       146 -11.5581     57.2587     46.6615   8.9413026379e+01   6.0969303270e+01    0.3639572    0.2284849 -51.97 0.0007532201    1.698    0.411
       147  -9.5131     65.4609     46.8091   8.6317246287e+01   5.9764144387e+01    0.2262757    0.1556096  58.98 0.0008792834    2.327    0.570
       148 -10.1443     31.5767     46.2309   9.9796511255e+01   6.3996113903e+01    0.2081413     0.191778  73.94 0.0008518231    1.516    0.340
       149 -11.3077     26.3384     43.3932   1.0112466488e+02   6.5023861468e+01     0.295733    0.2680184 -28.56  0.001511833    1.176    0.150
       150  -9.8674    135.7656     46.2403   6.4641590306e+01   4.5639692532e+01     0.203652    0.1957826  79.54 0.0004055996    1.111    0.100
       151 -11.1229     69.5404     41.9602   8.2930460357e+01   5.9997114343e+01    0.2880765    0.2244174   1.64  0.001649183    1.302    0.232
       152 -10.6208      2.8450     42.3602   1.1117686950e+02   6.6785283338e+01    0.2571794    0.1695925 -17.49   0.00160174    1.616    0.381
       153  -9.9635      5.5714     39.4291   1.0916538492e+02   6.7238996828e+01    0.1973674     0.132702 -56.65 0.0005504283    1.217    0.178
       154  -9.8320    159.5113     41.9739   5.8131545937e+01   4.0312316835e+01    0.2114054    0.1472227 -30.95 0.0009948703    1.480    0.324
       155 -10.7762    140.3822     40.7521   6.1675068501e+01   4.5318384931e+01    0.2843601    0.2564683 -64.74 0.0008121697    1.228    0.186
       156  -9.4413     95.2263     42.3960   7.4301728386e+01   5.5294280332e+01     0.178772    0.1348125  53.21 0.0003129403    1.492    0.330
       157 -10.1276    186.0715     41.1710   5.3267245839e+01   3.3566049171e+01     0.210013    0.1883609  44.97  0.001142766    1.183    0.155
       158  -9.1307     82.6020     41.7411   7.8186644368e+01   5.7805435210e+01    0.1434949   0.09883973  10.85  0.000696454    1.710    0.415
       159  -9.9749     42.9200     40.7238   9.3048644807e+01   6.3882455346e+01    0.1630142    0.1421468  -5.15 0.0004303761    1.153    0.132
       160 -10.0580     35.4775     41.0212   9.6341019544e+01   6.4631929109e+01    0.2797315    0.1951452   2.70  0.001688536    1.573    0.364
       161  -9.8843    128.1179     38.7814   6.3815975694e+01   4.8585051646e+01    0.2072852    0.1973553 -81.71 0.0004014677    1.179    0.152
       162 -11.8619    121.6443     37.2189   6.4842741039e+01   5.0335616412e+01    0.4051531    0.3989365  42.82   0.00133633    1.094    0.086
       163  -9.4569     87.1753     39.1459   7.5619362895e+01   5.7381020494e+01    0.1699806    0.1640052 -53.15 0.0003033318    1.280    0.219
       164  -9.7316    154.8758     47.5189   6.0862916928e+01   4.0687066414e+01    0.2178537     0.145419  59.16 0.0003470764    1.466    0.318
       165 -10.2395     22.5143     38.4496   1.0118108734e+02   6.6306687521e+01    0.1874761    0.1581769  -9.13 0.0004936433    1.228    0.186
       166 -11.5255     26.6121     35.7464   9.8381081734e+01   6.6475561586e+01    0.3974424    0.2060928 -38.05  0.002039289    1.584    0.369
       167 -11.0330      4.2069     35.0510   1.0853186005e+02   6.8178197083e+01    0.4493838    0.2161556 -21.59  0.002472972    2.308    0.567
       168 -10.7277     38.6613     35.4019   9.2863887841e+01   6.5340156745e+01    0.2916371    0.1818214  11.91  0.001643147    1.821    0.451
       169  -9.8955     58.0216    248.4611   1.2285035658e+02   1.6929016771e+01    0.1587435    0.1169732  77.30  0.000347138    1.158    0.136
       170  -9.1019    185.3239     35.6417   5.1750384904e+01   3.4505406009e+01    0.1593577    0.1033839 -64.08 0.0007044306    1.774    0.436
       171 -10.3623     96.9537     35.0398   7.0867157214e+01   5.6080990567e+01    0.2088603    0.1812429   6.84            0    1.079    0.073
       172  -9.3922     90.9986     35.4955   7.2909907641e+01   5.7210013219e+01    0.1762397     0.126869  76.89  0.000588977    2.412    0.585
       173  -9.6518    134.2643     34.3362   6.0776045824e+01   4.7715460761e+01    0.1478752    0.1076151  20.24 0.0003247028    1.586    0.369
       174 -10.0033    144.9561     32.9984   5.8011463220e+01   4.5237652721e+01    0.2103476    0.2041268  80.22   0.00044292    1.066    0.062
       175 -10.3941     73.0810     32.0948   7.7609563097e+01   6.1032532194e+01    0.2014623    0.1731308  -1.61 0.0003481509    1.022    0.021
       176  -9.6345    119.5103     29.9929   6.2655598803e+01   5.1819740671e+01    0.2233667       0.1782  51.13 0.0005962208    1.207    0.172
       177  -9.2299     83.9757     30.0423   7.2951097861e+01   5.9373697531e+01    0.1598543    0.1406598   9.93 0.0009585012    1.032    0.031
       178 -10.8704      8.5359     28.9711   1.0453646432e+02   6.9105626564e+01    0.2503903    0.2085989  84.46  0.001172811    1.869    0.465
       179  -9.8606     97.1226     28.0023   6.7955991985e+01   5.7040792069e+01    0.2571457    0.1776643  -1.43  0.001158875    1.618    0.382
       180 -10.1588    128.8354     31.0079   6.0803312159e+01   4.9474885988e+01    0.3017803    0.1944193  56.33  0.001135562    1.487    0.327
       181 -11.0204     18.7465     32.2336   1.0076675230e+02   6.7787739579e+01    0.4652721    0.2155368  -1.70  0.002141105    3.326    0.699
       182 -10.9658    113.5538     25.6129   6.2458250172e+01   5.3754293777e+01    0.3004394    0.2437476 -41.85 0.0008829012    1.380    0.276
       183 -11.7931     17.7582    249.0147   1.2940845033e+02   2.1473383481e+01     0.334321      0.20255  25.04  0.002132275    2.909    0.656
       184  -8.5870     18.8556     24.8372   9.7944555624e+01   6.9132326105e+01     0.321083    0.1161223 -42.61  0.001575962    2.107    0.525
       185 -11.6073     13.6721     20.7814   9.8936507998e+01   7.0252721967e+01    0.2710278    0.2226413  39.02  0.001222227    1.774    0.436
       186 -11.2045     13.9666     16.1608   9.6865639740e+01   7.1026964610e+01    0.2244344    0.1738275  17.84 0.0009886051    1.501    0.334
       187 -10.0656     12.3167    249.3112   1.3026077320e+02   2.1983914808e+01    0.1466835   0.08127581 -85.22 0.0005071552    1.585    0.369
       188  -8.8800    153.7081     25.3596   5.3727656059e+01   4.3966554128e+01    0.1500234    0.1054799 -62.35 0.0007028761    1.695    0.410
       189 -10.3753     59.0882     23.5890   7.9223776568e+01   6.4596283861e+01    0.3894719    0.2209392 -10.97  0.001860146    2.200    0.545
       190  -9.8616     58.2238     19.4355   7.7664081302e+01   6.5330770734e+01    0.1744842    0.1502168  19.13  0.001127814    1.199    0.166
       191 -10.1289     34.8821     22.4857   8.9238097607e+01   6.7989120714e+01    0.3187657    0.1195897 -31.91  0.001153615    2.746    0.636
       192  -9.6124    219.6791     23.6497   4.4078730330e+01   2.7350290269e+01    0.1357299    0.1026227  33.37 0.0007048332    1.744    0.427
       193  -9.7036     26.6029     15.7486   9.0191032551e+01   6.9959218036e+01    0.2385636    0.1109128 -34.92  0.001281612    1.785    0.440
       194 -10.7188     30.4872     21.0508   9.0686202287e+01   6.8700796702e+01    0.3369398    0.2220992  -3.34  0.002074845    1.543    0.352
       195  -9.8372    229.6662    248.0223   9.2284750743e+01  -8.5962120124e+00     0.151788    0.1212989   6.06 0.0007458023    1.150    0.130
       196  -9.9370    225.1387    246.8113   9.2876059552e+01  -7.8076658841e+00    0.1640018    0.1089234  14.75   0.00106586    1.344    0.256
       197  -9.1074     45.2560    244.9896   1.2476708723e+02   1.9093941109e+01    0.1220545   0.07763086 -87.64 0.0003255276    1.449    0.310
       198  -9.6218    202.3615    240.4640   9.5922830385e+01  -3.6080896530e+00     0.169958    0.1117442 -33.77  0.001054271    1.791    0.442
       199 -10.1057     30.8208     16.1687   8.8306514094e+01   6.9448155353e+01    0.1941176    0.1499134   0.21  0.000911209    1.185    0.156
       200  -9.5663     60.7029    241.1371   1.2188058678e+02   1.7861242076e+01    0.2056687   0.05811303  40.75 0.0009383348    2.840    0.648
       201  -9.7863    165.1351     20.8443   5.0324358641e+01   4.1547386702e+01    0.1933346    0.1615859  33.29 0.0005675593    1.296    0.228
       202 -10.9443     85.7735     19.7630   6.7933312154e+01   6.0413981741e+01    0.4072832    0.2352605  12.22  0.001130806    2.282    0.562
       203  -9.2512     49.6708    240.6554   1.2374736043e+02   1.9324220534e+01   0.09133468   0.08551887 -50.31 0.0007050594    1.751    0.429
       204 -10.0447    148.5826    238.7069   1.0557934408e+02   5.2743375540e+00    0.1970242    0.1190367 -45.55  0.001132056    2.074    0.518
       205 -10.0155    200.1038     17.1866   4.4525884731e+01   3.2968752347e+01     0.297688    0.1203722  51.10  0.001159771    2.635    0.620
       206  -9.5917    114.9964     17.4189   5.8860341910e+01   5.4384839719e+01    0.2020606    0.1263423  56.69 0.0002906203    1.515    0.340
       207 -11.4200     14.0012    238.6785   1.2953949978e+02   2.3662249361e+01     0.193692    0.1100452  79.72 0.0005402009    1.345    0.256
       208  -9.8792    108.3856     16.1458   5.9970591021e+01   5.6037678004e+01    0.1820135    0.1544419  -9.09 0.0005396664    1.191    0.160
       209 -12.0455     25.8264    235.7546   1.2747146571e+02   2.2946119666e+01    0.3081371    0.2394127  38.92  0.001792859    1.640    0.390
       210  -9.5427    204.4781    235.4486   9.4782379748e+01  -3.2934795679e+00    0.1219495   0.09672972  25.95 0.0001930915    1.012    0.011
       211  -9.9526    249.4432    234.0068   8.6715607975e+01  -9.8419095631e+00    0.1725828    0.1218063  21.17 0.0004299478    1.123    0.110
       212  -9.6935     91.1456    237.0223   1.1609586719e+02   1.4439768652e+01    0.1612645     0.125291 -42.56  0.001047151    1.955    0.489
       213 -10.0343    154.3552     15.1146   5.0188293118e+01   4.4942635195e+01    0.2287229    0.1746868  55.30 0.0003488149    1.203    0.169
       214  -9.8356    191.1573     13.6251   4.4579975633e+01   3.5632248687e+01    0.2025659     0.111377  59.50 0.0004560512    1.698    0.411
       215  -9.3397    242.9874    230.2218   8.7175584980e+01  -8.4950937448e+00    0.1520443   0.08002058  35.14 0.0008637901    1.634    0.388
       216  -9.6740    135.2666     11.6561   5.2344020193e+01   5.0107624357e+01    0.1364396    0.1021277 -59.46 0.0003087683    1.606    0.377
       217  -9.7208    209.5181    229.5192   9.2942248976e+01  -3.3153504164e+00     0.123536   0.09894811  22.75 5.509764e-05    1.001    0.001
       218  -9.6858     99.2969     11.2937   6.0292518656e+01   5.8568711570e+01    0.3018396    0.1166032  58.68  0.001200038    2.627    0.619
       219  -9.8271    140.9973    228.4889   1.0570639439e+02   8.1469211695e+00    0.1914024    0.1329188 -42.32 0.0007765062    1.818    0.450
       220  -9.7846    223.4605    226.5428   8.9957418784e+01  -5.1214020586e+00    0.1239797   0.09571788  16.36 2.815508e-05    1.060    0.057
       221  -8.9911    126.5238    220.5411   1.0750672111e+02   1.1897031221e+01    0.1281842    0.1066191  53.00 0.0001503483    1.004    0.004
       222 -10.2996      2.2130    219.8660   1.3062786266e+02   2.8247311081e+01    0.2297458   0.09877397  68.67  0.001398894    1.821    0.451
       223 -10.8636      8.5641    218.4698   1.2949574559e+02   2.7915265176e+01    0.2541058    0.1942974  -3.89  0.001701574    2.942    0.660
       224  -8.9859    249.3419    211.3156   8.2821481409e+01  -7.1576994351e+00    0.1289369   0.07821499   8.21 0.0005029765    1.709    0.415
       225  -9.3745    209.6717    211.3076   8.9882006782e+01  -8.3105469447e-01    0.1169173    0.1006425  65.24 0.0007038499    1.657    0.397
       226 -10.1207     20.1575    209.8245   1.2700088983e+02   2.8448463549e+01    0.1787922    0.1064879  66.98 0.0008891259    1.304    0.233
       227 -10.0829     10.0092    203.4650   1.2847439835e+02   3.0702676884e+01    0.1485897   0.09103617  46.27 0.0004582946    1.552    0.356
       228  -9.0216    193.5132    201.5475   9.1245951280e+01   3.4505787182e+00    0.1341948    0.1155552  23.46 5.642648e-05    1.017    0.017
       229  -9.9118     23.1961    197.1470   1.2563406691e+02   3.0700478098e+01    0.1643673     0.133969 -84.33 0.0006785027    1.254    0.202
       230 -10.9935     13.8647    192.7245   1.2713240525e+02   3.2525811812e+01    0.2043847    0.1325282  72.84 0.0004844964    1.195    0.163
       231 -10.5555      6.4738    191.4971   1.2846119178e+02   3.3452173481e+01    0.1906597     0.134666  77.57  0.001385093    1.036    0.035
       232  -9.4115     20.6163    189.2096   1.2559210475e+02   3.2612720944e+01    0.1524359   0.08614303 -71.04 0.0003890888    1.593    0.372
       233  -9.5508     22.5085    179.9543   1.2453705056e+02   3.4404430856e+01    0.1699756   0.09392861 -79.57 0.0004178307    1.492    0.330
       234 -10.5344      5.5242    167.4916   1.2715946442e+02   3.8624689367e+01    0.2385744    0.1394459  74.45  0.001183947    1.430    0.301
       235  -9.5655    226.6037    164.1835   7.7624319747e+01   3.4085384900e+00    0.1932509    0.1223925 -22.31 0.0006537493    1.628    0.386
       236  -9.4364     41.3397    158.1281   1.1834506288e+02   3.7360308109e+01    0.1795868   0.09979624 -83.92 0.0005284738    1.663    0.399
       237  -9.2259    247.4744    155.4945   7.2125179211e+01   9.5839216990e-01    0.1366499    0.1163177  -8.17   0.00013428    1.025    0.024
       238 -10.5139      2.4637    153.5041   1.2683185768e+02   4.1941649739e+01    0.1995449    0.1115472  29.06  0.001219165    2.193    0.544
       239  -9.8055     23.1681    150.8038   1.2186489585e+02   4.0864308875e+01    0.1651517    0.1228265 -64.09 0.0009899575    1.311    0.237
