#   1 NUMBER                 Running object number                                     
#   2 MAG_AUTO               Kron-like elliptical aperture magnitude                    [mag]
#   3 X_IMAGE                Object position along x                                    [pixel]
#   4 Y_IMAGE                Object position along y                                    [pixel]
#   5 X_WORLD                Barycenter position along world x axis                     [deg]
#   6 Y_WORLD                Barycenter position along world y axis                     [deg]
#   7 A_WORLD                Profile RMS along major axis (world units)                 [deg]
#   8 B_WORLD                Profile RMS along minor axis (world units)                 [deg]
#   9 THETA_WORLD            Position angle (CCW/world-x)                               [deg]
#  10 FWHM_WORLD             FWHM assuming a gaussian core                              [deg]
#  11 ELONGATION             A_IMAGE/B_IMAGE                                           
#  12 ELLIPTICITY            1 - B_IMAGE/A_IMAGE                                       
         1 -12.9568     74.5957    100.6604   1.0616572747e+02   4.6642583985e+01     1.475398    0.5566558 -61.86  0.005703241    2.655    0.623
         2 -12.6135     58.2204     28.6274   9.0479072495e+01   6.4148513300e+01    0.6921051    0.4338689 -24.06  0.003617295    1.701    0.412
         3 -12.1263    206.7032     19.5053   5.1401215651e+01   3.0681741968e+01    0.5819495    0.3729995  35.38  0.001227525    1.858    0.462
         4 -13.4137    198.3793     27.2182   5.4773747342e+01   3.1995938041e+01    0.9517839    0.7938474 -26.36  0.004634931    1.213    0.176
         5 -12.1255      2.4319     28.2364   1.1597306773e+02   6.9459297710e+01    0.8694559    0.2904007 -63.20   0.00432892    2.166    0.538
         6 -11.8377      2.0128     16.2931   1.1274801267e+02   7.1891848503e+01    0.4990802    0.2399533 -56.24  0.002353996    1.510    0.338
         7 -13.0902      4.7450      3.9675   1.0659994210e+02   7.4101057517e+01    0.8703729    0.6598728 -24.75  0.005419108    1.213    0.176
         8 -13.0003    213.6036     10.7568   4.8088519436e+01   2.9809140868e+01    0.7335998    0.6592409 -48.03  0.003143523    1.076    0.071
         9 -11.9333     65.6286     13.8767   8.0740494766e+01   6.5435291380e+01    0.3747888    0.2530165  58.36   0.00197095    2.132    0.531
        10 -12.2241     56.7474      2.6009   7.8487131429e+01   6.8496547420e+01    0.7936932    0.2826816  42.30  0.003426318    2.889    0.654
        11 -10.2285     94.1358    222.8755   1.1820799689e+02   1.9508359498e+01    0.2899599    0.2091357  69.83   0.00152236    1.239    0.193
        12 -10.6987    101.4231    250.2222   1.1922136825e+02   1.4488503483e+01     0.523329    0.1357892  39.22  0.002355643    3.298    0.697
        13 -11.6070    110.1544    248.7881   1.1768716603e+02   1.3497465971e+01    0.3737136    0.2353591  50.97  0.002742238    1.134    0.118
        14 -12.8753    117.4343    244.7696   1.1614533885e+02   1.3028558556e+01      0.96157    0.3993048  41.19  0.005401858    1.848    0.459
        15  -9.8624     83.1361    249.8127   1.2213441940e+02   1.6937671778e+01    0.1525729    0.1002957  61.48  0.000965773    1.163    0.140
        16 -16.1424      9.1790    243.5779   1.3324800843e+02   2.6059095575e+01     1.264658    0.5780661  60.51  0.008536556    1.436    0.304
        17 -14.3856     72.0835    225.4140   1.2226273552e+02   2.2021414292e+01     1.364521     1.058171  58.86   0.01013207    1.114    0.103
        18 -14.1126     59.5112    245.0562   1.2560159427e+02   2.0523934808e+01    0.8155603    0.3628238  54.33   0.00383854    1.590    0.371
        19 -13.1656     42.4040    236.6149   1.2787207394e+02   2.3753764362e+01     2.125172    0.8492717  46.19   0.01382182    1.781    0.439
        20 -14.4346     56.4200    209.7913   1.2390539766e+02   2.6548284800e+01     3.473577    0.9069622  35.06   0.01439271    4.206    0.762
        21 -16.9114     56.8707    193.5139   1.2261021007e+02   2.9397291540e+01     6.988494     3.271638 -63.20   0.04037241    2.275    0.560
        22 -11.7205    163.6568    247.4864   1.0876677949e+02   5.9357649601e+00    0.3098576    0.1329404 -48.65  0.001784974    3.276    0.695
        23 -10.2440    199.3475    199.3199   9.6181746450e+01   6.1407445440e+00    0.1284781   0.08243608  18.44 0.0002127261    1.734    0.423
        24 -10.0676      1.9493    197.2747   1.3285311548e+02   3.4300069674e+01    0.1920362   0.09147384  74.74  0.001042144    1.596    0.373
        25  -9.5669    126.7435    196.5840   1.0933893325e+02   1.8901855779e+01    0.1773569   0.09497628  50.50 0.0009432349    1.591    0.371
        26  99.0000     95.4748    229.9285   1.1857983900e+02   1.8230532219e+01    0.5914689    0.2659719  49.79  0.003428988    1.669    0.401
        27 -12.4023    120.2175    220.1151   1.1328583320e+02   1.6171158043e+01     1.017239    0.4964553 -37.28   0.00446113    4.857    0.794
        28 -11.5967      3.7056    174.7405   1.3161345865e+02   3.8293348934e+01    0.4296002    0.2767456 -88.34   0.00268966    1.257    0.205
        29 -12.2381    102.2218    219.4903   1.1645873816e+02   1.8907520291e+01    0.6929322    0.5127066 -55.66  0.004781516    1.762    0.432
        30 -10.0909    137.1739    169.0373   1.0327368838e+02   2.1917444261e+01    0.3445038    0.1754133  34.94  0.001556814    2.104    0.525
        31 -10.5496    111.1821    165.6670   1.0830707313e+02   2.7019282656e+01    0.3497452    0.2474202 -60.79  0.002014064    1.516    0.340
        32 -10.9248    124.1990    159.5893   1.0452148526e+02   2.5980378142e+01    0.5154703    0.1946388  38.55  0.002012409    2.682    0.627
        33 -11.0235    115.6450    162.6719   1.0688414876e+02   2.6856722566e+01    0.2894117    0.2463074  22.84  0.001747171    1.446    0.309
        34 -10.9512     11.7547    163.7593   1.2947151395e+02   3.9760773908e+01    0.3841838     0.174015  44.85  0.002151395    1.928    0.481
        35 -11.1909    154.2917    159.7807   9.8099602394e+01   2.0411654914e+01    0.4508294    0.3677537  11.85  0.002538777    1.494    0.331
        36 -12.7292    109.7539    215.6773   1.1472108972e+02   1.8418761948e+01    0.5736888    0.5050123 -52.42  0.003006036    1.532    0.347
        37 -10.1406     26.0232    149.4015   1.2545183222e+02   4.1424753367e+01    0.3109829    0.1225954  54.67  0.001598626    2.349    0.574
        38  -9.7872      1.4306    146.2216   1.3063848511e+02   4.4093897032e+01    0.2595504   0.08310697 -82.76  0.001287638    2.536    0.606
        39 -11.2545    159.5189    143.4423   9.3849566245e+01   2.2321773774e+01    0.3764784    0.2736166  45.25  0.001959009    1.271    0.214
        40 -12.0434    164.4874    133.4473   9.0675434066e+01   2.3119726150e+01    0.8337077    0.2450346 -43.58  0.002694069    3.615    0.723
        41 -11.3219     11.7477    127.4363   1.2701045904e+02   4.7275792152e+01    0.4332393    0.2351082  46.58  0.002372434    1.809    0.447
        42 -10.0968     99.0422    129.4729   1.0519903893e+02   3.6464965950e+01    0.2380896    0.1819165 -42.17  0.000715491    1.518    0.341
        43 -13.4378      8.8492    112.6527   1.2649168150e+02   5.0686767141e+01     1.002331    0.7936577 -86.22  0.007020118    1.043    0.041
        44 -12.2816     15.2506    102.2835   1.2371294796e+02   5.2532310841e+01    0.4863864    0.4289755  67.71  0.002514076    1.224    0.183
        45 -12.1492     22.0213     98.6019   1.2132645076e+02   5.2854237632e+01    0.5570486    0.4209337  23.08  0.003159784    1.682    0.406
        46 -12.5798     94.6243    112.5123   1.0303033588e+02   4.0900778509e+01    0.9004834    0.4214817 -54.92  0.003864289    2.055    0.513
        47  -9.7907    167.6514    112.3324   8.5076572457e+01   2.6307411424e+01     0.232182    0.1811973 -82.73 0.0009412444    1.744    0.427
        48 -13.5518    183.2254    246.6059   1.0546862536e+02   3.1116767862e+00    0.6427333    0.3396901 -32.36  0.004025491    2.714    0.631
        49 -11.2438    100.7511     96.8675   9.7808345888e+01   4.3287578414e+01    0.5839722    0.3035438  47.77  0.002522347    2.016    0.504
        50 -11.1221      2.0058     94.4549   1.2668082025e+02   5.5102061276e+01    0.5008836     0.122275 -74.95  0.002105431    3.028    0.670
        51 -11.7477      3.2926     82.0179   1.2497360154e+02   5.7777369538e+01     0.565374    0.2610215 -71.53  0.002875125    1.622    0.384
        52 -12.9114     53.0970     63.7163   1.0438956403e+02   5.7725359522e+01     1.334667    0.7066734 -73.34  0.005764576    2.628    0.620
        53 -13.1394     54.4285     91.9628   1.1045212961e+02   5.1238915152e+01    0.9524798    0.5388373  27.47   0.00485207    2.158    0.537
        54 -13.2679     41.4070     86.3594   1.1347318406e+02   5.3923290240e+01     1.225825    0.5157377 -62.12  0.004763565    1.948    0.487
        55 -12.0578     47.4106     75.1470   1.0919638242e+02   5.5835823387e+01    0.7252088    0.4373427  21.05   0.00383739    2.136    0.532
        56 -12.3659     83.5052     78.2797   9.8125616354e+01   5.0273436029e+01    0.9130847    0.4245446  51.88  0.003625037    2.752    0.637
        57 -11.0177     23.1754     78.3499   1.1801307717e+02   5.7329317465e+01    0.4901961    0.2675188 -79.64  0.002674497    1.709    0.415
        58 -12.2180     23.4520     70.0557   1.1646289351e+02   5.9170008365e+01    0.5938743    0.4666427 -78.18   0.00399988    1.142    0.125
        59 -10.5571     31.6036     58.1913   1.1096060581e+02   6.1145460379e+01    0.2596568    0.2163499  -8.98  0.001736636    1.437    0.304
        60 -12.8180      3.3276    207.6205   1.3299166814e+02   3.2379764351e+01    0.4595669    0.2415994  77.81  0.003089298    1.427    0.299
        61 -11.0411      2.3456     46.5000   1.2005061143e+02   6.5610059933e+01     0.438755    0.2100558 -79.35   0.00238615    1.966    0.491
        62 -10.4020     93.1459    236.3626   1.1950381588e+02   1.7578678692e+01    0.4716252    0.1186264  46.37  0.002214203    2.751    0.636
        63 -12.3389     50.4482     40.2065   9.8144814909e+01   6.2979633013e+01    0.6756629    0.5075774  33.48  0.004092581    1.525    0.344
        64 -10.9458     31.7356     41.4729   1.0639697891e+02   6.4717078005e+01    0.3342828    0.2471366  -7.64  0.001978394    1.609    0.378
        65 -12.6460     93.0012    244.1184   1.2012863891e+02   1.6467108079e+01    0.4411007    0.2800081  45.17  0.001746622    1.254    0.203
        66 -12.9352    191.5608     33.7972   5.7773398807e+01   3.3000533362e+01    0.6750619    0.5464717  47.79  0.002755998    1.249    0.199
        67 -11.4251    101.8087    243.0135   1.1858885449e+02   1.5440833669e+01    0.2755353    0.2333468  55.20  0.001192938    1.229    0.187
        68 -12.0176    114.3902    203.4782   1.1254371348e+02   1.9702070656e+01     1.725516      0.41698  44.75   0.00674188    3.214    0.689
        69 -14.1156    140.4472    218.0455   1.0940938068e+02   1.3360426135e+01     1.323977    0.9611611 -55.70  0.008537514    1.744    0.427
        70 -13.8556    132.8558    232.3329   1.1233609579e+02   1.2494491198e+01     1.134543    0.6620721  38.25  0.006110773    1.461    0.316
        71 -11.9010    120.1035     25.9431   6.8896331794e+01   5.2545507187e+01    0.7843759    0.4369843  57.65  0.003430312    1.830    0.454
        72 -11.4749     57.8843     39.9267   9.5054210577e+01   6.2070422619e+01    0.7393404    0.3868926 -55.74  0.003472702    2.041    0.510
        73 -10.1959     33.4000     19.7331   9.7806926475e+01   6.8848666401e+01    0.2381315    0.1030434 -52.36  0.001139878    2.142    0.533
        74 -13.8779    121.4820    228.2006   1.1389265234e+02   1.4778154346e+01     2.464961      1.38568  21.01   0.01120548    4.014    0.751
        75 -10.7879    106.3541    226.2565   1.1635926170e+02   1.7268130751e+01    0.3112943    0.2069498  45.68  0.001338682    1.206    0.171
        76 -11.0261     11.1290    206.0377   1.3162409553e+02   3.1957811816e+01     0.260592    0.1701687  41.99  0.002049939    1.550    0.355
