#   1 NUMBER                 Running object number                                     
#   2 MAG_AUTO               Kron-like elliptical aperture magnitude                    [mag]
#   3 X_IMAGE                Object position along x                                    [pixel]
#   4 Y_IMAGE                Object position along y                                    [pixel]
#   5 X_WORLD                Barycenter position along world x axis                     [deg]
#   6 Y_WORLD                Barycenter position along world y axis                     [deg]
#   7 A_WORLD                Profile RMS along major axis (world units)                 [deg]
#   8 B_WORLD                Profile RMS along minor axis (world units)                 [deg]
#   9 THETA_WORLD            Position angle (CCW/world-x)                               [deg]
#  10 FWHM_WORLD             FWHM assuming a gaussian core                              [deg]
#  11 ELONGATION             A_IMAGE/B_IMAGE                                           
#  12 ELLIPTICITY            1 - B_IMAGE/A_IMAGE                                       
         1 -12.8547    147.7931     62.3430   8.5934043311e+01   4.0071808958e+01     1.409218     1.053897 -28.03  0.003336822    1.449    0.310
         2 -13.0864    158.1895     46.6161   7.9067476321e+01   3.9938095435e+01     1.217279     1.054597 -29.74  0.004089362    1.256    0.204
         3 -11.6666    188.8004     14.7699   6.5367042903e+01   3.6306365803e+01     2.347278    0.9849361 -74.22  0.006473185    6.344    0.842
         4 -12.4035    169.6459     18.2843   6.8946231909e+01   4.0624523127e+01    0.9979834     0.562147  71.61  0.004172903    1.644    0.392
         5 -12.7876    170.8536     11.8413   6.6997917597e+01   4.0996384576e+01    0.9166737    0.6278701  70.43  0.003255027    1.266    0.210
         6  -9.1421    232.2166     13.6801   6.0399952937e+01   2.6100541080e+01    0.2305433    0.1748017 -25.45 0.0008931203    1.712    0.416
         7  -8.5846    204.6740      7.7191   6.1799306797e+01   3.3214358519e+01    0.1255815   0.08845428  49.85 0.0003363628    1.596    0.374
         8  -8.7256    167.9265    239.4997   1.2115484781e+02   4.0636037777e-01    0.1753149    0.1707711 -50.96 0.0005237117    1.217    0.178
         9 -19.0551     77.7162    225.5898   1.3699775212e+02   1.8157216425e+01      5.56956     4.354295  67.13   0.02794776    1.048    0.046
        10  -9.5884    160.4681    236.2627   1.2212843143e+02   2.2649446571e+00    0.2514665    0.2119048 -25.42 0.0009638371    1.483    0.326
        11 -11.2657    204.5253    176.9939   1.0255723921e+02   4.6166594219e+00    0.5030481    0.4910366   8.08  0.002058307    1.047    0.045
        12 -11.6035    203.6494    168.9497   1.0103969915e+02   6.3236651845e+00    0.9900163    0.6137244 -52.40  0.004300909    1.830    0.454
        13 -10.9640    170.3803    184.0152   1.1112107778e+02   1.0183254332e+01    0.5755724    0.3176332  41.91  0.001862931    1.736    0.424
        14  -9.6872    198.7766    178.7801   1.0409076410e+02   5.4367061973e+00    0.4272542    0.3130789 -88.89  0.001902949    2.262    0.558
        15 -11.9269    195.0351    169.3711   1.0288910015e+02   8.0252192979e+00    0.5867069    0.5068204 -61.63 0.0008941888    1.295    0.228
        16 -10.5493    192.6784    164.6753   1.0237136153e+02   9.4501503949e+00    0.3954678    0.2783071  29.52  0.001583086    1.584    0.369
        17  -9.6872    173.1852    175.7442   1.0885970096e+02   1.1297022927e+01    0.2626308    0.1745083  47.10 0.0006318222    1.458    0.314
        18  -9.9915    140.9464    200.4035   1.2049531020e+02   1.2621185173e+01    0.3952479    0.2323825  53.97   0.00132862    1.681    0.405
        19 -10.2743      4.9524    233.7206   1.5047707739e+02   2.5534612516e+01    0.1822152    0.1321336  50.69 0.0008536585    1.489    0.328
        20 -11.4197    123.4307    167.4096   1.1855895989e+02   2.3197717711e+01    0.8012071      0.38079  62.03  0.002156093    3.478    0.712
        21 -12.1694    138.3336    172.6085   1.1606482382e+02   1.9109060975e+01    0.8359095    0.5495589  57.11  0.003803888    1.588    0.370
        22 -10.9547    143.6290    169.1623   1.1416179580e+02   1.8810669276e+01    0.6376215    0.4058511  80.03  0.002447361    2.593    0.614
        23 -10.2909    149.1778    174.8890   1.1402527564e+02   1.6424736146e+01    0.2819732    0.2363189  78.09 0.0007590719    1.299    0.230
        24 -11.9992    163.8706    189.5407   1.1359068477e+02   1.0374127437e+01    0.8045036    0.5298448  61.53  0.003672534    1.770    0.435
        25  -8.4754    185.3009    170.2925   1.0512425937e+02   9.8772812220e+00    0.1481818    0.1177398   4.92 0.0002041442    1.568    0.362
        26  -9.8427    230.2021    168.1991   9.5745968702e+01   1.1636078644e+00    0.3583195    0.2160425 -63.43  0.001410305    2.980    0.664
        27 -10.4319    123.3554    159.4957   1.1703112233e+02   2.5037115514e+01    0.4646291     0.320663  74.69  0.002054712    1.839    0.456
        28  -9.7156    191.6321    158.9123   1.0133169673e+02   1.0830281475e+01    0.3638991    0.2640994  -3.10  0.001591656    1.975    0.494
        29  -8.9878     22.8838    156.5556   1.4089807244e+02   4.0166440557e+01    0.1902454    0.1345748 -77.18 0.0004485938    1.118    0.106
        30 -11.3825    172.2582    189.6642   1.1181169345e+02   8.6699935216e+00     0.480084    0.4554662  24.95  0.001613801    1.066    0.062
        31  -9.8415     17.5331    153.3010   1.4175746791e+02   4.1385334620e+01    0.3591278    0.1703441 -76.33  0.001263632    1.743    0.426
        32 -10.8909     62.0013    155.6796   1.3147608587e+02   3.6009320167e+01    0.3169333    0.2776353 -75.96  0.001952786    1.055    0.052
        33 -11.2350    133.8962    146.4592   1.1171610101e+02   2.5944447687e+01     1.281996    0.3528047 -55.70  0.003106721    5.307    0.812
        34 -10.4476      7.7903    149.8036   1.4360284740e+02   4.2968422526e+01    0.3112102    0.1361695 -62.16  0.001672932    1.804    0.446
        35 -10.3802    175.9921    187.0084   1.1050250633e+02   8.4465384114e+00    0.3870456    0.2720307 -65.70  0.001209169    1.828    0.453
        36  -8.8476    182.9300    143.1552   9.9610198035e+01   1.5980754759e+01    0.2244174    0.2053905 -88.64 0.0002504572    1.178    0.151
        37  -8.5042     26.5837    139.3088   1.3788730031e+02   4.3787344231e+01    0.1814961    0.1390298 -27.65 0.0006980518    1.741    0.425
        38 -10.2770    229.3122    136.4772   8.8946246177e+01   7.1324136307e+00    0.2558849    0.2366154 -55.22 0.0002746437    1.099    0.090
        39  -9.8442      3.4926    135.2040   1.4304219226e+02   4.6544440684e+01    0.1727661    0.1641788 -88.07   0.00077651    1.281    0.220
        40 -10.0737    134.3327    133.7599   1.0871459710e+02   2.8758532449e+01    0.3273922    0.2291673  55.20 0.0009448493    1.502    0.334
        41 -10.6222    136.1202    128.9443   1.0711912217e+02   2.9471524747e+01    0.5020976    0.2265068 -53.74  0.001765645    2.402    0.584
        42 -10.8322    134.9984    121.9013   1.0567271206e+02   3.1289877713e+01    0.6848915     0.226256 -49.76  0.001789449    3.140    0.682
        43 -10.1648     98.2711    130.7654   1.1740707957e+02   3.6414779932e+01    0.4046693    0.2588679  67.73  0.001482155    2.161    0.537
        44  -9.9874     44.1286    130.6379   1.3204876285e+02   4.4062958862e+01    0.2263726    0.1610362 -75.78 0.0007189303    1.285    0.222
        45 -10.3690    160.3436    128.6434   1.0119352129e+02   2.4189987675e+01    0.4722588    0.3427763 -68.11  0.002066416    1.663    0.399
        46 -11.0891     36.8483    124.9298   1.3306751314e+02   4.6139958146e+01    0.5323856    0.3144957  10.41  0.002696784    2.588    0.614
        47 -10.4735    180.3170    194.0797   1.1095129092e+02   6.2038981103e+00    0.3509739    0.2812102 -86.87  0.001789507    1.676    0.403
        48  -8.3952    140.6162    121.2921   1.0411127927e+02   3.0209139850e+01    0.1643029    0.1234768  84.01 0.0007016003    1.756    0.430
        49 -10.7201    143.7880    147.1626   1.0947090043e+02   2.3720078050e+01      0.67321    0.3322425 -48.37  0.002580829    2.029    0.507
        50  -9.2088    247.2386    117.9623   8.1787730864e+01   6.7653218122e+00    0.2173706    0.2010155  64.90 0.0003450527    1.189    0.159
        51  -9.7345    115.1130    117.9809   1.0987904525e+02   3.6253823627e+01    0.2305586    0.2160827 -62.84 0.0004292395    1.042    0.040
        52 -12.1201     71.5145    115.3876   1.2146345179e+02   4.4223816125e+01     1.011538    0.5823452 -80.08  0.004040319    2.817    0.645
        53 -12.1965     65.7242    103.4581   1.2046069022e+02   4.7727139542e+01    0.7593976    0.5134479 -47.53  0.001986689    1.317    0.241
        54 -10.3866    134.4447    107.2444   1.0203434306e+02   3.4612735561e+01    0.8547406    0.1998906 -45.15  0.002255163    4.235    0.764
        55  -8.8400     18.4473    219.1893   1.4733448512e+02   2.7001376003e+01    0.2211495   0.07909639 -68.41  0.001128752    2.390    0.582
        56 -10.6256    146.2305    189.9015   1.1751346977e+02   1.3794368532e+01    0.3415531    0.2547684 -18.73  0.001131364    1.973    0.493
        57 -11.4473     60.4989    109.7590   1.2344304007e+02   4.6985423599e+01     0.487265    0.3642829  42.77  0.001667443    1.516    0.341
        58 -10.5418    118.0729    109.3241   1.0688171007e+02   3.7596563912e+01    0.2738177    0.2099262 -35.70  0.001320132    1.352    0.260
        59  -9.9515    169.5392    196.4864   1.1367276537e+02   7.8643710153e+00    0.2378785    0.2127153 -65.93 0.0006974262    1.237    0.192
        60  -9.1435    142.8139     81.8264   9.2850640977e+01   3.7838982928e+01    0.2277232    0.2102384  13.80 0.0006655724    1.158    0.136
        61  -8.5923    185.7356     73.2796   8.1307324018e+01   2.8941073352e+01     0.191519    0.1720716  24.48 0.0003927946    1.304    0.233
        62  -9.7496    155.6320    248.3354   1.2478036605e+02   1.1041184106e+00    0.1968127    0.1790365  61.35 0.0003712712    1.143    0.125
        63  -9.6820    162.5426    246.6715   1.2323219933e+02   1.8121791452e-01    0.2603562    0.1722665  50.32  0.001180139    1.339    0.253
        64 -11.6932    162.1866     37.4252   7.5624332412e+01   4.0199304516e+01    0.4431415    0.3984324  54.91 0.0008409771    1.065    0.061
        65  -9.8329    241.2041     61.8086   6.9998917366e+01   1.7501012510e+01    0.2222146    0.2070644 -88.15 0.0003220024    1.143    0.125
        66  -9.5566    126.9372     59.9861   9.0171081494e+01   4.5267906432e+01    0.2097103    0.2018065  18.39            0    1.019    0.019
        67  -8.3256    245.6233     57.7088   6.8553038563e+01   1.7138304998e+01    0.1280227    0.1043326  33.78 0.0007021016    1.735    0.424
        68 -10.3149    137.7292     36.8285   8.0276431761e+01   4.6161836769e+01    0.2323094    0.2056984  51.92 0.0002665492    1.038    0.036
        69  -9.0194    146.6640    244.9877   1.2603812017e+02   3.2041240838e+00    0.2040848    0.1750644 -30.95  0.001147915    1.520    0.342
        70 -11.5272    187.6004    235.5118   1.1672474370e+02  -2.4094250899e+00    0.4300757     0.291775 -32.28  0.000745233    1.739    0.425
        71 -10.6136     13.1780    240.0836   1.4952699678e+02   2.3476698293e+01    0.3742247    0.1509847 -79.32  0.002166171    2.083    0.520
        72 -10.5438    151.2449    238.9934   1.2432608980e+02   3.4272930969e+00    0.3811596    0.2489426  27.59  0.002005684    1.778    0.438
