#   1 NUMBER                 Running object number                                     
#   2 MAG_AUTO               Kron-like elliptical aperture magnitude                    [mag]
#   3 X_IMAGE                Object position along x                                    [pixel]
#   4 Y_IMAGE                Object position along y                                    [pixel]
#   5 X_WORLD                Barycenter position along world x axis                     [deg]
#   6 Y_WORLD                Barycenter position along world y axis                     [deg]
#   7 A_WORLD                Profile RMS along major axis (world units)                 [deg]
#   8 B_WORLD                Profile RMS along minor axis (world units)                 [deg]
#   9 THETA_WORLD            Position angle (CCW/world-x)                               [deg]
#  10 FWHM_WORLD             FWHM assuming a gaussian core                              [deg]
#  11 ELONGATION             A_IMAGE/B_IMAGE                                           
#  12 ELLIPTICITY            1 - B_IMAGE/A_IMAGE                                       
         1 -14.7573    158.7066     29.8223   7.4497358752e+01   4.2097357012e+01    0.9542021    0.9063265  42.01  0.004142354    1.070    0.065
         2 -14.6303    187.0535    154.1467   1.0340482080e+02   1.5854607452e+01    0.7372418    0.5934777 -18.93  0.004144309    1.294    0.227
         3 -15.3815    246.4385    238.3093   1.0740291418e+02  -3.3439785492e+00     1.556256    0.6322737 -20.90  0.009096868    2.912    0.657
         4 -10.6621    154.9010    250.0810   1.2317140908e+02   8.2607540567e+00    0.1444403     0.104064  16.53 0.0009162358    1.674    0.403
         5 -20.7869     93.4992    183.7714   1.2697212814e+02   2.6443715941e+01     10.92275     5.960338 -64.57   0.06330061    1.991    0.498
         6 -12.6282    191.6063    151.7679   1.0205025318e+02   1.5350423908e+01    0.3901131    0.2284771 -50.07  0.001348122    2.357    0.576
         7 -14.2387    174.0807    148.4417   1.0482403588e+02   1.9212734116e+01     0.484014    0.3457056 -52.29  0.001417991    1.740    0.425
         8 -12.8356     36.4807    142.6480   1.3479800825e+02   4.1184388383e+01     0.272005    0.2112369 -43.79 0.0009307931    1.682    0.406
         9 -13.0284    182.5980    202.4007   1.1258190887e+02   9.8685730324e+00    0.3273424    0.2771581 -60.54  0.001560701    1.716    0.417
        10 -12.6443    167.3997    223.1502   1.1806975224e+02   9.6283057239e+00    0.3761043    0.1774939  43.39  0.002042856    1.663    0.399
        11 -11.5589    178.0812    210.6214   1.1456390029e+02   9.5454681307e+00    0.1906905    0.1651694 -25.46 0.0008611472    1.400    0.286
        12 -13.6685     11.2920    206.1912   1.4366030968e+02   3.1577872954e+01    0.4395827    0.2675759  29.74  0.002743943    2.023    0.506
        13 -14.2795    160.8459    128.2618   1.0330654867e+02   2.5240562950e+01    0.4420832    0.4261209  65.44  0.001874357    1.157    0.136
        14 -12.3924    205.5196    199.2323   1.0808606718e+02   6.5576101983e+00     0.230039    0.1384369  37.09 0.0008201668    1.346    0.257
        15 -11.7164    187.2191    203.0170   1.1185850951e+02   9.0478546869e+00    0.1705659    0.1379531  59.65  0.000387131    1.596    0.373
        16 -10.9083     14.6857    219.5285   1.4362574024e+02   2.9131125402e+01    0.1377396   0.08863203 -81.61  0.000279048    1.534    0.348
        17 -11.8785     35.4671    116.8803   1.3228314219e+02   4.6800972594e+01    0.2815268    0.1467967 -51.91  0.001379973    1.965    0.491
        18 -12.1962    167.8012    112.9970   9.8204342898e+01   2.6509609619e+01    0.3509927    0.2817991 -80.27  0.001301005    1.803    0.445
        19 -11.3870    231.2633    113.7771   8.6359594865e+01   1.2898140444e+01    0.2533968    0.2090096  22.04 0.0007524819    1.127    0.112
        20 -11.4282    205.5374    110.2162   8.9964220715e+01   1.8815046296e+01     0.263222    0.1966748  42.43 0.0006395382    1.321    0.243
        21 -11.0788    207.9431    217.5226   1.1047375152e+02   4.1249041367e+00    0.1590009     0.130387  -0.86 0.0006423197    1.280    0.219
        22 -12.7614     57.3273    101.8378   1.2405979315e+02   4.7921002978e+01    0.2973796    0.2124012  21.80 0.0009427026    1.761    0.432
        23 -12.7842    202.8369    173.0253   1.0406347206e+02   1.0292236301e+01    0.3078888    0.2023434 -57.64  0.001514249    2.820    0.645
        24 -10.6568      1.4618    243.9645   1.4634995928e+02   2.6611035131e+01    0.1155691   0.06463598  85.59 0.0006973459    1.523    0.343
        25 -13.4806     57.4391     96.5805   1.2306567183e+02   4.9094011059e+01    0.5420191    0.2860177  14.50  0.002214208    3.253    0.693
        26 -13.1943     71.3432     93.8258   1.1840329142e+02   4.7983524943e+01    0.3419958    0.2291618  29.46  0.001011037    1.740    0.425
        27 -11.8727      5.1349    217.7389   1.4505544107e+02   3.0233430950e+01    0.1568584    0.1132569 -82.07 0.0006489712    1.471    0.320
        28 -14.9007    141.3315     69.1506   9.1972309369e+01   4.0285748877e+01     1.259413    0.7496127  21.85  0.003845917    2.491    0.599
        29 -15.0857    151.2896     54.3071   8.4713224933e+01   4.0457813791e+01     1.245432    0.9449819  -8.31  0.004464434    1.407    0.289
        30 -13.8959    154.2921     47.1715   8.1589928843e+01   4.0822789331e+01    0.5971061    0.4990977  -7.54 0.0007267354    1.191    0.160
        31 -12.1881    187.2027    211.5906   1.1311846694e+02   7.9992639931e+00     0.365311    0.2404151  52.66  0.001141222    1.704    0.413
        32 -11.7687     13.3677     59.8730   1.3067666861e+02   6.1280934486e+01    0.1719107    0.1544249  78.23 0.0004769154    1.274    0.215
        33 -12.2271    177.9547    156.1317   1.0557213283e+02   1.7257382602e+01    0.2036949    0.1876687  -6.16 0.0003158868    1.124    0.111
        34 -11.3298     15.7086    248.2977   1.4446015356e+02   2.4763571909e+01     0.138476   0.07545172  70.52 0.0008161694    1.371    0.270
