#   1 NUMBER                 Running object number                                     
#   2 MAG_AUTO               Kron-like elliptical aperture magnitude                    [mag]
#   3 X_IMAGE                Object position along x                                    [pixel]
#   4 Y_IMAGE                Object position along y                                    [pixel]
#   5 X_WORLD                Barycenter position along world x axis                     [deg]
#   6 Y_WORLD                Barycenter position along world y axis                     [deg]
#   7 A_WORLD                Profile RMS along major axis (world units)                 [deg]
#   8 B_WORLD                Profile RMS along minor axis (world units)                 [deg]
#   9 THETA_WORLD            Position angle (CCW/world-x)                               [deg]
#  10 FWHM_WORLD             FWHM assuming a gaussian core                              [deg]
#  11 ELONGATION             A_IMAGE/B_IMAGE                                           
#  12 ELLIPTICITY            1 - B_IMAGE/A_IMAGE                                       
         1 -12.7878    247.3270     23.3727   3.5856002789e+02   2.1996982649e+01    0.8672202    0.4540913 -36.47  0.004767967    1.589    0.371
         2  -9.9341     71.7358      7.4553   1.7629964294e+01   6.5726004630e+01    0.2510939    0.1248355  63.56 0.0007494675    2.008    0.502
         3  -9.9291      2.3387      2.4818   5.5149529411e+01   7.8173163078e+01    0.1999999   0.09531537 -47.01  0.001077379    1.926    0.481
         4  -8.5508    109.3210    246.2739   6.8221474772e+01   8.9549801143e+00    0.1167211   0.08645651   7.61 0.0002326664    1.573    0.364
         5 -10.5417     75.5423    248.2776   7.5561433374e+01   1.3007245239e+01    0.3822646    0.2721369 -67.12  0.002495653    1.708    0.414
         6 -15.2686     57.2352    232.2314   7.8265478027e+01   1.8275916574e+01     5.093678     3.123955 -26.53   0.02414142    3.317    0.699
         7 -13.8842     43.7830    175.0115   7.6637969631e+01   3.2658485289e+01     1.728566      1.09153  48.21  0.008892077    1.438    0.305
         8  -8.9365     90.2830    217.3226   6.9338435349e+01   1.6946878466e+01    0.1227473    0.1003703 -12.58 0.0001978215    1.593    0.372
         9 -11.9971     88.0639    220.8474   7.0240492160e+01   1.6547361943e+01    0.5394429    0.3429382  67.38   0.00282562    1.860    0.462
        10 -10.9412     72.3261    226.2977   7.4393736899e+01   1.7565134242e+01    0.3545358    0.1899831  45.50  0.001823899    1.539    0.350
        11 -11.7103    133.1645    229.4789   6.1128274161e+01   8.5023646113e+00    0.2866038    0.2140672  26.68  0.001241549    1.131    0.116
        12  -9.7263    167.3321    223.6708   5.3086264129e+01   4.5377029606e+00    0.1193546   0.09555551  54.69  0.000705184    1.718    0.418
        13  -9.7963    139.7331    219.5963   5.8346744239e+01   9.2666431012e+00    0.2292128    0.1814445 -65.49 0.0008802388    1.681    0.405
        14 -10.6043     95.4964    219.3343   6.8349120525e+01   1.5809136881e+01    0.2460629    0.1773597  40.32 0.0005484821    1.168    0.144
        15 -16.2479     28.2469    179.4117   8.1235805610e+01   3.3255797469e+01     9.600643     3.548453  82.26   0.02457295    3.673    0.728
        16 -10.6155    104.1434    204.9270   6.4525618216e+01   1.7472896024e+01     0.212897    0.1677489  55.09 0.0004894887    1.262    0.207
        17  -9.6063    131.2142    203.5349   5.7907212847e+01   1.3560054929e+01    0.2346974    0.1842845 -51.63 0.0006767843    1.445    0.308
        18  -9.2363    136.6305    200.8241   5.6234985602e+01   1.3226400940e+01    0.1734167      0.13365 -65.67 0.0006093338    1.651    0.394
        19  -9.7048    210.9823    198.6761   4.0453878277e+01   2.1760939692e+00    0.1736433    0.1382619  11.38 0.0005177556    1.115    0.103
        20  -9.6680    194.6987    197.2804   4.3260110184e+01   4.7499936159e+00    0.2469248    0.1104629 -47.18  0.001072565    2.729    0.634
        21 -11.4825     67.8901    191.6253   7.1969116162e+01   2.5633848545e+01    0.4899907    0.2734689  81.97  0.001790847    2.344    0.573
        22 -14.8185     12.3705    246.5415   8.8418804637e+01   2.0372231551e+01    0.9426004    0.6302491 -62.14  0.004962632    1.955    0.489
        23 -11.0862     74.4218    191.0555   7.0210839321e+01   2.4869128506e+01    0.3100757    0.2372604 -71.13 0.0007506891    1.380    0.276
        24 -10.8658    106.1369    227.8338   6.6894404512e+01   1.2667139563e+01    0.2075188    0.1559458  50.25 0.0009433718    1.263    0.208
        25 -11.1859    107.5471    190.6105   6.1670089436e+01   1.9994769455e+01    0.3454001    0.2469114 -47.24  0.001779801    1.548    0.354
        26  -9.0049    206.5437    190.4452   3.9785651945e+01   4.0759015069e+00    0.1297786    0.1060008  -3.35 5.757574e-05    1.028    0.027
        27  -9.3614     58.9997    184.4964   7.3510842143e+01   2.8485958071e+01     0.202109    0.1707936 -87.64 -0.0001277193    1.167    0.143
        28 -10.9437     62.0129    180.2666   7.2222077201e+01   2.9110659660e+01     0.662573    0.3248719  67.15  0.002562929    2.737    0.635
        29  -9.1270    116.2882    181.6655   5.8057583517e+01   2.0529506929e+01    0.1457605    0.1098397  68.65 0.0007018022    1.629    0.386
        30  -9.7135     99.6085    181.2140   6.2283997076e+01   2.3361994604e+01    0.2621892    0.1853669  36.15 0.0004619955    1.310    0.237
        31 -12.2132     96.5237    225.5193   6.8805526056e+01   1.4456239476e+01    0.6136163    0.3207231  30.50   0.00305123    1.691    0.409
        32 -12.4650     44.1135    118.1089   6.8968439078e+01   4.7504634049e+01    0.9084257    0.5433614  75.17    0.0038086    2.157    0.536
        33 -11.2082     36.8842    111.7958   7.0552440572e+01   4.9999090148e+01    0.6325428    0.2830744  48.28   0.00140905    2.566    0.610
        34 -13.8986     54.5581    128.6772   6.7130429716e+01   4.3379818902e+01     2.892945     1.038106  48.18  0.009374312    3.309    0.698
        35 -13.1258     75.4742    151.6048   6.4327426275e+01   3.4377878251e+01      1.44716    0.7403039 -71.86  0.004403606    2.241    0.554
        36 -12.7283     81.3710    146.5178   6.1654133486e+01   3.4761221892e+01    0.9469236    0.7244448  18.38  0.003442315    1.508    0.337
        37 -11.9920     81.9271    140.3938   6.0342178785e+01   3.6243918940e+01    0.9448351    0.5207621  80.33  0.002962054    3.760    0.734
        38 -11.7871     61.0726    162.4237   7.0244551838e+01   3.3669446855e+01    0.5107676    0.3713066 -20.28  0.002438648    1.951    0.487
        39 -12.7006     65.2319    155.5681   6.8039128577e+01   3.4854358870e+01    0.8242679     0.589611  78.30  0.003437118    1.524    0.344
        40 -12.9962     62.5008    146.5153   6.7489280309e+01   3.7584656393e+01    0.7251947     0.506573  17.01 0.0009633728    1.708    0.415
        41 -14.0521     69.7638    144.6523   6.4910142533e+01   3.7031665197e+01     3.113362     1.441813  69.85  0.007812545    5.954    0.832
        42 -10.5517     79.0779    168.8760   6.5993659787e+01   2.9489833096e+01    0.4083147    0.2499786  78.24  0.001397054    2.197    0.545
        43 -10.4472    180.4196    167.6731   4.0521893175e+01   1.2162412300e+01    0.2701865    0.1309781 -45.92  0.001141355    2.154    0.536
        44 -10.3323     71.7600    167.5351   6.7869059896e+01   3.0896552601e+01    0.2857917    0.1824117  87.18 0.0007856996    1.886    0.470
        45  -9.4883    110.3497    167.0026   5.7082477413e+01   2.4862110106e+01    0.2048474    0.1910295 -68.72 0.0004584577    1.130    0.115
        46  -9.9690    101.7848    166.8174   5.9361962497e+01   2.6367382466e+01    0.2074361    0.1691799  70.65 0.0003865712    1.348    0.258
        47  -9.4480     96.5002    162.0007   5.9988021328e+01   2.8410303061e+01    0.2173233    0.1494265 -62.90 0.0004481245    1.529    0.346
        48 -15.4279      3.7451    235.8821   8.9779846701e+01   2.3207459844e+01     1.351007    0.5041783 -83.07  0.007047565    2.632    0.620
        49 -16.6504      6.1597    219.2759   8.8718061466e+01   2.6333778502e+01     3.028713     1.899104  56.54   0.01485787    1.220    0.181
        50 -11.0862     29.1033    152.1520   7.8575094340e+01   4.0043346416e+01    0.3119407    0.2054405  47.60 0.0003580163    1.449    0.310
        51  -9.9688     85.1150    157.8428   6.2521289422e+01   3.1295070812e+01    0.2312138    0.1901201  68.01 0.0005962545    1.256    0.204
        52  -9.8624     44.1713    156.4477   7.4497226082e+01   3.7319637912e+01    0.4373467    0.1909779  57.81  0.001639822    2.691    0.628
        53  -9.3928    126.4775    157.0512   5.0929975729e+01   2.4254952448e+01    0.2401753    0.2058071  66.48 0.0005312377    1.310    0.237
        54  -9.3226    167.4759    156.0562   4.0878529665e+01   1.6725954638e+01    0.2137346    0.1398981 -41.99 0.0004594286    1.511    0.338
        55 -10.5642     90.5760    152.8435   6.0055630455e+01   3.1655616265e+01    0.2938539    0.2646724  68.70 0.0008872128    1.107    0.097
        56 -10.8882    133.6188    145.6468   4.6683927448e+01   2.5474494811e+01     1.099195    0.2548443 -53.15  0.002509194    6.073    0.835
        57  -8.7736    122.6454    149.2810   5.0344892870e+01   2.6762820186e+01    0.1580391    0.1192821  68.96 0.0004899138    1.658    0.397
        58 -10.4361    108.8041    145.3734   5.3342611811e+01   3.0290323098e+01      0.27917    0.2740164 -78.19 0.0006678129    1.032    0.031
        59 -10.5677     37.0376    142.8352   7.5053249640e+01   4.1680415082e+01    0.4099434    0.2524713  81.96  0.001263395    1.723    0.420
        60 -10.4986     51.9801    143.9530   7.0424607842e+01   3.9649676096e+01    0.2444002    0.1593833  65.02 0.0009075028    1.663    0.399
        61 -14.8263     10.1390    206.2656   8.7308753178e+01   2.8758409182e+01    0.9284217    0.6940255   9.47  0.004059631    1.796    0.443
        62  -9.7903     42.5602    139.8109   7.2873616476e+01   4.1875487488e+01    0.3757426    0.1337109  43.07  0.001359461    2.729    0.634
        63  -9.3343     30.9347    140.0690   7.6683415927e+01   4.3037479092e+01    0.2136819    0.1685755  67.43 0.0003548588    1.214    0.176
        64 -10.6440     90.4160    138.2732   5.7302242884e+01   3.5357742730e+01     0.276343    0.2078309  38.33 0.0004617861    1.317    0.241
        65  -9.9233    143.6730    136.9609   4.2184010993e+01   2.5392323659e+01    0.2176379    0.1989613 -45.88 0.0004879292    1.100    0.090
        66 -10.9877     99.0856    133.8484   5.3730059141e+01   3.4923068992e+01    0.6013287    0.3709296   0.65  0.001965417    3.504    0.715
        67 -11.5213     85.7212    132.6067   5.7594340281e+01   3.7612464531e+01    0.2996349    0.2729468 -55.92 0.0003188784    1.101    0.091
        68 -10.6614    105.6127    130.7781   5.1090774195e+01   3.4457414285e+01    0.4090396     0.350082 -55.70  0.001569691    1.173    0.148
        69  -9.6569    109.1722    126.5315   4.9049079625e+01   3.4802966933e+01    0.2986457    0.2440331 -19.21 0.0006161529    1.468    0.319
        70  -9.0862     32.4867    133.2381   7.5331101549e+01   4.4701382846e+01     0.201505    0.1236955  86.71  0.000925068    1.692    0.409
        71 -10.6920     44.2787    130.5136   7.0948119692e+01   4.4159776997e+01    0.3010626    0.2288842  86.21  0.001534245    1.326    0.246
        72  -9.3314    148.1788    135.1117   4.0650940195e+01   2.4870231717e+01    0.2046371    0.1821477 -78.21 0.0003605681    1.300    0.231
        73 -11.0376     67.0300    126.4987   6.2474394423e+01   4.2207488752e+01     0.550226     0.292572 -77.31  0.002043267    2.427    0.588
        74 -10.8700     22.0947    126.9776   7.8095300290e+01   4.7326527504e+01    0.2617407    0.2350964  53.42 0.0005757999    1.156    0.135
        75  -9.4834     32.0788    125.8376   7.4481054313e+01   4.6721848430e+01    0.1900999    0.1829586  60.36 0.0006266197    1.111    0.100
        76  -9.9656     35.6461    125.2676   7.3149383293e+01   4.6514890082e+01    0.2322726    0.1760199  66.24 0.0007150951    1.354    0.262
        77 -10.4571     95.9004    121.7407   5.1950571565e+01   3.8543050440e+01    0.3239975    0.2647116  20.04 0.0007272325    1.380    0.276
        78 -11.0428     29.0076    107.7869   7.2895614531e+01   5.1850105532e+01    0.4081038    0.2763884  16.12  0.001554902    1.692    0.409
        79 -11.1037     24.3112    104.8705   7.4263442104e+01   5.3042539388e+01    0.3795447    0.2978809 -88.28  0.001308986    1.239    0.193
        80 -10.7779     19.4330    117.6027   7.7900493987e+01   5.0043463967e+01     0.262279    0.2209336  70.13 0.0005115473    1.175    0.149
        81  -9.2261    106.0050    116.2729   4.7475482818e+01   3.7922695705e+01    0.2173215     0.203365  41.70 0.0003472273    1.075    0.069
        82 -10.0943     26.0233    116.0434   7.5281210005e+01   4.9911536014e+01    0.2280059    0.1503945  63.95 0.0006204951    1.641    0.391
        83 -10.4730     52.4035    110.1880   6.4389090345e+01   4.8589422202e+01    0.2186348    0.1397065 -77.10  0.000955669    1.700    0.412
        84  -8.9477     19.6183    108.2834   7.6598482315e+01   5.2513142229e+01    0.1469868   0.09332398  58.43 0.0007010454    1.728    0.421
        85  -9.6198    134.3623    105.1685   3.6500082027e+01   3.4381083913e+01    0.2357586    0.1446233 -53.84 0.0006013079    1.754    0.430
        86  -8.6884     41.3361    100.2960   6.6631689825e+01   5.2567477483e+01    0.1522802    0.1042645 -32.53 0.0007029857    1.649    0.394
        87 -10.1584     50.5509     98.3027   6.2500436977e+01   5.1956764827e+01    0.3073846    0.1593289  42.90  0.001228495    2.073    0.518
        88 -10.2425     41.5134     92.4568   6.4850183892e+01   5.4596950397e+01    0.2624334    0.2218725 -88.52 0.0001048196    1.264    0.209
        89 -11.2053     45.6534     91.2435   6.2830978305e+01   5.4411350645e+01    0.3847798    0.2753389  25.70  0.001110664    1.498    0.332
        90 -10.5677     18.5137     92.3386   7.4597239740e+01   5.6810074940e+01    0.2221294    0.2089964  61.89 0.0005194186    1.160    0.138
        91  -9.8007    184.8346    236.1448   5.1470092296e+01   2.6853901888e-01    0.1648854    0.1175426  -3.91 0.0006993891    1.322    0.243
        92 -10.4285     72.8006    232.5238   7.4839565732e+01   1.6281496296e+01     0.341417    0.2167585 -73.93  0.001978149    1.832    0.454
        93 -11.1935     54.9070     88.8998   5.8393088399e+01   5.3770104253e+01    0.4411638     0.327965 -27.15  0.001741698    1.516    0.340
        94  -9.8115    115.0343     78.0106   3.3653978512e+01   4.4589442934e+01    0.2539891    0.1936667 -83.25 0.0007014528    1.737    0.424
        95  -9.1297    102.0022     77.0059   3.7263136109e+01   4.7777119212e+01    0.2317639    0.1894037 -86.77            0    1.528    0.346
        96  -8.7658    130.6795     75.3670   2.8598116426e+01   4.1369222000e+01     0.166875    0.1212967 -75.05  0.000703789    1.789    0.441
        97 -10.1570     21.2116     74.8568   6.9971185334e+01   6.1100564874e+01    0.2341924    0.2148578  65.10 0.0005060956    1.234    0.189
        98 -10.2417     29.7111     71.6428   6.5073776733e+01   6.1142564775e+01    0.2753752    0.1850943  66.18  0.001057392    2.064    0.515
        99 -10.4683    139.1601     66.0205   2.3592978330e+01   4.0985674865e+01    0.3808436    0.2630691 -69.99  0.001004289    1.827    0.453
       100 -11.1831     13.5222     60.4282   7.0492249838e+01   6.5225169004e+01    0.2706769    0.2256713 -52.32  0.000696585    1.041    0.040
       101 -11.8767      7.1225     60.3477   7.3925478017e+01   6.5627689296e+01    0.2843403    0.2570686 -27.31  0.001845452    1.132    0.116
       102 -12.6777    209.0120     53.3791   8.6791736628e+00   2.6116492755e+01     0.832744    0.7252014 -51.04  0.003355623    1.062    0.058
       103 -13.2535    220.3596     45.2508   5.5245638286e+00   2.4762267545e+01    0.7657298    0.6588343  43.38   0.00173597    1.516    0.340
       104 -11.7086    197.3763     61.0688   1.2054520531e+01   2.7617176831e+01    0.3684708    0.3503913  41.92 0.0007590927    1.254    0.202
       105  -9.6697    176.3697    230.7710   5.2328135539e+01   2.1818767612e+00    0.1623006      0.10448 -25.99  0.000538437    1.651    0.394
       106  -9.6343    137.9782    246.9586   6.2304594182e+01   4.9644439707e+00    0.1454792    0.1198536  24.15  0.000496679    1.048    0.046
       107 -10.7715      3.0855     22.4103   6.5050121691e+01   7.4383323236e+01    0.2521858    0.2012792   0.81  0.001553055    1.253    0.202
       108  -9.6462     60.8578     21.1949   2.9055152766e+01   6.6503212790e+01    0.1957161     0.184184  62.40 0.0007210644    1.268    0.212
       109 -10.4782    148.1939    228.8149   5.7819826944e+01   6.4513202278e+00    0.1780954    0.1356347   4.48 0.0009556644    1.334    0.250
