#   1 NUMBER                 Running object number                                     
#   2 MAG_AUTO               Kron-like elliptical aperture magnitude                    [mag]
#   3 X_IMAGE                Object position along x                                    [pixel]
#   4 Y_IMAGE                Object position along y                                    [pixel]
#   5 X_WORLD                Barycenter position along world x axis                     [deg]
#   6 Y_WORLD                Barycenter position along world y axis                     [deg]
#   7 A_WORLD                Profile RMS along major axis (world units)                 [deg]
#   8 B_WORLD                Profile RMS along minor axis (world units)                 [deg]
#   9 THETA_WORLD            Position angle (CCW/world-x)                               [deg]
#  10 FWHM_WORLD             FWHM assuming a gaussian core                              [deg]
#  11 ELONGATION             A_IMAGE/B_IMAGE                                           
#  12 ELLIPTICITY            1 - B_IMAGE/A_IMAGE                                       
         1 -10.9756    214.6682     37.2338   3.5017303407e+01   2.7970825165e+01    0.7967495    0.4661638 -49.12  0.004480538    1.510    0.338
         2 -10.9326    222.5776     31.3182   3.2999658258e+01   2.7069312502e+01    0.6236529    0.4251941  38.49  0.002131263    2.420    0.587
         3 -10.9942    236.3087     19.1527   2.9442949741e+01   2.5774642563e+01    0.6411148     0.432218 -62.64  0.003064381    1.179    0.152
         4  -7.5596     43.7877     22.3812   6.8377512286e+01   6.6823936876e+01    0.1692432   0.09877074  26.55 0.0005388665    1.543    0.352
         5 -10.6859     25.0621    205.2594   1.1553210892e+02   2.6831312016e+01    0.4336077    0.3039464 -66.08 0.0007240794    1.397    0.284
         6 -13.5269     32.7650    196.7234   1.1296326000e+02   2.8091565478e+01     4.609042     3.331833 -77.82   0.02646745    1.250    0.200
         7  -9.4283    204.8422    236.9992   7.8806072032e+01  -5.2001487857e+00    0.2142208    0.1659272  -3.57 0.0003167558    1.076    0.070
         8 -10.1769    100.9594    230.7625   1.0056005087e+02   1.1312249286e+01    0.3578517    0.2729428 -44.02    0.0020048    1.500    0.333
         9  -8.3569     97.0229    238.5052   1.0240775313e+02   1.0274979060e+01    0.2162594    0.1608938  -8.33  0.001145239    1.897    0.473
        10  -9.5475     98.6965    234.6729   1.0156678274e+02   1.0824314450e+01    0.3141967    0.1726112  23.82   0.00100154    2.027    0.507
        11  -9.1235     49.6847    235.4984   1.1256522247e+02   1.7214455728e+01    0.3397969    0.2569027  -1.41  0.001938599    2.021    0.505
        12  -9.6970     78.3684    243.8100   1.0712099466e+02   1.1786807407e+01    0.4939772    0.2363691  16.34  0.001802402    4.024    0.752
        13  -7.8494     82.4503    233.2482   1.0508727279e+02   1.3434529226e+01    0.1731644    0.1230925 -89.19 0.0009372243    1.599    0.375
        14  -7.9070     43.3434    232.7513   1.1370195731e+02   1.8562231539e+01    0.2398792    0.1754407  19.78  0.001410341    1.693    0.409
        15  -8.6361    173.1061    232.2157   8.4551309539e+01   8.6272103434e-02    0.1988406    0.1584623   1.96 0.0003877943    1.159    0.138
        16  -8.7161    121.9734    232.5066   9.5971921672e+01   7.8025348982e+00    0.2121738    0.1225888  32.63 0.0007723777    1.563    0.360
        17 -10.1913    111.9509    230.9383   9.8053155078e+01   9.6390035146e+00    0.3201147     0.224333  29.53  0.001708617    1.337    0.252
        18  -7.9260     84.4972    230.8273   1.0434678076e+02   1.3667514272e+01    0.2763742    0.1214901  50.19  0.001155064    2.317    0.568
        19  -7.2583    128.6428    230.3081   9.4134467382e+01   7.2254875086e+00    0.1414394   0.09997064  59.14 0.0007041885    1.728    0.421
        20  -7.7557    243.0112    229.4761   7.0358938466e+01  -8.8433015363e+00    0.1739665   0.08706717   6.56 0.0008100646    2.631    0.620
        21  -9.7314    111.3643    224.1315   9.7254710642e+01   1.1157918497e+01    0.4716794    0.1735256  38.84   0.00182217    2.395    0.582
        22  -7.5851    201.9973    225.0560   7.7325649152e+01  -2.8591594993e+00    0.1569278     0.128732   0.77 0.0003448295    1.026    0.025
        23  -7.4974     52.4665    222.2355   1.1075698447e+02   1.9804943793e+01    0.1789883    0.1138818  86.63 0.0009347043    1.634    0.388
        24  -7.5387     62.4532    221.4226   1.0838581590e+02   1.8730625181e+01    0.1327117    0.1155005  63.38  7.06443e-05    1.014    0.014
        25  -7.8097    157.3128    220.0415   8.5996579731e+01   4.7775597361e+00    0.2309688   0.09371042 -31.05 0.0006281453    4.354    0.770
        26  -8.7155    141.0988    220.0316   8.9693945669e+01   7.3553669378e+00    0.2101623    0.1884555  18.19 0.0002922021    1.020    0.020
        27  -8.1750    124.1793    217.3210   9.3229301859e+01   1.0616164277e+01    0.2618982    0.1042994 -52.21  0.001005775    2.635    0.621
        28 -10.7876     19.9228    232.3412   1.1859222886e+02   2.1213825306e+01    0.3899326    0.2662646 -53.99 0.0003235908    1.808    0.447
        29  -7.8973    130.6046    220.1794   9.2157761957e+01   8.9928528272e+00    0.1856233    0.1286264 -39.23 0.0004235625    1.575    0.365
        30  -7.5190    112.6960    216.3453   9.5820549328e+01   1.2637008214e+01    0.1455488    0.1054751  66.71 0.0007040783    1.689    0.408
        31  -7.8086     97.4328    215.0615   9.9312907985e+01   1.5266474443e+01    0.3135419     0.187791  10.14  0.001286209    2.600    0.615
        32 -11.9713      2.1528    208.4251   1.2084703336e+02   2.8211544273e+01    0.8751797    0.3496714 -76.42  0.004259659    2.125    0.529
        33 -13.5330      5.0741    247.4242   1.2232140265e+02   1.9528742595e+01     3.604061     1.159203  24.70   0.01506868    4.259    0.765
        34  -7.6482    153.4613    213.4948   8.5759483377e+01   6.6966194690e+00    0.1441211    0.1270827   2.91 0.0008083396    1.073    0.068
        35  -7.7291     84.6516    211.4016   1.0192626430e+02   1.7993185965e+01    0.2508927    0.1782643 -21.14  0.001012585    2.043    0.511
        36  -7.6306     75.9168    212.5625   1.0419594876e+02   1.8962297001e+01     0.184942    0.1219308  -0.70 0.0008064908    2.502    0.600
        37  -7.9895     95.9741    210.4991   9.9033439366e+01   1.6526420457e+01    0.3354453    0.1678672 -53.59  0.001447691    2.063    0.515
        38  -7.6120    188.9326    210.2251   7.7356462270e+01   1.6870758422e+00    0.1714471    0.1066756  32.49 0.0003208463    1.574    0.365
        39  -8.0259     64.0341    208.9038   1.0664114402e+02   2.1429477346e+01    0.2666338    0.1867174 -69.75  0.001419939    1.414    0.293
        40  -7.8093     63.5259    204.9864   1.0630986386e+02   2.2431034408e+01    0.2015114    0.1287512 -66.21 0.0003529785    1.538    0.350
        41  -8.5562    118.2981    208.8900   9.3328844982e+01   1.3399854987e+01    0.1973771    0.1806365 -45.44  0.001114434    1.151    0.131
        42  -9.1125     46.7420    206.9567   1.1059636161e+02   2.4051730784e+01    0.3209438    0.2376058 -37.31  0.001250108    1.763    0.433
        43  -9.2752     82.5279    197.6001   1.0058073355e+02   2.1584224994e+01    0.8644214    0.4712692 -49.56  0.003800973    1.940    0.485
        44  -7.9158    115.9318    203.3492   9.3025762984e+01   1.5034355591e+01    0.1996742     0.172775  29.63 0.0002019879    1.117    0.105
        45  -8.0297    114.6509    199.7221   9.2754403404e+01   1.6077833412e+01    0.3756023    0.2377769  -1.44   0.00106374    2.679    0.627
        46  -9.0580     47.5246    199.8733   1.0967381327e+02   2.5668461677e+01    0.3779148    0.2324012  24.47 0.0009469903    1.852    0.460
        47 -11.8393      1.8743    230.3580   1.2210094690e+02   2.3372703214e+01    0.3236172    0.1940505 -87.66 0.0007931653    1.428    0.300
        48  -7.9691    193.3001    197.9362   7.4133933737e+01   3.3079245072e+00    0.3726725    0.2616543 -72.80  0.001492464    2.865    0.651
        49  -8.1278    109.1563    198.4391   9.3927318632e+01   1.7270610620e+01     0.247188    0.2015742 -57.95 0.0002435167    1.270    0.212
        50  -8.5689     88.8540    197.1712   9.8900385530e+01   2.0749864486e+01    0.3505985    0.2592577  -6.85  0.001128641    1.884    0.469
        51  -7.6144     97.8298    196.1637   9.6448420039e+01   1.9614592095e+01    0.1942415    0.1674629 -28.26  0.000371721    1.314    0.239
        52  -7.4702    129.9944    193.9666   8.7935204091e+01   1.4834709553e+01    0.1736661    0.1686965 -17.16 0.0003623847    1.039    0.038
        53  -7.4031     57.5875    193.2421   1.0639255198e+02   2.6069491772e+01    0.2059145    0.1315051 -70.28 0.0003069577    1.502    0.334
        54  -7.6360     60.6743    190.4628   1.0525100210e+02   2.6367751314e+01    0.2720093    0.1835374  16.43  0.000779849    1.844    0.458
        55  -7.6642     64.4588    191.5059   1.0440469957e+02   2.5611018792e+01    0.2291834    0.2035248 -81.75 0.0006088557    1.070    0.066
        56  -7.9063     64.9321    188.4872   1.0388286957e+02   2.6304310906e+01    0.2433782    0.1428373  27.14 0.0006055876    1.851    0.460
        57  -8.1985     72.3116    191.2951   1.0233590179e+02   2.4595738498e+01    0.4068758    0.2567963 -14.16  0.001635759    2.832    0.647
        58  -8.1313     90.9795    189.7157   9.7217924546e+01   2.2248032784e+01    0.2663758    0.1480529  75.83 0.0008938929    3.418    0.707
        59 -13.5084      2.8024    222.0976   1.2148399987e+02   2.5082399058e+01    0.8747388    0.6683105  41.80  0.005753757    1.357    0.263
        60  -9.7997      6.6897    188.6632   1.1852985393e+02   3.2498648797e+01    0.4733515    0.2636442  -4.26  0.002195664    3.244    0.692
        61  -8.3605    120.9221    188.3659   8.9217299141e+01   1.7688388198e+01    0.2280791    0.2031238 -69.21  0.000306274    1.209    0.173
        62  -7.9432     80.6599    187.9657   9.9666730442e+01   2.4233518332e+01    0.1975575    0.1779114 -73.64 0.0002998503    1.090    0.082
        63  -9.4375     20.4996    189.3446   1.1527600350e+02   3.1123724063e+01     0.272488    0.2232326 -25.63  0.001161584    1.629    0.386
        64  -9.1550     11.0336    183.4967   1.1709260807e+02   3.3402790674e+01    0.3275606    0.1776522  47.53  0.001295422    1.804    0.446
        65  -8.6541      7.5861    180.7221   1.1771312367e+02   3.4368346332e+01     0.250853     0.194516 -32.23 0.0009741848    1.680    0.405
        66  -9.7184     49.0230    181.2533   1.0714964917e+02   3.0144096447e+01     0.417273    0.3332267  54.06  0.002320707    1.238    0.193
        67 -10.1429     55.1270    178.5306   1.0516344057e+02   3.0100872790e+01    0.4788033    0.3410205  11.29  0.001630674    1.791    0.442
        68  -7.5228    244.7068    181.3133   6.1229155639e+01  -1.4219886255e+00    0.1169775   0.09629795 -54.67  0.000385885    1.594    0.373
        69  -7.1661     73.7708    203.9796   1.0364941590e+02   2.1289771044e+01    0.1733545     0.112899 -66.33 0.0008471571    1.539    0.350
        70  -8.5083     36.9609    178.8867   1.1006149386e+02   3.2104887679e+01    0.3747156    0.2117293 -42.84  0.001717387    2.131    0.531
        71 -12.7783     12.5444    231.2137   1.2002294579e+02   2.2190865876e+01     0.835761    0.7130193 -15.28  0.005718748    1.788    0.441
        72 -11.7441     13.1941    244.1483   1.2061770627e+02   1.9404665190e+01    0.2684811    0.2146306 -85.18  0.001406422    1.250    0.200
        73  -8.0831     78.0353    182.0393   9.9471590937e+01   2.6108682621e+01    0.2125573    0.2053531 -86.45  0.001205903    1.031    0.030
        74  -9.0286      1.9994    176.1283   1.1872772594e+02   3.5928718836e+01    0.2927271    0.1536928 -87.49  0.001491083    1.661    0.398
        75  -7.2216     76.7459    176.3092   9.8931581539e+01   2.7757798148e+01    0.1470684    0.1098872  74.94 0.0001828153    1.517    0.341
        76  -9.7386     23.9037    156.4738   1.1104918404e+02   3.9162288782e+01    0.3508143    0.2965572  19.14  0.001681091    1.403    0.287
        77  -9.1511     15.5398    152.1658   1.1293729220e+02   4.0972458165e+01    0.4880216    0.2404827  22.66  0.002297709    2.346    0.574
        78  -9.5963     17.3686    171.8345   1.1446721729e+02   3.5783581067e+01    0.5522124    0.2800421 -79.71  0.002626019    1.760    0.432
        79 -13.6239      3.4857    238.1967   1.2217785597e+02   2.1570006461e+01    0.5786909    0.3328924  88.87  0.002549719    1.498    0.332
        80  -8.0669     28.0251    161.0651   1.1042841538e+02   3.7594819517e+01    0.2546577    0.1914723  55.66  0.001408741    1.382    0.276
        81 -10.1315     23.9468    170.2702   1.1257368725e+02   3.5598542510e+01    0.5026033    0.3232231   0.14  0.002500067    2.246    0.555
        82  -8.5141     25.4276    165.2080   1.1162527747e+02   3.6763428118e+01    0.4017775    0.2202355 -44.53  0.001876578    2.038    0.509
        83  -9.5753     61.1385    173.0279   1.0274894885e+02   3.0756777835e+01    0.3172205    0.2526872 -46.99 0.0004538278    1.312    0.238
        84  -8.7355     80.9878    179.4264   9.8264751287e+01   2.6338680850e+01    0.2681373    0.2084975 -62.56 7.479697e-05    1.256    0.204
        85  -9.3007    175.3546    172.3509   7.2868855215e+01   1.1530270489e+01    0.2919661     0.256228 -10.07 0.0007585573    1.109    0.099
        86  -8.2606     46.8834    171.9119   1.0653839218e+02   3.2799237864e+01    0.3726136    0.1862216 -85.27  0.001307314    2.440    0.590
        87  -7.8571      7.1670    170.5402   1.1698581068e+02   3.6933359168e+01    0.2254292    0.1139268  32.27 0.0009623988    2.105    0.525
        88  -7.5297     72.8154    169.7047   9.8969863358e+01   3.0027894173e+01    0.2084689    0.1250439  40.58 0.0004120353    1.680    0.405
        89  -7.8075     43.0024    168.5538   1.0717464191e+02   3.4111459085e+01    0.1923976    0.1405737  27.02 0.0003798711    1.522    0.343
        90  -9.0124      5.0029    165.9402   1.1715095100e+02   3.8248185114e+01    0.2876142     0.234646 -36.30  0.001795634    1.479    0.324
        91  -7.3089     88.6995    165.3078   9.3716241014e+01   2.8776381419e+01    0.1557871    0.1169672  71.81 0.0001962608    1.598    0.374
        92  -9.0618     71.9522    163.4734   9.8187287679e+01   3.1774769545e+01    0.2740364    0.2596115  49.92 0.0004042591    1.092    0.084
        93 -13.7455      9.1311    235.4037   1.2093755536e+02   2.1624881224e+01     2.179343    0.6563519  69.40   0.00765452    4.664    0.786
        94  -8.8382    153.2312    162.9799   7.6023280047e+01   1.7736604353e+01    0.2322445    0.2191996  27.46 0.0002956777    1.083    0.077
        95  -7.4769     96.2973    163.6225   9.1251386370e+01   2.7977539500e+01    0.1627315    0.1196666  77.42 9.141555e-05    1.753    0.430
        96  -7.1973     92.3019    163.7202   9.2400897999e+01   2.8607503740e+01    0.1536404    0.1176258  69.53 0.0002007873    1.547    0.353
        97 -10.0800     57.6441    160.4624   1.0184668970e+02   3.4491431380e+01    0.5025682     0.303486 -41.53  0.001286753    1.840    0.456
        98  -7.7672     19.7654    162.9881   1.1293294141e+02   3.7837703118e+01    0.2295189    0.1276734  75.26 0.0008496986    2.004    0.501
        99  -9.4938     13.8366    160.9512   1.1433921281e+02   3.8847563459e+01    0.3619913    0.2394424 -16.62  0.001461483    2.122    0.529
       100  -7.6414    171.8763    158.8640   7.0748692454e+01   1.5075228346e+01    0.1997052    0.1792379 -71.26 0.0003897551    1.316    0.240
       101  -9.1073    122.4348    157.9231   8.2845682523e+01   2.4792855036e+01    0.2702646    0.2391469  43.94 0.0003958704    1.160    0.138
       102  -9.7003     79.7293    156.6462   9.4715236334e+01   3.2417800933e+01    0.5635635    0.4055569 -23.89  0.001928602    1.759    0.431
       103  -8.7311     51.6580    156.4324   1.0297653762e+02   3.6291692778e+01    0.2652315    0.2141762 -53.09 0.0002444865    1.191    0.161
       104  -8.5102    248.6102    154.8384   5.5418855764e+01   2.5464156957e+00    0.1955268    0.1019808 -46.20 0.0009569926    1.736    0.424
       105  -8.4714      8.8075    155.0040   1.1512431807e+02   4.0747373602e+01    0.1911135     0.175439  88.53 0.0003373951    1.121    0.108
       106  -7.5552    172.1236    153.8665   6.9582826963e+01   1.6111458478e+01    0.1989247    0.1696211 -11.14 -0.0006383859    1.233    0.189
       107  -7.4960    128.4439    153.4793   8.0263746787e+01   2.4742803259e+01    0.1567729    0.1537866 -56.14 5.071406e-05    1.048    0.045
       108  -9.3234     35.6253    161.3624   1.0831959413e+02   3.6773399296e+01    0.4913898    0.2726177  82.05  0.001092937    2.210    0.547
       109  -7.9790     50.6839    150.7517   1.0237550192e+02   3.7907785097e+01    0.2283629    0.1601676 -52.75 0.0004890966    1.334    0.250
       110  -9.0967    115.9596    148.6735   8.2612192865e+01   2.8288188551e+01    0.3079113    0.2230692 -51.23 0.0006085093    1.351    0.260
       111 -10.5653     68.5111    144.8062   9.5876464833e+01   3.7167758811e+01    0.7563384    0.4790487  61.08  0.002708744    2.040    0.510
       112  -8.0897     23.0417    148.1239   1.1028291520e+02   4.1409804083e+01    0.2106031    0.1527745 -49.72 0.0002553987    1.342    0.255
       113  -7.2664     12.5360    148.5216   1.1339493519e+02   4.2139678231e+01    0.1352305    0.1124087 -72.92 0.0002012177    1.025    0.024
       114  -9.6813    246.4413    144.4374   5.3670406294e+01   4.6826284390e+00    0.3766577    0.2239589  41.83  0.002010286    2.051    0.512
       115  -7.8121     27.6389    142.7829   1.0819700313e+02   4.2403903925e+01    0.2151749    0.1445221 -55.71 0.0005696618    1.325    0.245
       116  -9.4915     83.0409    142.9007   9.1026217243e+01   3.5490382401e+01    0.4945224     0.333587  69.10  0.002054156    2.064    0.516
       117  -7.3851     15.9692    142.0147   1.1163128418e+02   4.3564832749e+01    0.1651497    0.1379182 -72.52 0.0005585369    1.009    0.009
       118  -8.5207     71.8158    137.1000   9.3322059417e+01   3.8713376368e+01    0.3013069     0.199542 -10.53 0.0008528994    2.193    0.544
       119  -7.8418      5.6615    137.7294   1.1421763967e+02   4.5378741775e+01    0.1336084   0.08380482 -44.36 0.0003646325    1.602    0.376
       120  -8.8659     96.7884    143.0121   8.6899241676e+01   3.3178769344e+01     0.400143    0.2633917  28.90 0.0009983474    1.637    0.389
       121  -8.3859     28.9653    133.5802   1.0644470055e+02   4.4691502453e+01    0.2664842    0.1853424 -68.17 0.0005619506    1.256    0.204
       122  -9.4104      9.7963    132.1653   1.1230603897e+02   4.6539243780e+01    0.3182642    0.2028573 -84.00 0.0009865379    1.468    0.319
       123  -7.7954    107.7744    131.8010   8.1065578097e+01   3.4013476997e+01    0.2680113    0.1676894 -15.87 0.0009376859    2.705    0.630
       124  -8.1475     66.9567    129.9639   9.3398972415e+01   4.1268421695e+01    0.2412644    0.1817864  71.07  0.001123788    1.682    0.405
       125  -9.5853    244.6818    123.5291   4.9677681432e+01   8.6059742999e+00    0.3717391    0.1333579 -48.68  0.001449139    2.686    0.628
       126  -9.0655     65.9724    124.7977   9.2613655669e+01   4.2741017303e+01    0.2409222    0.2036474 -54.72 0.0003118356    1.103    0.093
       127  -6.8832    122.4481    124.4675   7.5026917060e+01   3.2911475813e+01    0.1583438     0.154502 -54.80 0.0001132081    1.048    0.046
       128  -7.3998      1.4949    125.4644   1.1409577311e+02   4.8742340501e+01    0.1330104    0.1062875 -64.95 0.0003509794    1.037    0.035
       129  -7.2817     21.7956    122.3828   1.0706087715e+02   4.8194826345e+01    0.1684957    0.1278352 -11.26 0.0002045181    1.545    0.353
       130  -7.4650      5.7675    119.9659   1.1203624075e+02   4.9896088142e+01    0.1750275   0.09183413 -69.31  0.000332602    1.549    0.354
       131  -9.9056    248.9941    115.7647   4.7503027602e+01   9.2111246017e+00    0.4793659    0.1394223 -46.95  0.001751773    3.079    0.675
       132  -7.8688     65.8927    116.5810   9.0785625464e+01   4.4844496472e+01    0.2323929    0.1827069 -51.90 0.0007301784    1.179    0.152
       133  -8.6903     32.8238    115.2666   1.0204653264e+02   4.9075520817e+01    0.2426893    0.1894432 -54.88 0.0002705016    1.104    0.094
       134  -8.3027     59.3838    110.0344   9.1508958345e+01   4.7384478838e+01    0.2426926    0.1988338  49.09 0.0001612014    1.409    0.290
       135  -9.1221    249.0677    106.3030   4.5575513469e+01   1.0787536724e+01     0.222453    0.1754472  48.86  0.001387481    1.578    0.366
       136  -8.5639     63.4504    237.3798   1.0974530521e+02   1.5095311054e+01    0.3551305    0.2177179 -66.93  0.001338638    1.710    0.415
       137  -8.2598     58.6710    102.3394   8.9879650401e+01   4.9369706279e+01    0.2238406     0.213825  84.70 0.0004935234    1.219    0.180
       138  -9.4264     84.1635     99.4457   8.0120471838e+01   4.6097139685e+01    0.2647286    0.2362613 -30.63 0.0003211119    1.065    0.061
       139  -7.3737     73.2990     96.3127   8.3005495105e+01   4.8638213584e+01    0.1548452     0.110658 -18.76 0.0002238748    1.605    0.377
       140  -7.3932     41.5987     96.1653   9.4735865350e+01   5.2943804190e+01    0.1976481    0.1129548 -46.61 0.0001566952    1.524    0.344
       141  -8.3618     87.8091     91.4493   7.6587343787e+01   4.7242887189e+01    0.2428462    0.2020054 -39.18 0.0003173924    1.167    0.143
       142  -7.0337     42.4819     92.4794   9.3487575812e+01   5.3726999679e+01    0.1418647    0.1252402 -37.46 -2.360509e-05    1.021    0.021
       143  -7.1101     56.3526     91.7615   8.7966051047e+01   5.2191893465e+01    0.1357668    0.1108673  57.48 0.0003055426    1.576    0.365
       144  -7.7128     21.5225     85.4492   1.0016337698e+02   5.7356849516e+01    0.1360894    0.1116091 -41.20 8.532184e-05    1.018    0.018
       145  -6.9902     41.6865     75.2822   8.9134921922e+01   5.7733017444e+01    0.1242375    0.1090017  65.15            0    1.573    0.364
       146  -8.6041     18.5474     74.7398   9.8863208315e+01   6.0041390792e+01    0.2462997    0.1647519  62.91 0.0008360915    2.470    0.595
       147  -7.4869     15.2977     61.3359   9.6777287625e+01   6.3201700674e+01    0.1393556   0.07479234 -32.41 0.0002542124    1.653    0.395
       148  -8.0804    203.6361     55.2853   4.0331686076e+01   2.7874265866e+01    0.1403018   0.08967274 -72.43 0.0007020461    1.689    0.408
       149 -10.6611    207.9652     43.1581   3.7042765563e+01   2.8625143377e+01    0.4847389    0.3113948 -53.45  0.002001588    1.401    0.286
       150  -8.5232    118.0198     43.9858   5.2273380576e+01   4.9373495121e+01    0.2003399    0.1848566  39.94            0    1.032    0.031
       151 -10.4872     70.8871    244.7929   1.0883734181e+02   1.2581568409e+01    0.4674736    0.3494575  23.41  0.002785835    1.486    0.327
       152  -7.8693    184.6692    243.1924   8.3899998738e+01  -3.4456250547e+00    0.1702158      0.16091 -37.42 0.0007236163    1.415    0.293
       153  -8.3677     14.1628     26.3549   8.5222929533e+01   6.9882303693e+01    0.1511791   0.09746488  24.15 0.0004730676    1.608    0.378
       154  -8.5031     92.6652    241.3200   1.0370785963e+02   1.0320517450e+01      0.24919    0.1424776 -38.89  0.001172964    2.440    0.590
