#   1 NUMBER                 Running object number                                     
#   2 MAG_AUTO               Kron-like elliptical aperture magnitude                    [mag]
#   3 X_IMAGE                Object position along x                                    [pixel]
#   4 Y_IMAGE                Object position along y                                    [pixel]
#   5 X_WORLD                Barycenter position along world x axis                     [deg]
#   6 Y_WORLD                Barycenter position along world y axis                     [deg]
#   7 A_WORLD                Profile RMS along major axis (world units)                 [deg]
#   8 B_WORLD                Profile RMS along minor axis (world units)                 [deg]
#   9 THETA_WORLD            Position angle (CCW/world-x)                               [deg]
#  10 FWHM_WORLD             FWHM assuming a gaussian core                              [deg]
#  11 ELONGATION             A_IMAGE/B_IMAGE                                           
#  12 ELLIPTICITY            1 - B_IMAGE/A_IMAGE                                       
         1 -10.2593     41.1250     13.7155   3.4433349119e+01   6.7603680397e+01    0.2386721    0.1579455  26.17 0.0001893118    1.234    0.190
         2  -9.3734     97.7436     11.9228   1.5571998810e+01   5.6860362891e+01    0.2269743    0.1624123   8.32 0.0009216446    1.735    0.424
         3  -8.7115      3.4229     12.3085   5.3350638071e+01   7.2440249656e+01    0.1322296   0.09629258 -36.98 0.0009374953    1.516    0.340
         4  -8.3521     65.1302      4.8714   2.1664384641e+01   6.4218142977e+01    0.1637966    0.1105708  31.50  0.001025389    1.279    0.218
         5  -8.2289     52.0138      3.0187   2.5304146607e+01   6.6816254347e+01    0.1394585    0.1089713  27.77            0    1.037    0.036
         6  -8.9679      2.9778      3.0391   4.9247747717e+01   7.3708170182e+01    0.1718275   0.09806471  -3.97 0.0003561857    1.574    0.364
         7  -9.4371     67.5439      1.3875   1.9499561456e+01   6.4027263333e+01    0.2135635   0.09308872  54.39 0.0002361941    1.853    0.460
         8 -11.5041     90.5739    231.6675   7.1113195724e+01   1.2752304955e+01     1.460136    0.3589415 -62.23  0.004505022    4.696    0.787
         9 -10.4930    247.2679    248.5114   4.0390311268e+01  -1.2382289280e+01    0.3061255    0.2433532   4.49   0.00161016    1.211    0.174
        10  -9.1136    214.1270    250.1572   4.6720846027e+01  -8.8111907639e+00    0.1968444    0.1382946  -2.23  0.001229086    1.246    0.197
        11  -9.7379    205.1343    249.7483   4.8404501583e+01  -7.6163675715e+00    0.2438181    0.1755377  25.56  0.001521745    1.303    0.233
        12  -9.1997    179.4457    249.6817   5.3613189167e+01  -4.1542707526e+00    0.1989149    0.1947985 -49.03  0.001345494    1.414    0.293
        13  -9.5107    157.4496    221.6307   5.3872536481e+01   4.2745806735e+00    0.2829992    0.2433218  -6.80 0.0009861818    1.148    0.129
        14 -11.7150    166.7333    248.1917   5.6077206323e+01  -2.0884525848e+00      1.08671    0.4563507  41.09   0.00470086    2.380    0.580
        15 -11.3253    173.6476    244.8382   5.4079869966e+01  -2.5089496654e+00    0.6730711    0.5160679 -47.92  0.003987868    1.555    0.357
        16 -11.3605    167.4546    242.2770   5.5006669895e+01  -1.1554837676e+00     0.658027    0.3863028  39.05  0.002210134    1.647    0.393
        17 -11.3732    169.8119    233.9340   5.3161208596e+01  -2.7665106921e-03    0.6479829    0.6195518  56.26  0.003794394    1.343    0.255
        18 -10.9247    161.6275    231.1746   5.4511450379e+01   1.7637697387e+00    0.5887022     0.346368  28.95  0.001697568    1.569    0.363
        19 -11.4285    162.2188    225.7906   5.3493915757e+01   2.7003985656e+00    0.6783934    0.3780266  25.34  0.002486175    1.793    0.442
        20 -10.6865     53.4676    249.4952   8.1404894875e+01   1.4054880331e+01    0.4198013    0.2957966  26.58  0.001929762    1.544    0.352
        21  -9.6065     56.6770    246.6575   8.0459955275e+01   1.4239216068e+01     0.243418    0.2064121  34.48 0.0006973287    1.237    0.192
        22 -11.6931     19.1705    247.8137   8.8453645123e+01   1.8442828633e+01     1.396819    0.3245721  44.21  0.005800706    2.972    0.663
        23 -10.1219      7.5532    242.3908   9.0471149719e+01   2.0786745494e+01    0.3953331    0.2095859  48.44  0.002093189    1.552    0.356
        24  -9.7050      4.0235    249.1573   9.1522108599e+01   1.9720917707e+01    0.2788039    0.1527373  58.05 0.0009058032    1.464    0.317
        25 -10.1322     87.3842    227.7580   7.1385516679e+01   1.4089762040e+01    0.5974354    0.2055434 -51.87  0.002210011    3.162    0.684
        26 -11.4445     98.7519    225.5685   6.8366901529e+01   1.2857629712e+01    0.5149225    0.4699298  -2.39  0.001395628    1.248    0.199
        27 -11.8596     95.6374    218.1372   6.8111204610e+01   1.5011183685e+01     0.752917    0.4393623  43.88  0.002117404    1.584    0.369
        28 -10.5036     99.9958    217.3162   6.6919970603e+01   1.4518766826e+01    0.3840996    0.2494319  50.94 0.0007899952    1.538    0.350
        29 -10.2831     12.9590    250.0910   8.9827476839e+01   1.8624506169e+01    0.3148885    0.1753761  52.78  0.001877019    1.445    0.308
        30  -9.1168     87.1283    247.6666   7.3788997838e+01   9.8607726820e+00    0.2965745   0.08748078  39.67  0.001111688    2.689    0.628
        31  -8.6301     36.4529    247.5051   8.4869373641e+01   1.6561858607e+01    0.1239219    0.1022722  63.59 0.0008086197    1.027    0.026
        32 -10.6968     73.6141    244.5759   7.6500618679e+01   1.2410052289e+01    0.2757062    0.2590862  48.00 0.0005718746    1.136    0.120
        33  -8.5616    188.2957    248.6933   5.1624086598e+01  -5.2160671175e+00    0.1128309   0.09903672  49.75 0.0002132753    1.586    0.369
        34 -11.2963    237.5133    240.6336   4.0818875126e+01  -1.0183563505e+01    0.5093294    0.3517608  -8.08  0.002182221    1.224    0.183
        35 -11.2502    239.0084    230.1254   3.8790203742e+01  -8.7878134807e+00    0.5723637      0.33092   1.71  0.002764771    1.963    0.491
        36  -9.2626    242.8548    223.8621   3.7045641603e+01  -8.2855484261e+00    0.2505582    0.1443032 -29.19 0.0007992186    1.471    0.320
        37 -10.9804     98.1299    241.5022   7.0562130597e+01   9.5282616574e+00    0.5032912    0.3028894  30.21  0.001092025    1.558    0.358
        38  -9.4667    250.3634    241.7734   3.8757932261e+01  -1.1771150518e+01    0.2145381    0.1444416 -35.71 0.0005966326    1.469    0.319
        39  -9.3963    249.0153    237.4916   3.8282224015e+01  -1.1015594279e+01    0.2299637    0.1390608 -25.41 0.0009554311    1.357    0.263
        40  -9.2887    221.2565    239.9193   4.3687068967e+01  -8.1353002481e+00    0.2242104    0.1567271  12.24 0.0006730513    1.281    0.219
        41  -8.9298     16.2651    237.8045   8.8424390432e+01   2.0884171678e+01     0.323335    0.1269641  56.06  0.001510138    2.289    0.563
        42 -10.3582    231.1362    234.5286   4.0950702881e+01  -8.5182490441e+00     0.315378    0.2341487 -17.92   0.00105758    1.108    0.097
        43  -8.7530    154.8039    237.5430   5.7043724301e+01   1.6153896430e+00    0.2543833    0.1463921 -25.22  0.001136906    2.304    0.566
        44 -11.2352    117.9897    227.6158   6.4039513783e+01   9.3985773982e+00    0.9581917    0.3693031  35.00   0.00369522    2.314    0.568
        45 -11.5943    126.5681    221.4089   6.1057064434e+01   9.3451392596e+00    0.8692932      0.50315 -71.38  0.002917269    2.618    0.618
        46  -8.2602    195.4545    227.7881   4.6707642799e+01  -2.6925768769e+00    0.1785993    0.1126197 -27.80 0.0005795499    1.566    0.361
        47 -10.6156    181.3011    226.0814   4.9373370030e+01  -3.0267230026e-01    0.4038749    0.2891018  49.33   0.00213906    1.770    0.435
        48  -9.2110    144.9287    227.6150   5.7718492454e+01   5.0900559797e+00    0.2477285     0.186055 -25.77 0.0005475387    1.481    0.325
        49  -9.4792    249.4953    227.1120   3.6458895479e+01  -9.5478412123e+00    0.2822035    0.1751338   4.52  0.001700677    1.656    0.396
        50  -8.7885    191.6635    227.0706   4.7364984037e+01  -2.0182368361e+00    0.1829695    0.1512494 -13.26 0.0003343738    1.095    0.087
        51  -7.7667     73.4838    224.4671   7.4323422167e+01   1.6849931676e+01    0.1369494    0.1243165  55.70 0.0008093265    1.032    0.031
        52  -9.4236     66.7687    223.7195   7.5848837347e+01   1.7958184315e+01    0.2368302    0.2038288  86.60 0.0006107948    1.142    0.125
        53  -9.7029    115.0099    220.9752   6.3777222861e+01   1.1310317683e+01    0.3457877    0.2106225 -52.83  0.001006342    1.767    0.434
        54  -9.0116    213.9024    220.8838   4.1836335794e+01  -4.1000743923e+00    0.3268794    0.1510812  43.81   0.00144216    2.807    0.644
        55  -9.4868    219.4304    218.9519   4.0440115062e+01  -4.5274366891e+00    0.3267238    0.2410865  -6.83  0.001966957    1.253    0.202
        56 -10.9075    131.1261    215.3974   5.9006770547e+01   9.8908271688e+00    0.8080739    0.5160415 -68.56  0.003640512    2.093    0.522
        57  -9.1650    128.0599    211.7809   5.9159962950e+01   1.1192569242e+01    0.2228977    0.1869744  58.83 0.0003392472    1.309    0.236
        58  -8.7174    149.4001    219.7564   5.5404995791e+01   5.9578183922e+00    0.2044193    0.1930393  25.04 0.0006949427    1.086    0.079
        59  -9.4066    151.5265    216.0392   5.4285748760e+01   6.3704483924e+00    0.3323589    0.2279843   2.10  0.001039262    1.840    0.457
        60  -9.8585     75.2645    219.3097   7.3276183712e+01   1.7784257501e+01    0.3054745    0.2283813  59.62 0.0008378292    1.297    0.229
        61 -10.2187    190.3568    216.2095   4.5739448229e+01   1.3628593709e-01    0.4982932    0.3174706 -32.55  0.002573377    1.533    0.348
        62  -9.9996    175.9827    216.0719   4.8783828780e+01   2.3966344227e+00    0.3093976    0.1837489 -38.62  0.001083084    1.691    0.409
        63  -8.2134    143.5998    217.2061   5.6333703293e+01   7.4379315522e+00    0.1951741    0.1318689 -37.97 0.0008727689    1.592    0.372
        64 -10.3404     84.9655    213.8555   7.0177705861e+01   1.7632859888e+01    0.6734159    0.2828614 -58.11  0.002687294    2.427    0.588
        65 -10.2484    170.7502    215.1987   4.9779806168e+01   3.4014258136e+00    0.3062023    0.2600116   2.92 0.0006901136    1.110    0.099
        66  -9.5065     23.1442    216.2700   8.5397557186e+01   2.5015022377e+01    0.3376548   0.09568303  30.46  0.001290961    3.272    0.694
        67  -9.8029    113.0034    212.5694   6.2992055779e+01   1.3511173150e+01    0.6815918    0.4301206  -7.08  0.002655638    2.844    0.648
        68  -9.2860    228.4993    214.0948   3.7896034267e+01  -4.9292730205e+00     0.234512    0.1387051 -32.69  0.001263498    1.482    0.325
        69  -9.8750    202.6664    211.4571   4.2366312872e+01  -8.4874180893e-01     0.478748    0.2121214 -42.92  0.002111465    2.170    0.539
        70  -9.9071     64.4191    213.3644   7.5234001735e+01   2.0704037407e+01    0.5142725    0.2114058  45.28  0.002076492    2.257    0.557
        71 -10.6197    121.7784    222.3653   6.2352763628e+01   9.9165143499e+00    0.3523062    0.3107464 -89.75  0.001985736    1.326    0.246
        72  -8.7453    212.7954    199.1908   3.8124890359e+01  -1.4010610330e-01    0.3058726    0.1615769 -36.32 0.0003942607    1.740    0.425
        73 -10.5591    212.0328    208.4486   3.9975103148e+01  -1.6848879451e+00    0.4927542    0.3987765 -25.57  0.002407566    1.104    0.094
        74  -9.5888    211.7618    203.3961   3.9102707038e+01  -7.4474739011e-01    0.3650285    0.1893316  37.19   0.00159161    2.037    0.509
        75  -9.9409     78.2935    211.1019   7.1486303877e+01   1.9274927363e+01    0.3888283    0.2495897  27.81  0.001862764    1.614    0.381
        76  -8.9600     77.3254    207.6965   7.1281647100e+01   2.0231659861e+01    0.3550125    0.2212554  84.05  0.001560194    2.091    0.522
        77  -8.1131    148.5461    211.0152   5.4118683335e+01   7.9130062716e+00    0.1842331    0.1317267 -84.62  0.000578152    2.335    0.572
        78  -9.9287    237.4400    209.7868   3.5531892450e+01  -5.3850951580e+00    0.2313963    0.2104284 -70.20  0.001525343    1.737    0.424
        79  -8.2535    135.6531    208.8005   5.6816010125e+01   1.0568075846e+01    0.1824887    0.1401022 -64.59 0.0001176706    1.530    0.346
        80 -11.9710     15.2545    197.6260   8.5748516581e+01   3.0248197608e+01     1.514567    0.3422769 -55.96  0.003696368    4.290    0.767
        81 -11.2011     20.6450    181.2355   8.2909154584e+01   3.3791365264e+01    0.6385121     0.394455 -55.61  0.003326963    1.601    0.376
        82 -10.8060     10.4426    186.4553   8.6000155767e+01   3.3417590306e+01    0.5135229     0.313824  60.74  0.001739629    1.595    0.373
        83 -11.7398     12.6235    179.7998   8.4861529567e+01   3.4879104616e+01    0.7670754      0.62621 -66.60  0.004169554    1.178    0.151
        84 -11.7764      5.5549    176.0987   8.6360217122e+01   3.6385588333e+01     1.560402    0.2959076 -65.92  0.005357835    3.573    0.720
        85 -10.9322      3.0832    170.6650   8.6534673699e+01   3.7926160350e+01    0.5539838    0.2474776 -69.76  0.001932542    1.852    0.460
        86  -8.4954    224.2860    205.4096   3.7108437386e+01  -2.8932364100e+00    0.1959525    0.1459699 -52.07 0.0003894239    1.656    0.396
        87  -8.1235     98.6552    205.9713   6.5592338009e+01   1.7366100666e+01    0.2353822    0.1233365 -87.03 0.0007048248    4.381    0.772
        88  -9.4960    129.2796    201.1833   5.7071060628e+01   1.3357870468e+01    0.3801508    0.2577993  53.91  0.001594161    1.667    0.400
        89  -9.8509    166.6801    199.2825   4.7808505194e+01   7.2884593736e+00    0.4839509    0.3107973 -31.66  0.001382931    1.666    0.400
        90 -11.2774    176.0124    184.9813   4.2974629487e+01   8.6416602398e+00    0.7537439    0.5566637 -62.10  0.002271946    1.680    0.405
        91  -9.8590    171.8558    201.6404   4.7083576745e+01   5.9259410417e+00     0.465871    0.3504347  73.16  0.001148847    2.170    0.539
        92 -11.3669    178.5837    196.6203   4.4658074884e+01   5.8097167452e+00    0.8309675    0.5527351 -26.39  0.002777936    1.620    0.383
        93  -9.4888    105.2745    197.5238   6.2559170996e+01   1.8297476535e+01    0.3218904     0.266575 -28.08 0.0009907742    1.389    0.280
        94  -9.0257    112.7794    198.0708   6.0711446242e+01   1.6907130575e+01    0.4527916    0.2461246  64.92  0.001522109    3.357    0.702
        95  -8.7164    113.0676    194.2964   5.9997184520e+01   1.7753662582e+01    0.2133469    0.1972648   5.62 0.0003474068    1.143    0.125
        96  -8.0930     88.2820    198.6294   6.7167512013e+01   2.0772298009e+01    0.1551693    0.1088081  71.14  0.000701459    1.698    0.411
        97  -9.0642     58.4180    196.7565   7.4743090908e+01   2.5563991682e+01    0.2603913    0.1318537 -61.78   0.00113218    1.906    0.475
        98  -9.6724    126.6507    196.6695   5.6938861214e+01   1.4847400314e+01     0.345505    0.2572229  13.70  0.001220898    1.543    0.352
        99  -9.2614    124.5947    193.2079   5.6845102039e+01   1.6011088281e+01    0.3561608    0.2274965 -42.34  0.001537133    1.671    0.401
       100  -8.6892    248.9696    195.0501   3.0940690065e+01  -4.4520524529e+00    0.2049657    0.1290914 -13.90  0.001138151    1.736    0.424
       101  -9.4950    131.6426    194.9802   5.5384521296e+01   1.4360994499e+01    0.2055822    0.1918118 -53.90 0.0005449064    1.130    0.115
       102  -8.4823     40.4722    194.9893   7.9193327654e+01   2.8242799106e+01    0.2106013    0.1241711 -68.22  0.001022421    1.592    0.372
       103 -10.6245     93.8915    181.6389   6.2936606405e+01   2.4084149901e+01    0.5223097    0.3692341 -43.14  0.001254387    1.526    0.344
       104 -11.9449     98.0505    188.8979   6.3037888582e+01   2.1592729977e+01    0.6797053    0.4707591  69.65  0.001130396    1.820    0.451
       105 -10.1253    104.0513    189.4669   6.1535321123e+01   2.0451479899e+01    0.3481834    0.2659772  29.98 0.0009501764    1.312    0.238
       106  -8.2780     77.3034    192.9739   6.9232389439e+01   2.3845377206e+01    0.2358379     0.117073 -89.23 0.0007034914    4.163    0.760
       107  -8.3965     66.6094    194.7894   7.2331989341e+01   2.4937811653e+01    0.3035166    0.1633315  81.70  0.001116874    2.896    0.655
       108  -7.9951    117.0009    190.9996   5.8403811177e+01   1.7860319279e+01    0.1801117    0.1675523  35.71 0.0003341996    1.037    0.035
       109  -8.9910     90.5781    190.5189   6.5303384337e+01   2.2405876787e+01    0.3587484    0.2494567  -1.61  0.001455606    2.128    0.530
       110  -8.9011    185.7188    189.9417   4.1840862054e+01   5.9473328790e+00    0.2659928    0.2009858  31.43 0.0009630504    1.337    0.252
       111  -9.8443    183.0513    185.5262   4.1550128367e+01   7.2974998040e+00    0.4192353    0.2709554 -61.54  0.001565899    2.091    0.522
       112  -9.8843    182.2254    179.9880   4.0630904210e+01   8.5776911847e+00     0.278395    0.2137473 -43.46  0.001436682    1.268    0.212
       113 -10.5940    179.3228    177.3748   4.0734011687e+01   9.6376948344e+00    0.4948879    0.2444385 -35.16  0.001952872    2.207    0.547
       114  -9.6009    204.0100    188.0053   3.7716548750e+01   3.3007714530e+00    0.3685548    0.2496977  56.41  0.001766237    2.131    0.531
       115  -8.6853    198.7652    185.3823   3.8253714206e+01   4.6616895504e+00    0.2755124    0.1344445  34.82 0.0008286035    2.182    0.542
       116  -8.7040    155.1702    187.3561   4.8211297830e+01   1.1864588874e+01    0.2999589    0.1954693 -25.18 0.0009322523    1.888    0.470
       117  -8.5346    128.8341    188.5653   5.4922619946e+01   1.6345072760e+01    0.2180058     0.136541  47.13 0.0009120995    1.649    0.394
       118  -9.6111    232.0752    185.6534   3.2063683131e+01  -5.5679106843e-01    0.3280285    0.2112932 -37.99  0.001788596    1.337    0.252
       119  -9.2165    227.1337    183.5181   3.2528551111e+01   5.4575574120e-01    0.3415816    0.2664411  66.89  0.001893555    2.053    0.513
       120  -9.4264     59.7438    200.1799   7.4825657829e+01   2.4537709733e+01    0.3961964    0.1962229  33.02  0.001717741    1.964    0.491
       121 -10.7922     46.5174    182.8573   7.6167416141e+01   3.0588027328e+01    0.8875299    0.2220871 -62.46  0.002904097    3.341    0.701
       122 -10.2384    209.9553    184.9800   3.5976449762e+01   2.9223328939e+00    0.2971614    0.2156896 -31.38  0.001096489    1.254    0.203
       123  -9.7118    108.2128    185.0340   5.9657380520e+01   2.0825161300e+01    0.4609122    0.3104534 -83.52   0.00161067    2.062    0.515
       124  -8.6930    111.5246    184.4571   5.8673342515e+01   2.0391287293e+01    0.2875098    0.2287271  27.09 0.0009374669    1.282    0.220
       125 -11.3896    172.7920    195.5375   4.5729936877e+01   7.0152818283e+00      0.79979      0.37515 -41.85   0.00176327    2.119    0.528
       126  -8.9696    217.2997    183.0046   3.4211858765e+01   2.1351581205e+00    0.1920518    0.1546087 -31.01 0.0005179557    1.091    0.083
       127  -8.4099    235.3143    182.3174   3.0881706713e+01  -4.3827506529e-01    0.1322174   0.08972829 -13.40 0.0002982476    1.648    0.393
       128  -9.2700    138.7381    179.9964   5.0785608098e+01   1.6538088255e+01    0.3941434    0.2699796  67.50  0.001640983    2.113    0.527
       129 -10.9528    217.9423    165.3684   3.0650345588e+01   5.3237753851e+00    0.5452623    0.3707993  30.92  0.002184247    1.679    0.404
       130 -11.1952    204.1873    175.6817   3.5272016180e+01   5.6435653138e+00    0.5350617    0.4346105 -39.14  0.002319131    1.144    0.126
       131 -11.4398    207.9081    168.7324   3.3171605370e+01   6.3620577047e+00    0.6663333    0.4982734 -44.73  0.003617073    1.257    0.205
       132  -8.9793    112.5785    179.4772   5.7481901633e+01   2.1421852922e+01    0.2943769    0.2196001  23.99  0.001369389    1.434    0.302
       133  -9.5797    105.0372    174.7380   5.8644542248e+01   2.3919422761e+01    0.3855824    0.2398621  86.20   0.00130615    2.860    0.650
       134  -8.8613    104.0365    179.7653   5.9838677481e+01   2.2843025542e+01    0.4053282    0.2102859 -49.91   0.00127504    1.951    0.487
       135  -9.2508    101.1553    177.6329   6.0240235367e+01   2.3868172461e+01      0.31665    0.1971683  33.80   0.00109869    1.595    0.373
       136  -8.4668    219.4846    178.4481   3.2932508650e+01   2.6355782721e+00    0.2238782    0.1181236 -50.81 0.0007287434    2.040    0.510
       137  -8.1400    138.5442    189.5090   5.2658267057e+01   1.4384131454e+01    0.1497952    0.1451689  28.04 0.0001503732    1.035    0.033
       138  -9.6931    157.9165    176.8717   4.5487248459e+01   1.3676394304e+01    0.4538852    0.3087559 -44.83  0.001524874    1.458    0.314
       139 -10.6907    150.3443    174.5160   4.6823594917e+01   1.5624864519e+01    0.6443336    0.4347635  40.46  0.002368087    1.478    0.324
       140  -8.6821    240.5108    177.9359   2.9191722452e+01  -4.1872274639e-01    0.1987758    0.1075013 -39.73 0.0009390183    1.556    0.357
       141  -9.0255    147.6600    180.2912   4.8635136998e+01   1.4817273823e+01    0.2393204     0.185007  78.14  0.001036508    1.814    0.449
       142  -9.0610     89.2623    177.5400   6.3511334071e+01   2.5873980049e+01     0.364103    0.2343583  61.73  0.001379264    1.895    0.472
       143  -7.8490    129.3437    177.6460   5.2718226307e+01   1.8826838520e+01    0.1635959    0.1219731  74.36  0.000703912    1.819    0.450
       144  -8.5666    118.1278    176.2774   5.5396085807e+01   2.1208555446e+01    0.2667791    0.2028401 -44.72 0.0007726664    1.350    0.259
       145  -9.2455     31.4963    166.4504   7.8294752860e+01   3.6491131044e+01    0.3114263    0.2052238 -74.94  0.001098695    1.399    0.285
       146 -10.5234     24.2078    174.4171   8.1250918707e+01   3.5175338846e+01     0.644639    0.3522696  74.42  0.002138181    2.127    0.530
       147 -10.0662     19.3370    166.7043   8.1750372665e+01   3.7594456999e+01    0.2209218     0.175867  58.03  0.000801103    1.272    0.214
       148  -9.3836     28.5229    173.5237   7.9971219896e+01   3.4976870699e+01    0.3004012    0.1897211 -77.37  0.001239717    1.463    0.316
       149 -10.0463     28.7058    169.9933   7.9511005088e+01   3.5862971964e+01     0.435031    0.2988785  33.47  0.002312041    1.537    0.349
       150  -8.4563     77.1711    175.8027   6.6610185690e+01   2.8216477919e+01    0.2306086    0.1890603  71.28 0.0005819162    1.296    0.228
       151  -8.7851    193.0724    172.6180   3.6874462454e+01   8.1630595146e+00    0.2339404    0.1841134 -23.00 0.0007228712    1.281    0.219
       152  -9.3268     91.9970    172.4383   6.1848561182e+01   2.6720252759e+01    0.3964599     0.244001  42.31 0.0009474519    1.602    0.376
       153  -8.5073     88.0054    173.0000   6.3073679764e+01   2.7231926286e+01    0.2847552    0.1954759  33.36  0.001085817    1.462    0.316
       154  -8.5739    223.7340    172.4037   3.0999348954e+01   3.0825003353e+00    0.2260422    0.1296789  44.81 0.0008010713    2.043    0.511
       155  -8.2622    179.6657    169.6982   3.9094789345e+01   1.1182712366e+01    0.1515601    0.1463366 -44.89 0.0003653379    1.097    0.088
       156  -9.2009    176.9700    167.6880   3.9264555232e+01   1.2107060404e+01    0.2834419    0.2104559 -34.11 0.0006887938    1.332    0.249
       157  -9.0731    135.0086    171.1845   4.9973775785e+01   1.9297792934e+01    0.2597191    0.1754414  61.75  0.001078929    1.926    0.481
       158  -9.6074    199.7462    167.3898   3.4476702853e+01   8.0342868977e+00    0.3933019     0.239359 -20.34 0.0009793398    2.218    0.549
       159  -8.9326    121.3609    169.6740   5.3240859147e+01   2.2221658418e+01    0.3248004     0.247024  81.46 0.0009955806    1.753    0.430
       160  -8.4781     55.2493    169.7996   7.1931789411e+01   3.2861341921e+01    0.2465479    0.1330364  66.48 0.0009287575    2.622    0.619
       161 -11.0218    149.9096    163.8878   4.4725576682e+01   1.8128021810e+01    0.6716039    0.4142593 -40.61  0.002873485    1.654    0.395
       162  -9.2971    160.3661    166.3209   4.2736976643e+01   1.5555021569e+01    0.5174583    0.2605191 -59.54  0.001840444    2.696    0.629
       163  -9.1853     97.9109    165.3767   5.8863912668e+01   2.7510441548e+01    0.4118358    0.2647045  75.38  0.001451356    2.426    0.588
       164 -10.6160    246.9779    162.3263   2.5235654334e+01   1.3553383187e+00    0.5579858    0.2974933 -36.46    0.0028953    1.605    0.377
       165 -11.3261    249.6200    154.7518   2.3414373354e+01   2.2757120005e+00     0.890485    0.3780382 -47.77  0.004089416    2.127    0.530
       166  -8.3449     80.7874    165.1474   6.3748604585e+01   3.0400030963e+01    0.2719112    0.1552426  69.78 0.0009452989    2.915    0.657
       167  -8.9493     37.7250    164.7261   7.6282503505e+01   3.6276208150e+01    0.2955539    0.1746382  65.74 0.0008733195    2.023    0.506
       168  -8.8677    249.7414    185.3824   2.9067098303e+01  -2.9538643963e+00     0.232418    0.1336418 -46.66  0.001262076    1.671    0.402
       169 -10.7221     24.2407    159.7360   7.9552666695e+01   3.8931921233e+01    0.7981347    0.3801973   9.55  0.003231071    3.057    0.673
       170  -9.9869     99.7548    158.8152   5.7049703844e+01   2.8847810268e+01     0.675432    0.3301973 -60.21  0.002490786    2.211    0.548
       171  -9.3001     99.9056    153.9197   5.6009645539e+01   3.0056232616e+01    0.4046789    0.2632098 -74.81  0.001196859    2.006    0.501
       172  -8.6651     92.5184    160.0154   5.9376732513e+01   2.9797029731e+01    0.2894459    0.2023376  70.56  0.001228391    1.873    0.466
       173 -10.0411    219.1989    158.9651   2.9152574182e+01   6.3193889127e+00    0.3443661    0.1820889  57.25  0.001451326    2.883    0.653
       174  -8.9443    139.0989    165.3816   4.7734174464e+01   1.9880520747e+01    0.3325282    0.2414988  83.68  0.001281073    2.089    0.521
       175 -10.4455    143.0159    158.4674   4.5275153506e+01   2.0729135912e+01    0.7424824    0.2772831  45.99  0.002404092    2.847    0.649
       176  -9.4653    166.2581    156.8079   3.9347758769e+01   1.6507063225e+01    0.4149542    0.3009524  68.71  0.001850037    1.887    0.470
       177  -8.9232    127.5035    157.0073   4.8975610060e+01   2.4119317662e+01    0.2737481    0.2225162 -45.61 0.0006715385    1.234    0.190
       178  -9.1443    105.1103    157.5471   5.5262129510e+01   2.8208416200e+01    0.3100613    0.2382603  87.30 0.0008681368    1.660    0.398
       179 -10.0855    224.5856    157.0363   2.7836549505e+01   5.7832414989e+00    0.2391853    0.1975442  73.86  0.001373959    1.641    0.391
       180 -10.4923    208.3086    156.5420   3.0627527510e+01   8.6571405171e+00    0.6815521    0.3854912  33.80  0.003113691    2.103    0.524
       181 -11.4279    205.6865    149.8463   2.9731265497e+01   1.0432404358e+01    0.7608029    0.5406187 -53.31  0.003914819    1.415    0.293
       182  -9.7245    206.7198    142.0646   2.7915991609e+01   1.1759122838e+01    0.3046072    0.2198635 -41.30 0.0008028967    1.259    0.206
       183  -9.8910    157.5430    155.2332   4.1027885549e+01   1.8581395207e+01    0.3066585     0.149661 -51.68  0.001146219    2.136    0.532
       184  -9.0499     49.6592    155.2097   7.1346830618e+01   3.7368769897e+01    0.4188498     0.202848  64.39  0.001383504    3.605    0.723
       185 -10.1493    134.6427    153.7478   4.6389510213e+01   2.3493547395e+01     0.604453    0.3888789  64.21  0.001825346    2.189    0.543
       186  -8.6216    119.5766    154.8941   5.0663262726e+01   2.6162570464e+01    0.3036426    0.2019766 -69.22   0.00121822    1.883    0.469
       187  -9.4840     81.6646    154.0919   6.1432980085e+01   3.3110947909e+01    0.3675533    0.2475143  88.12 0.0009332463    2.075    0.518
       188  -9.7710     68.6482    154.2073   6.5390783533e+01   3.5077412243e+01    0.4092976    0.2836926  72.54  0.001307304    1.833    0.455
       189  -9.1957    234.0127    153.8302   2.5646875476e+01   4.8381709179e+00    0.2547165    0.1719889 -40.66  0.001414655    1.259    0.206
       190  -9.8045      4.9996    152.0284   8.4240983225e+01   4.2461671179e+01    0.3720178    0.2226374  61.17  0.001195156    1.839    0.456
       191 -10.7040    223.3601    148.5389   2.6348830732e+01   7.5659775314e+00    0.4603541    0.4001922 -25.38   0.00188304    1.136    0.119
       192  -8.7794    190.0505    150.7849   3.2947776438e+01   1.3160402043e+01    0.2863447    0.1958812  56.83 0.0008840127    1.747    0.427
       193  -8.7371     89.0500    151.2331   5.8655167458e+01   3.2625804411e+01     0.378898    0.1834709  35.93  0.001435517    2.057    0.514
       194  -9.1863     28.2434    148.9380   7.6954977062e+01   4.1338501718e+01    0.4917554    0.2366236  78.50  0.001719229    3.521    0.716
       195  -8.9390      1.6549    162.4805   8.6189518596e+01   4.0071122822e+01    0.2394497    0.1539746 -77.99 0.0005592559    1.316    0.240
       196  -9.1488    121.9611    149.0000   4.8726166077e+01   2.7132037320e+01    0.4746578    0.2760676  19.04  0.001681116    2.623    0.619
       197  -9.9277    117.7834    144.3356   4.8838263974e+01   2.9078663273e+01     1.134923     0.421608  54.50  0.002602132    5.980    0.833
       198  -9.2682    108.0930    138.6707   5.0309603354e+01   3.2332697127e+01    0.5333998     0.311756  63.72   0.00187351    2.731    0.634
       199  -8.6467     82.9461    149.2843   6.0100122275e+01   3.4138585886e+01    0.2135263    0.1979418  23.70  0.000395939    1.118    0.105
       200  -9.6211     39.4229    146.9107   7.3195516028e+01   4.0717962426e+01     0.556406    0.2832459  74.61  0.001916577    3.539    0.717
       201  -9.2528     77.3360    147.2942   6.1418380877e+01   3.5548614054e+01    0.2695625    0.2355036 -20.72  0.001223978    1.259    0.206
       202 -10.7188     70.0863    143.0042   6.2827500717e+01   3.7763963145e+01    0.7413366    0.4343974 -57.85  0.003201249    1.637    0.389
       203  -9.6696    245.8329    135.0273   2.0221018216e+01   6.2757532611e+00    0.3930231    0.1911272  37.63  0.001822562    2.914    0.657
       204 -10.5948    244.8227    142.4981   2.1797338284e+01   5.1352940832e+00    0.5239472    0.2547634 -38.48  0.002551669    1.784    0.439
       205  -8.8428    134.1719    146.6931   4.4943949781e+01   2.5250810246e+01    0.3112108    0.1864841 -39.07  0.001255242    1.784    0.440
       206  -9.9790     56.1935    145.4056   6.7666028921e+01   3.9091815696e+01    0.5308471     0.290856  54.58  0.001656653    2.306    0.566
       207  -9.7576     61.4498    145.0000   6.5933118481e+01   3.8489427120e+01      0.55152     0.179671  31.82  0.001680358    3.045    0.672
       208  -8.8086    195.4100    145.7811   3.0820458879e+01   1.3152784252e+01    0.2733676     0.130076 -48.21  0.000874429    2.022    0.505
       209  -8.4413    158.5024    146.0488   3.8767952972e+01   2.0434532739e+01    0.2236576    0.1314546 -24.90 0.0008081418    2.539    0.606
       210  -9.5981    148.7397    144.7969   4.0824834679e+01   2.2716710832e+01    0.5286824     0.352188 -83.26  0.001977163    2.644    0.622
       211  -9.1795    143.2372    145.8545   4.2430513768e+01   2.3602912467e+01    0.2870385    0.2053939   9.87 0.0007523918    1.968    0.492
       212  -9.3964    107.0463    144.9096   5.2015009267e+01   3.0998404624e+01    0.5322723    0.3192989  74.98  0.001688746    3.557    0.719
       213  -8.7341     13.3110    146.1800   8.1137433178e+01   4.3333905869e+01    0.2478506    0.1425895  53.62 0.0007961121    1.975    0.494
       214  -9.2596    125.1185    142.7773   4.6466291427e+01   2.8000163312e+01    0.4837188    0.2942269 -78.22  0.001618115    3.131    0.681
       215  -8.7121     88.0955    143.8433   5.7413335145e+01   3.4666998925e+01    0.3389145    0.2207842  71.40  0.001317831    2.326    0.570
       216  -9.0736      2.9563    142.4391   8.3818300500e+01   4.5010383254e+01    0.3348652    0.1469591  81.20  0.001286732    3.149    0.682
       217  -9.7616    192.4899    133.9899   2.8832424467e+01   1.6084674352e+01    0.2830548    0.2090962  57.02  0.001377278    1.505    0.335
       218 -10.8206    197.7837    136.3105   2.8334209477e+01   1.4583717912e+01    0.5550274     0.435265  -1.70  0.002789919    1.707    0.414
       219  -9.5716    202.6880    136.3067   2.7428114873e+01   1.3639212380e+01    0.2639505    0.2249632  49.36 0.0008164864    1.285    0.222
       220  -9.3553     25.0151    126.7982   7.4669148116e+01   4.7296838478e+01    0.4077066    0.1759199 -60.04  0.001450271    1.934    0.483
       221  -9.8637     28.9881    123.0585   7.2685329690e+01   4.7877937936e+01    0.5019778    0.3115421  63.02  0.002313688    2.182    0.542
       222  -9.5357     28.6033    117.2138   7.1776265223e+01   4.9371343129e+01    0.5836111    0.1790651 -38.38  0.001698542    4.732    0.789
       223  -9.3443     23.8858    138.6680   7.6860274706e+01   4.4379121066e+01    0.4205223    0.2418592  64.90  0.001876976    2.267    0.559
       224  -9.7505     20.3320    133.5322   7.7256657322e+01   4.5991706809e+01    0.4257612    0.2270626 -40.50  0.001514031    1.949    0.487
       225  -9.8662    234.1952    136.8971   2.2295134240e+01   7.8567674347e+00    0.3441891    0.2425092 -23.79  0.001198202    1.636    0.389
       226  -9.2939     81.5959    136.9645   5.7953843995e+01   3.7496594189e+01    0.3418237    0.1790819 -40.21  0.001300261    2.134    0.531
       227 -10.1157     41.4494    135.4429   7.0653294674e+01   4.3456042946e+01    0.4727495     0.362082 -42.66  0.001655739    1.279    0.218
       228 -10.8443     44.6529    130.8551   6.8766397101e+01   4.4265885640e+01    0.9470826    0.5604346  89.77   0.00339495    2.489    0.598
       229  -8.3536    161.8390    137.1462   3.5972914255e+01   2.1699266585e+01    0.2164383    0.1866509 -10.33 0.0006718294    1.338    0.252
       230  -8.8409    122.1425    112.2948   3.9853398194e+01   3.5633962797e+01    0.3885784    0.2551974  57.95  0.001494103    1.740    0.425
       231  -9.9285    110.2747    131.2782   4.7951072930e+01   3.3697641515e+01    0.6148258    0.4409029  34.48  0.002214211    1.421    0.296
       232 -11.2577    107.5631    113.2936   4.4280199507e+01   3.8431026013e+01     1.312575     0.915527 -47.30  0.005809361    1.448    0.309
       233 -10.2873    117.2663    125.1942   4.4474284315e+01   3.3733933363e+01    0.7870268    0.5145829  40.92  0.002351647    1.522    0.343
       234 -10.0818    118.7196    118.9514   4.2508357065e+01   3.4867755718e+01    0.7459285    0.2594144 -44.19  0.002350742    2.958    0.662
       235  -9.2670    104.7779    123.4258   4.7668696985e+01   3.6638210842e+01    0.3359154    0.2645554  23.96  0.001583403    1.371    0.270
       236  -9.9442    109.0106    121.2616   4.5878482167e+01   3.6312381185e+01    0.4235979    0.3117458 -32.42 0.0007407073    1.498    0.332
       237  -9.6341     83.7008    132.0654   5.6211765337e+01   3.8374743343e+01    0.4309367    0.2874866  63.04  0.001371187    2.014    0.504
       238  -9.6104    209.4041    131.7296   2.5264178236e+01   1.3244391093e+01    0.2852994    0.2730598 -88.64 0.0009909418    1.125    0.111
       239  -9.3800    132.0913    131.2235   4.1890638635e+01   2.9276184503e+01    0.3838544    0.2705508 -72.26  0.001402917    1.879    0.468
       240  -7.9234    143.2704    131.6197   3.9114900870e+01   2.6832500968e+01    0.1606246    0.1237217 -82.16 0.0006994337    1.694    0.410
       241  -9.4627     13.3993    129.8921   7.8993677327e+01   4.7451278219e+01     0.474354    0.2303091  62.83  0.001887507    3.118    0.679
       242 -10.6395    246.6677    129.0305   1.8955945039e+01   7.1778713863e+00    0.3744166    0.2061179 -57.87  0.001281048    1.997    0.499
       243  -8.7109    153.1229    129.2803   3.6162003593e+01   2.5252593586e+01    0.2944719    0.1969059 -71.41 0.0006824876    2.103    0.525
       244  -9.7750     99.5013    128.2894   5.0435496512e+01   3.6484231285e+01      0.54007    0.3614948 -88.55  0.001902944    2.544    0.607
       245  -9.1538     73.4616    129.4496   5.8918213704e+01   4.0693902756e+01    0.3323615    0.2196258  71.04  0.001091786    2.299    0.565
       246  -7.9963    168.6707    129.3603   3.2653048546e+01   2.1927805017e+01    0.1596412    0.1193685 -82.77 0.0007041504    1.795    0.443
       247 -10.3761    233.7365    127.5301   2.0508976440e+01   9.6078751394e+00    0.3726379    0.1944828  59.72  0.001661118    2.523    0.604
       248 -10.2061     60.0370    124.3891   6.2280583446e+01   4.3943566220e+01    0.6647696     0.393503  75.65  0.002338076    3.381    0.704
       249 -10.5023    227.7772    125.1286   2.0920026757e+01   1.1085291995e+01    0.4449864     0.300478 -72.81  0.001372422    1.957    0.489
       250  -9.2424    134.3209    124.3623   3.9640238364e+01   3.0361213011e+01    0.4336267    0.2436009  23.32  0.001467057    2.959    0.662
       251 -10.0565     44.3706    123.1606   6.7392223867e+01   4.6245683968e+01     0.604064    0.3573363  71.40  0.002135055    2.860    0.650
       252  -8.6111    179.7323    123.2053   2.8919666765e+01   2.0861815886e+01    0.2823628    0.1810324 -47.72  0.001294429    1.495    0.331
       253  -8.0781    169.2124    124.0305   3.1294654026e+01   2.2924800597e+01     0.202592    0.1188036 -43.97 0.0003853185    1.658    0.397
       254  -8.3328    148.2163    123.3925   3.5920412348e+01   2.7587664368e+01     0.209961    0.1467311  55.83 0.0009297699    1.523    0.343
       255  -8.5081     83.9275    121.8949   5.3782029185e+01   4.0837969431e+01    0.2392534    0.2067166 -12.08 0.0006995641    1.256    0.204
       256 -10.8794     15.4551    113.4952   7.5793032474e+01   5.1375075036e+01    0.8568074    0.4269578 -65.80   0.00384631    1.760    0.432
       257 -10.1838     22.5691    109.8378   7.2587252669e+01   5.1712247934e+01    0.4049493    0.2879889 -74.76  0.001419361    1.456    0.313
       258 -10.9022     24.8554    103.5484   7.0528225764e+01   5.3033958491e+01     1.048893     0.543572  65.11  0.003696629    4.276    0.766
       259 -11.1156     17.1527    104.1038   7.3525765240e+01   5.3523700005e+01    0.6047881    0.2963267 -48.76  0.001345479    1.716    0.417
       260  -7.9007    158.5095    121.5087   3.3056365007e+01   2.5758271990e+01    0.1545627      0.14518 -81.12 0.0008091316    1.085    0.078
       261  -8.1132    194.0251    119.9417   2.5441657271e+01   1.8538692660e+01    0.1754075    0.1488626 -49.11 0.0004507074    1.095    0.086
       262  -9.3120    142.1055    119.4111   3.6438779249e+01   2.9776342328e+01    0.3991948    0.2781982 -80.26  0.001629142    2.144    0.534
       263  -8.8402     71.3001    120.1138   5.7521066708e+01   4.3343303481e+01    0.2833022    0.1882555  60.27  0.001210043    2.025    0.506
       264  -8.7956    182.2499    118.7175   2.7390831368e+01   2.1227942675e+01     0.282627    0.1771763  27.91  0.001163524    2.391    0.582
       265  -9.3542    131.1060    118.6731   3.9067907189e+01   3.2314414661e+01    0.3504556    0.2454789 -81.49  0.001416803    2.166    0.538
       266 -10.3119    248.3262    116.5386   1.6347480233e+01   9.0355912086e+00    0.3255174    0.2654104 -77.59  0.002104116    1.335    0.251
       267  -9.4847      2.5462    116.2138   8.0713440983e+01   5.1542536562e+01    0.5308881    0.2390321  84.08  0.001989418    3.608    0.723
       268  -9.9289    185.2432    113.8976   2.5709341492e+01   2.1539084671e+01    0.4019523    0.3025044  73.56     0.001783    1.535    0.349
       269  -8.7926    183.6803    110.3037   2.5177599573e+01   2.2566242888e+01     0.251001    0.1960058  69.79 0.0007763803    1.389    0.280
       270  -9.6223     92.8435    112.6122   4.8620330212e+01   4.1441004380e+01    0.4261578    0.3095904 -83.22  0.001420219    2.031    0.508
       271  -9.5386     79.3288    112.5710   5.3007940760e+01   4.3853088407e+01    0.4635369    0.3119072 -86.50  0.001630899    2.536    0.606
       272  -8.5021     58.6428    114.6496   6.0601135924e+01   4.6540066538e+01    0.1618469    0.1057509 -24.25 0.0007029618    1.849    0.459
       273  -9.4311    133.8782    108.4947   3.5749095153e+01   3.3912696058e+01    0.5965234    0.2185393 -48.23   0.00194703    2.867    0.651
       274  -9.6291     66.7244    110.5102   5.6795460493e+01   4.6363849339e+01    0.5034925    0.3030687  72.60  0.001701802    3.766    0.734
       275  -9.8225     61.6769    106.0475   5.7477099850e+01   4.8167586439e+01    0.2655151    0.2136796  16.96 0.0006389151    1.285    0.222
       276  -9.7376      8.1992    108.3171   7.7545077595e+01   5.3124590799e+01    0.2050219    0.1455399 -31.09 0.0007173962    1.396    0.284
       277  -7.6837    188.6951    107.7036   2.3652354406e+01   2.1990891226e+01    0.1361337    0.1155489   4.46 0.0002693782    1.584    0.369
       278  -9.0413    123.0918    106.6694   3.8122185669e+01   3.6648578542e+01     0.284899    0.2218411 -36.90 0.0005353618    1.346    0.257
       279  -8.7484     78.1424    105.6782   5.1644234171e+01   4.5658141934e+01    0.3278449    0.1880929   8.57  0.001144178    3.079    0.675
       280 -10.2139     46.0138    102.5067   6.2342686951e+01   5.1086207845e+01    0.7594528    0.4242939  64.41  0.002649475    3.960    0.748
       281  -9.3599     35.3745    102.6430   6.6369261505e+01   5.2248669655e+01    0.3788068    0.2507533  80.24  0.001708754    2.431    0.589
       282 -10.2787     29.7489    100.6343   6.8067957869e+01   5.3282032312e+01    0.6726865     0.315653  50.08  0.002575263    3.384    0.704
       283  -8.6192    139.9653    104.8072   3.3266418605e+01   3.3331739609e+01    0.2581921    0.1775544  77.02  0.001070516    2.045    0.511
       284  -8.7162     66.3375    105.3057   5.5636251797e+01   4.7647369498e+01    0.1546689    0.1100287 -17.01  0.000704069    1.674    0.403
       285 -10.4862    250.2368    100.7396   1.3113893255e+01   1.1333279802e+01    0.5130407     0.153325 -40.21  0.002021864    2.972    0.664
       286  -8.6316    150.4998    103.9375   3.0543619388e+01   3.1147444334e+01    0.3112243    0.1808288 -59.77  0.001233488    2.144    0.534
       287  -8.6805     93.4537    103.8275   4.6114364211e+01   4.3317743908e+01    0.2919111    0.1987498  -1.99  0.001186643    2.223    0.550
       288 -10.7327    132.0454    101.5651   3.4403410597e+01   3.5758039137e+01    0.8636784     0.465946  30.77  0.003006672    2.588    0.614
       289  -9.9205    108.9869     98.7123   3.9961489672e+01   4.1325590269e+01    0.6191735    0.3817548  68.23  0.002153986    2.654    0.623
       290  -8.7376     82.4562    100.1438   4.8713370878e+01   4.6158374140e+01    0.2740824    0.1945773  72.55  0.001167132    2.225    0.551
       291 -10.0886     64.0385     96.0739   5.4054714559e+01   5.0104942557e+01    0.4886891    0.3348593  80.62  0.002005401    2.784    0.641
       292 -10.7288     23.0300     92.5068   6.8920771019e+01   5.5779004679e+01    0.5050455    0.3905069 -57.04  0.002025691    1.211    0.174
       293  -9.7605     45.0257     91.8091   6.0086891381e+01   5.3667620738e+01    0.5635189    0.2269867  21.37  0.002122432    2.916    0.657
       294  -9.2250      7.0159    103.0074   7.7106680618e+01   5.4468851779e+01    0.1984004    0.1464483  64.40 0.0008131435    1.717    0.417
       295  -8.7678    107.8347     91.8354   3.8377628183e+01   4.2984650824e+01    0.3233672    0.2034122  31.69   0.00103645    1.743    0.426
       296  -8.7655     95.1235     96.7809   4.3650931708e+01   4.4529817474e+01    0.3140691    0.2350806 -84.11 0.0009184788    2.020    0.505
       297  -9.5776      4.8081     90.8793   7.5820943006e+01   5.7432896663e+01     0.358851    0.1747213  89.75  0.001383938    3.738    0.732
       298  -8.9236    124.7547     90.8895   3.3404794377e+01   3.9513035539e+01     0.279478    0.2074328 -66.47 0.0007737569    1.658    0.397
       299  -9.3228     86.5981     86.4520   4.3454899973e+01   4.8313541975e+01    0.3690086    0.2561666  80.35  0.001246307    2.743    0.635
       300  -8.9820     65.8313     86.3399   5.0693754389e+01   5.1943957757e+01    0.3739613    0.1332727  25.51  0.001098903    4.288    0.767
       301  -9.4305     48.5418     84.1828   5.6676019669e+01   5.4901049188e+01    0.3580078    0.2437783  61.58  0.001458856    2.388    0.581
       302  -8.6992     12.4546     82.9971   7.1136362326e+01   5.8741511690e+01    0.2798188    0.1633369 -15.93  0.001322646    1.844    0.458
       303  -9.1228      7.5268     84.4746   7.3484057962e+01   5.8728900918e+01    0.2572539     0.167466 -33.05  0.001126382    1.379    0.275
       304  -8.8483      8.2676     80.9599   7.2444264112e+01   5.9467040498e+01    0.2166552    0.1991574 -38.61 0.0009276549    1.133    0.117
       305  -9.7107     34.8525     89.4527   6.3498792516e+01   5.5352447745e+01    0.3943284    0.2646561  81.66  0.001773512    2.685    0.628
       306  -8.9477    116.8811     83.1322   3.3325415645e+01   4.2739412593e+01    0.2383165    0.2105106 -37.82 0.0003076124    1.190    0.160
       307  -9.1612    104.7284     83.1641   3.6791264082e+01   4.5345802921e+01    0.3777672    0.2746001 -83.53   0.00144812    2.204    0.546
       308  -9.3722    186.8312     81.5077   1.7923064575e+01   2.7092879940e+01    0.4687285    0.2594036  39.78  0.001985781    2.542    0.607
       309  -8.2409    184.6525     78.2970   1.7529598735e+01   2.8116034315e+01     0.221371    0.1327899 -46.23 0.0007758439    1.608    0.378
       310  -9.5742     36.1848     81.5732   6.0938426552e+01   5.6946171268e+01    0.4922561    0.2596006 -13.91  0.002016003    2.748    0.636
       311  -9.6663     24.6866     80.6716   6.5479359408e+01   5.8287887209e+01    0.3512215    0.2547015  78.34  0.001234016    2.237    0.553
       312  -8.8697     86.8097     80.4516   4.1596566123e+01   4.9467542852e+01    0.3525701    0.1319446  33.34  0.001142298    3.239    0.691
       313  -8.3035     74.7696     80.5777   4.5761481487e+01   5.1642058108e+01    0.1947274    0.1308811  47.07 0.0004572964    1.620    0.383
       314  -9.3520    175.9428     77.1082   1.8714439607e+01   3.0278003132e+01     0.425456    0.2614319 -76.82   0.00183933    2.253    0.556
       315  -9.0043     49.4451     76.8471   5.4219633325e+01   5.6322112494e+01    0.2836654    0.1749497   5.39 0.0009999073    1.973    0.493
       316  -8.5262    128.6817     76.0740   2.8244908559e+01   4.1374320195e+01    0.2494656    0.1598878 -81.78  0.000949539    2.838    0.648
       317  -8.6664    105.9654     76.0146   3.4303685668e+01   4.6419950023e+01    0.2706985    0.1459766  28.36 0.0009484509    2.572    0.611
       318  -8.2492     13.3904     74.2934   6.8741886913e+01   6.0577840351e+01    0.2209148     0.129055 -17.09 0.0005946594    1.780    0.438
       319  -9.6391     10.0232     74.1050   7.0163231402e+01   6.0849856850e+01    0.2031596    0.1665957 -29.33 0.0003656365    1.049    0.047
       320  -9.8075     28.7670     70.1661   6.0940332315e+01   6.0124278856e+01    0.8189962    0.3435842 -16.95  0.002276564    6.451    0.845
       321  -8.8310     95.5815     71.4121   3.6006866664e+01   4.9419384275e+01    0.3385136    0.1717404 -55.30  0.001276124    2.907    0.656
       322  -8.3313    105.9685     71.4896   3.2933629060e+01   4.7226598758e+01    0.1955925    0.1264946  71.24 0.0006915889    2.329    0.571
       323  -9.1999     51.5713     69.6284   5.1170785926e+01   5.7470845191e+01    0.3852195    0.2340328 -67.00   0.00139093    2.901    0.655
       324  -9.2349     82.4102     72.5168   4.0621693071e+01   5.1808499116e+01     0.277471    0.2426004 -77.80 0.0008801078    1.517    0.341
       325  -8.5671     16.4124     70.1133   6.6368361810e+01   6.1236363980e+01    0.1668145    0.1171513 -69.77 0.0009324023    1.732    0.423
       326  -9.2265      1.6268     68.7315   7.2631485831e+01   6.2492287394e+01    0.2378382    0.1090791 -49.42   0.00122954    1.683    0.406
       327  -8.3058     44.3192     67.3165   5.3428435649e+01   5.8904085608e+01    0.1411349   0.09292725 -14.78 0.0004211882    1.657    0.396
       328  -9.0191     83.7452     64.4982   3.7604382581e+01   5.2987192272e+01    0.4088544    0.2443278   1.78  0.001533708    3.218    0.689
       329  -8.6795    110.0243     63.6854   2.9407855849e+01   4.7662544829e+01    0.2029742    0.1764785  47.44 0.0005266976    1.061    0.057
       330  -8.7284     37.6508     64.2960   5.5324587434e+01   6.0319659718e+01    0.1810409    0.1579223  70.98  0.001073226    1.731    0.422
       331  -8.1939     95.9819     63.3316   3.3334737364e+01   5.0729480830e+01    0.2413601   0.09883872  31.23 0.0007044878    4.277    0.766
       332  -9.4566     18.0903     61.3970   6.3229869895e+01   6.2876406251e+01    0.2492341    0.1660836 -33.52 0.0006758703    1.278    0.217
       333  -7.7659    170.4303     60.5160   1.5586730192e+01   3.4180605872e+01    0.1362809    0.1231779  86.86 0.0001188803    1.030    0.030
       334  -8.7627    100.2137     59.8271   3.0957262242e+01   5.0410029163e+01    0.2303001    0.1571862 -84.45 0.0009491845    2.850    0.649
       335  -9.2663     73.3633     59.5023   3.9524414796e+01   5.5783094263e+01    0.2849984    0.2366084 -68.11   0.00100632    1.719    0.418
       336  -8.1317    164.5431     59.5338   1.6333073041e+01   3.5695802651e+01    0.1384236    0.1235271  85.21 0.0002499889    1.004    0.004
       337  -8.1210    111.4597     58.4054   2.7392530905e+01   4.8182330290e+01    0.1424586    0.1255695  40.40 9.029864e-05    1.060    0.057
       338  -9.3636     39.2907     57.4584   5.2405320609e+01   6.1405629084e+01    0.2734842    0.1686164 -20.90  0.001411731    1.711    0.415
       339  -8.6440     24.3601     58.6763   5.9523605316e+01   6.2839877486e+01    0.1179231   0.09839269  55.52 0.0007043009    1.778    0.438
       340  -9.9069      7.6518     57.3532   6.6999120627e+01   6.4463027408e+01    0.2165825    0.1747256  64.78  0.000924312    1.946    0.486
       341 -10.0772      2.3919     56.4338   6.9272693957e+01   6.4970513267e+01    0.2805372    0.2505386  44.05  0.001754641    1.535    0.348
       342  -8.1599    119.3213     55.6707   2.4557174872e+01   4.6826346650e+01    0.1415258    0.1084217 -83.54 0.0007048738    1.692    0.409
       343  -8.6816     62.8535     54.7334   4.1769522171e+01   5.8415200925e+01     0.220067    0.1784284 -71.41 0.0005770171    1.966    0.491
       344  -8.7629     43.8171     54.9783   4.9601403519e+01   6.1261421428e+01    0.1908948    0.1601826 -83.41  0.001081401    2.029    0.507
       345  -8.5820     54.4503     53.9455   4.4801083560e+01   5.9900210604e+01    0.1698584    0.1199991 -67.31 0.0008085371    2.593    0.614
       346  -9.1185     26.3603     54.4398   5.7257793543e+01   6.3439756777e+01    0.2497548    0.1075615   8.07 0.0009563461    3.476    0.712
       347  -9.5144     74.6838     51.0429   3.6150448741e+01   5.6909432190e+01    0.5065506    0.2834145   4.50  0.001818315    3.837    0.739
       348  -8.7733     92.5252     50.4907   3.0174821938e+01   5.3462212254e+01    0.2314814    0.1249766 -47.65  0.001027431    2.328    0.571
       349  -8.6089     31.0389     51.0889   5.3971079706e+01   6.3542165502e+01    0.1751599    0.1575388  63.52 0.0009121996    1.719    0.418
       350 -11.2318     45.5728     48.9384   4.6724048084e+01   6.2054519519e+01    0.2556361    0.2123681  -6.17 0.0004457978    1.055    0.052
       351  -8.5506     81.8537     46.6260   3.2187823194e+01   5.6192686196e+01    0.2026286    0.1570074 -36.57 0.0005991068    1.442    0.306
       352  -8.6396     64.8244     46.4090   3.8059706285e+01   5.9401635931e+01    0.3465319    0.1600506  26.05  0.001369547    2.818    0.645
       353  -9.0066     22.6803     46.5091   5.6361036765e+01   6.5248436599e+01    0.2390752    0.1107918  22.29  0.001189787    2.096    0.523
       354  -8.7422      1.5882     45.9699   6.6751124116e+01   6.7035026179e+01    0.1634872    0.1190725 -38.23 0.0003987539    1.138    0.121
       355  -8.8107    150.1521     44.5609   1.4940956716e+01   4.1189827326e+01    0.2475813   0.09071798 -36.97 0.0009775816    2.882    0.653
       356 -10.0865     16.7046     43.7411   5.8359356142e+01   6.6306026610e+01    0.4041226    0.1753147 -57.21  0.001824585    3.008    0.668
       357  -8.4122     58.4931     42.9640   3.9215484558e+01   6.1001425486e+01    0.1638716    0.1158822 -62.21 0.0008096618    2.538    0.606
       358 -10.0384      5.2564     41.4082   6.3444146486e+01   6.7634636721e+01     0.363399    0.2134476 -70.56  0.001850121    2.940    0.660
       359  -9.9649      6.2481     33.8514   6.0354463839e+01   6.8880307805e+01    0.3526868     0.168963 -23.35  0.001794655    2.037    0.509
       360  -8.7618    113.9545     41.0802   2.1351352482e+01   5.0075687498e+01    0.2052957    0.1736535  47.41 0.0003375447    1.065    0.061
       361  -8.4698    130.4705     46.0083   1.9144111017e+01   4.5620819344e+01    0.1744465    0.1193961   9.27 0.0006622662    2.340    0.573
       362  -8.9496    123.4605     40.0980   1.8890226415e+01   4.8022299249e+01    0.2239648    0.1598986  50.56  0.000350569    1.251    0.200
       363  -8.5732     84.2466     39.6939   2.8986222501e+01   5.6675819610e+01    0.2674603    0.1265496  34.18  0.001134151    2.303    0.566
       364  -8.6107     36.7004     40.3901   4.7504248345e+01   6.4650849513e+01    0.1733945    0.1529529  54.95 0.0008629972    1.735    0.424
       365  -7.8540    203.3505     38.2911   6.0189770733e+00   2.9886559955e+01    0.1159517   0.09185886  47.33 0.0004833555    1.671    0.402
       366  -8.3608    106.4216     36.8370   2.1827267318e+01   5.2304990968e+01    0.1657125    0.1283649  -3.95  0.000325536    1.586    0.369
       367  -8.8739     25.9587     36.1464   5.0990246496e+01   6.6636354517e+01    0.1723592    0.1577442  11.28  0.001178392    1.356    0.262
       368  -8.1883     38.3260     35.2853   4.4789543466e+01   6.5216823585e+01    0.1279346   0.08267643   1.30 0.0002410905    1.605    0.377
       369  -9.1962     20.2929     34.5995   5.3237350994e+01   6.7497674703e+01    0.2189089    0.1169012 -25.47 0.0006770514    1.818    0.450
       370  -8.8943    222.5052     32.4667   2.9326519699e+00   2.6623462201e+01    0.1204758   0.09350997 -75.94  3.20967e-05    1.003    0.003
       371  -8.0244     60.5197     32.4887   3.4437024027e+01   6.2122147571e+01    0.1263271    0.1090433  24.49 2.390032e-05    1.094    0.086
       372  -9.0249     12.4670     30.7525   5.5857523724e+01   6.8873561873e+01    0.2007519    0.1078782 -49.35  0.001124928    2.043    0.511
       373  -9.3825    147.8534     28.8390   1.1115701591e+01   4.3665229273e+01    0.2070179    0.1631348  53.34 0.0005812463    1.254    0.202
       374  -8.0476    101.2831     28.6524   2.0401767034e+01   5.4407459557e+01    0.1243681    0.0991778 -77.71 0.0005137357    1.647    0.393
       375  -8.4593    119.4953     33.4875   1.7735253278e+01   4.9745560842e+01    0.2112313    0.1169051 -45.01 0.0008293873    2.116    0.528
       376  -8.8588      2.0750     27.8479   6.0482928965e+01   7.0185893478e+01    0.2340246    0.1318577   0.29 0.0006374893    1.638    0.390
       377  -8.3425     81.6464     27.3376   2.5322600826e+01   5.8728185986e+01    0.1235601    0.1005289 -88.37 0.0007043334    1.799    0.444
       378  -7.8870     62.3000     26.6935   3.1495874608e+01   6.2532317612e+01    0.1102906    0.1001952  76.36 0.0003790341    1.594    0.373
       379  -9.7422     44.4063     25.1439   3.7962923556e+01   6.5732043039e+01    0.2147283    0.1566016  24.95 0.0003394706    1.146    0.128
       380  -8.4049    110.4239     24.2920   1.6824782446e+01   5.2839893621e+01       0.1492    0.1239578 -45.59 0.0003070892    1.419    0.296
       381  -8.6877     67.0131     23.5139   2.8571188073e+01   6.2032474968e+01    0.1817826    0.1071624  46.11 0.0003238981    1.469    0.319
       382  -8.0447    137.6948     22.6757   1.1092222110e+01   4.6717118654e+01    0.1295429   0.08813927  40.49 0.0004043682    1.643    0.391
       383  -8.3453     58.8026     22.1551   3.0956196936e+01   6.3692117339e+01    0.1689237    0.1207178  18.56 0.0002230351    1.298    0.230
       384 -10.0398     13.0363     21.0302   5.1625802003e+01   7.0304205247e+01    0.2527339    0.1697914   6.85 0.0007033309    1.242    0.195
       385  -9.7792    188.8512     20.5336   3.7597510592e+00   3.5197645080e+01    0.2116261    0.1804688  52.01 0.0008646111    1.478    0.323
       386  -8.3917     84.8571     21.1534   2.2121101474e+01   5.8738254173e+01    0.1785338    0.1583516  66.89 0.0005297749    1.272    0.214
       387  -7.6619     48.2574     21.6457   3.4869379542e+01   6.5552380021e+01    0.1016057   0.09829472 -67.72 0.0003369513    1.610    0.379
       388  -8.8731     41.0131     21.0471   3.7701909284e+01   6.6765535344e+01    0.1818716    0.1400958  13.21  0.001207883    1.049    0.046
       389  -8.2637     63.3410     20.6833   2.8719341624e+01   6.3032687739e+01    0.1126041   0.09823705  80.49 0.0007048645    1.709    0.415
       390  -8.1675     73.6777     19.3619   2.4764355413e+01   6.1194262869e+01    0.1164543   0.09794891 -83.32 0.0007041907    1.779    0.438
       391  -9.6304     30.0440     18.6217   4.1723150348e+01   6.8638913859e+01    0.2681881    0.1701154  46.88  0.001225921    2.205    0.547
       392  -8.6120      1.5156     19.4941   5.7560196135e+01   7.1546995416e+01    0.1139065   0.08426834 -12.63 0.0001199692    1.009    0.009
       393  -8.6979     50.6962     15.0350   3.1065535713e+01   6.5892088808e+01    0.2243089    0.1315001  25.75 0.0007228563    1.574    0.364
       394 -10.0974    196.1407    248.5890   5.0011100423e+01  -6.2582424064e+00    0.2853005    0.2109053  28.09  0.001109334    1.297    0.229
       395 -10.3773    169.8287    224.9873   5.1671987204e+01   1.6612431583e+00    0.4665283    0.3287743  55.99  0.001887964    1.975    0.494
       396  -8.2669     80.4445     12.4671   2.0133079416e+01   6.0497179590e+01    0.1244131    0.1012626  43.25 0.0001646592    1.016    0.016
       397  -9.1032    148.2670    249.0851   6.0228634779e+01   4.7370091295e-01    0.2735805    0.1749317  37.80  0.001457525    1.410    0.291
       398  -8.4729     31.9868     11.5102   3.7565206989e+01   6.9222932445e+01    0.1696914    0.0954688  34.38 0.0004504791    1.520    0.342
       399  -9.0609     27.5047     13.4473   4.0631766946e+01   6.9618638141e+01      0.11891    0.0884647   9.41 3.329847e-05    1.042    0.040
       400 -10.0879    107.3429    246.7594   6.9104340853e+01   7.0805439381e+00    0.4599292    0.3107667 -76.46  0.002289861    1.923    0.480
       401 -10.4820    107.5278    238.1389   6.7958710219e+01   8.8117455627e+00    0.8210114    0.4387401  52.29  0.003676343    2.040    0.510
       402 -11.3610    106.5504    224.0425   6.6271844037e+01   1.1981310650e+01     1.532804     0.767987 -28.58  0.004832992    4.672    0.786
