#   1 NUMBER                 Running object number                                     
#   2 MAG_AUTO               Kron-like elliptical aperture magnitude                    [mag]
#   3 X_IMAGE                Object position along x                                    [pixel]
#   4 Y_IMAGE                Object position along y                                    [pixel]
#   5 X_WORLD                Barycenter position along world x axis                     [deg]
#   6 Y_WORLD                Barycenter position along world y axis                     [deg]
#   7 A_WORLD                Profile RMS along major axis (world units)                 [deg]
#   8 B_WORLD                Profile RMS along minor axis (world units)                 [deg]
#   9 THETA_WORLD            Position angle (CCW/world-x)                               [deg]
#  10 FWHM_WORLD             FWHM assuming a gaussian core                              [deg]
#  11 ELONGATION             A_IMAGE/B_IMAGE                                           
#  12 ELLIPTICITY            1 - B_IMAGE/A_IMAGE                                       
         1 -10.3672    249.7981     18.4383   3.5851040604e+01   2.2129098127e+01    0.3518069    0.1429908 -25.29  0.001518272    3.069    0.674
         2 -11.4379      5.7852     12.2036   9.4926326317e+01   7.2453623290e+01    0.7204208    0.3374721 -28.18  0.004120763    1.809    0.447
         3  -9.5532     19.5973     14.7136   8.8351072142e+01   7.0922430338e+01    0.2893112    0.1407001 -20.40  0.001497518    2.156    0.536
         4 -11.4048    237.4419     10.2564   3.5035166287e+01   2.5670319026e+01    0.3551906    0.2344577 -73.99   0.00152829    1.379    0.275
         5 -11.1434    247.9189      3.6570   3.2882895094e+01   2.4151760756e+01    0.5099887    0.3138668 -32.81  0.003082802    1.646    0.392
         6 -11.1495     24.0503      4.4307   8.0754315144e+01   7.1952780837e+01     0.517195    0.2461082  18.35  0.002757504    2.256    0.557
         7 -10.5149      9.7721      2.0937   8.7624247658e+01   7.3703212863e+01    0.5352292    0.1841792  19.49  0.002525134    3.337    0.700
         8 -10.5306     15.0646      7.3292   8.7251363749e+01   7.2467145123e+01     0.279112    0.1774052   9.84  0.001849302    1.477    0.323
         9 -10.9056    179.0104    243.6186   9.5974924768e+01  -6.7856694704e-01    0.4244702    0.2331683  26.94  0.001772354    1.693    0.409
        10  -9.7902    249.7453    232.8420   8.1256354455e+01  -9.4192128776e+00    0.3059972    0.1850362 -10.72  0.001485001    1.533    0.348
        11  -9.4288    248.5794    250.2377   8.4329278715e+01  -1.1304535403e+01    0.4002865    0.1259038  31.52  0.001873885    2.788    0.641
        12  -9.0103    240.7057    238.8682   8.3836208330e+01  -8.9586532328e+00    0.2344811    0.1341646  16.16  0.001375966    1.590    0.371
        13  -9.8370    244.0187    234.9952   8.2611099582e+01  -8.9260516660e+00    0.3126618    0.1628633  -9.46  0.001279739    2.259    0.557
        14 -10.7919    244.6438    244.7548   8.4119039141e+01  -1.0177140777e+01    0.5977404    0.3008294  23.60  0.003086585    1.732    0.423
        15  -9.3223    247.8316    238.5846   8.2553380763e+01  -9.8617861977e+00    0.3012754    0.1667213   4.81  0.001423385    1.900    0.474
        16 -10.5513    225.8534    248.2130   8.7971647472e+01  -8.0962670345e+00    0.3998421    0.2836761  31.96  0.002688352    1.346    0.257
        17 -10.9578    212.6584    248.1036   9.0336678419e+01  -6.2512329115e+00    0.7479981    0.3528295  13.22  0.003123812    3.481    0.713
        18 -10.2720    217.5322    246.4778   8.9197481835e+01  -6.7308078316e+00    0.2689551    0.1854209  18.41 0.0008931208    1.172    0.147
        19  -9.1006    183.3147    250.4153   9.6132557233e+01  -2.2933169143e+00    0.2399898   0.09646314  33.28  0.001130602    2.121    0.529
        20 -10.7617    168.1113    249.8557   9.8941315738e+01   6.5735868860e-02    0.5802004    0.2244582  34.50  0.002680924    2.206    0.547
        21 -10.4869    152.4507    249.4542   1.0189304078e+02   2.4985337721e+00    0.4699211    0.1436655  40.35  0.001965318    2.630    0.620
        22  -8.3981     74.2040    250.4293   1.1685515193e+02   1.3590602729e+01    0.1727017   0.07896527  48.81 0.0009454656    1.736    0.424
        23  -9.3720     65.1510    249.1948   1.1840769663e+02   1.4968761362e+01    0.3226617    0.1340547  45.68  0.001750686    1.870    0.465
        24  -9.2583     50.3720    250.1518   1.2111824060e+02   1.6603931366e+01    0.3404191   0.09624985  43.51   0.00164422    2.548    0.608
        25  -9.5993     36.6594    248.8643   1.2342683534e+02   1.8409532048e+01    0.4326741    0.1772308  53.72  0.002481172    1.898    0.473
        26  -9.7388     20.3119    249.2377   1.2621031227e+02   2.0089714735e+01    0.3339899    0.1324008  46.99  0.002010392    1.888    0.470
        27  -9.6713     12.1325    248.9903   1.2754279859e+02   2.0954931500e+01    0.3346863    0.1399738  52.03  0.001749455    1.756    0.431
        28  -9.0637      3.0647    250.5369   1.2906156689e+02   2.1550589488e+01    0.2296274   0.08347841  35.59  0.001329562    2.613    0.617
        29  -9.8400    127.4767    247.7716   1.0651232294e+02   6.5371813956e+00    0.3191066    0.1241352  50.02  0.001398064    2.604    0.616
        30  -8.6068    109.9779    248.5281   1.0996538779e+02   8.9881926080e+00    0.1893616   0.09753427  40.37  0.001029313    1.586    0.370
        31 -10.2114    115.3578    244.1963   1.0845851717e+02   8.9401671816e+00    0.3254466    0.1555391  41.00  0.001689994    1.709    0.415
        32  -9.5382     57.1534    242.0459   1.1932880769e+02   1.7260211835e+01    0.4059748    0.1450121  54.90  0.001930285    2.539    0.606
        33 -10.4764    226.5008    240.9615   8.6698855915e+01  -7.2850269576e+00     0.303308     0.187927   1.36  0.001790007    1.646    0.393
        34  -9.5474     29.1789    240.8062   1.2425963270e+02   2.0698606102e+01    0.4180629    0.1607741  62.65  0.002184401    2.369    0.578
        35  -9.9340     15.9516    240.2925   1.2650727041e+02   2.2157443353e+01    0.5017841    0.1653571  50.10  0.002757608    2.226    0.551
        36  -9.3798    203.4234    249.4009   9.2229413682e+01  -5.1013376738e+00    0.2566052    0.1647329  15.12  0.001143817    1.461    0.316
        37  -9.2466     84.1055    244.8339   1.1453127872e+02   1.3268631192e+01    0.3254301   0.09728442  53.50   0.00122109    3.803    0.737
        38 -10.1125    234.2210    244.3340   8.5869056240e+01  -8.7556792248e+00     0.390747    0.2181335   6.12  0.001612048    1.949    0.487
        39  -9.3087    170.7831    240.0741   9.7054374097e+01   1.1153337743e+00     0.248675     0.146813  15.56  0.001243428    2.143    0.533
        40  -8.9891     72.3774    240.1940   1.1634160983e+02   1.5675641460e+01    0.2869041   0.07905718  51.80  0.001105846    3.544    0.718
        41  -8.9798     97.1272    244.4246   1.1200994991e+02   1.1537670717e+01    0.3041163   0.06853081  44.36   0.00113885    3.399    0.706
        42  -8.5389     38.0362    240.0274   1.2265095349e+02   1.9875345847e+01    0.1953899    0.0958773  63.31  0.001140976    1.756    0.431
        43  -8.3789    220.4647    238.4514   8.7385127336e+01  -6.1134876585e+00    0.1236613   0.09333214  10.78 0.0008067244    1.066    0.062
        44  -9.7274    185.1119    237.5068   9.3889395867e+01  -7.1768904008e-01    0.2817856     0.182086  11.31  0.001553513    1.741    0.426
        45  -9.5900      6.3754    236.4233   1.2794310268e+02   2.3799497911e+01    0.3180336    0.1460984  69.08  0.001558939    1.757    0.431
        46  -9.3846    107.0199    239.9897   1.0962651786e+02   1.0900748121e+01     0.304292    0.1247035  53.61  0.001333656    2.618    0.618
        47  -9.0095     95.2184    235.6245   1.1148724733e+02   1.3397232947e+01    0.3002296    0.1119301  48.60  0.001341672    2.368    0.578
        48 -10.0449    231.9301    233.9995   8.4577429344e+01  -7.1534123971e+00    0.2845218    0.1854353  -7.81  0.001742648    1.468    0.319
        49  -8.0295    207.2962    233.6550   8.9046479389e+01  -3.5409043942e+00    0.1084171   0.09788904  59.19 0.0007033222    1.670    0.401
        50  -9.1673     13.8125    231.7801   1.2645464145e+02   2.3966133551e+01    0.3333633    0.1297134  49.02   0.00192623    1.984    0.496
        51  -9.2268     39.6727    230.6745   1.2174327118e+02   2.1471405937e+01    0.2458356    0.1138435  64.61 0.0008962249    2.017    0.504
        52  -8.7691    218.9951    229.8068   8.6227509663e+01  -4.7447936416e+00     0.213681     0.120147  12.48  0.001084177    2.015    0.504
        53  -8.3913     32.5574    229.7316   1.2299178067e+02   2.2438888128e+01    0.1596058   0.08611153  83.83 0.0009483543    1.701    0.412
        54 -10.1215     26.0583    227.9567   1.2406801121e+02   2.3473115603e+01    0.4104744    0.1668715  81.22  0.002023512    2.658    0.624
        55  -9.8985      4.9676    228.1585   1.2781296098e+02   2.5491909368e+01    0.3413808    0.1583404  70.78  0.002079854    1.769    0.435
        56  -9.8099    237.2034    227.5720   8.2544151311e+01  -7.0576860233e+00    0.2482321    0.1658237  -5.21  0.001529292    1.373    0.272
        57 -10.3101    249.1505    224.7817   7.9966453358e+01  -8.3377618220e+00     0.356578    0.1847926 -14.96   0.00187585    2.065    0.516
        58  -9.0295     10.7155    225.7806   1.2669696153e+02   2.5417397416e+01    0.2867459    0.1431099  58.82  0.001808751    1.588    0.370
        59  -8.3352    229.6160    226.2184   8.3672390759e+01  -5.8030668010e+00    0.1672125    0.1010466 -20.11 0.0009469253    1.634    0.388
        60  -9.1696     18.5018    221.4955   1.2506878361e+02   2.5509147354e+01    0.2540641    0.1229314  57.79  0.001113066    1.695    0.410
        61  -9.3258      2.1768    221.0621   1.2797419834e+02   2.7117740805e+01    0.2867038    0.1314877  77.33  0.001701915    1.827    0.453
        62  -8.3896     42.7653    220.6166   1.2043942503e+02   2.3111092235e+01    0.1700482   0.08547769  47.65 0.0009565325    1.682    0.406
        63  -9.2377    239.6167    218.4328   8.0512571952e+01  -6.1871306423e+00    0.2324842    0.1365228 -25.79  0.001132318    1.600    0.375
        64  -9.5655     11.7249    216.5993   1.2603784501e+02   2.7136261606e+01    0.4099824    0.1554859  55.34  0.002205124    2.180    0.541
        65 -10.1441    248.7715    214.5898   7.8216783358e+01  -6.9617864319e+00    0.3638368     0.215501 -12.12  0.001901896    1.650    0.394
        66  -9.5456      2.2992    212.4147   1.2754286806e+02   2.8824766933e+01    0.2748733    0.1335939  83.66   0.00156044    1.699    0.411
        67 -10.2585    235.0955    208.5794   7.9534394344e+01  -4.1609301438e+00    0.2856178    0.1910362 -17.15  0.001667627    1.382    0.276
        68  -8.9430    247.0200    205.2741   7.6808221152e+01  -5.4466093906e+00    0.2405682    0.1364864 -19.26  0.001289976    1.695    0.410
        69 -10.2337     12.7269    205.3000   1.2520945984e+02   2.9355256879e+01    0.3661462    0.1348221  57.74  0.001829328    2.432    0.589
        70  -8.4942    250.5052    199.9388   7.5202200661e+01  -5.2049252376e+00    0.1890002    0.1072886 -29.64   0.00103154    1.586    0.370
        71 -10.2047      3.4089    197.0501   1.2653417626e+02   3.1900817474e+01    0.3522409    0.1832839  74.56  0.002114616    1.618    0.382
        72  -8.4972    173.1190    195.1567   8.9247844700e+01   8.3108878194e+00    0.1962906    0.1700965   9.04   0.00112398    1.121    0.108
        73  -9.4955    246.3498    192.1071   7.4417552092e+01  -3.4677193221e+00    0.2578665    0.1028105 -28.31  0.001091559    2.525    0.604
        74  -9.1366     17.0956    190.2288   1.2336304195e+02   3.2176192385e+01    0.2435347    0.1131887  74.37  0.001236081    2.122    0.529
        75  -9.7477      4.0458    188.7896   1.2593281614e+02   3.3613049162e+01    0.4340505    0.1356689  58.48  0.001917726    3.160    0.684
        76  -8.5347     24.1604    186.2720   1.2158014148e+02   3.2390665082e+01    0.2486628    0.1204027  74.66  0.001241831    2.111    0.526
        77  -8.0272      5.6437    183.3019   1.2526841235e+02   3.4678896603e+01    0.1247334   0.06531572  65.06 0.0007038353    1.711    0.415
        78  -8.4886    244.1417    187.1507   7.3831935267e+01  -2.3955902741e+00    0.2129197    0.1534872  -2.14 0.0009361131    1.294    0.227
        79  -8.3674    246.4971    167.5362   6.9454135223e+01   2.4914335069e-01    0.1353825    0.1112547 -11.35 3.760171e-05    1.028    0.027
        80  -8.6638    244.5083    149.0166   6.5860236857e+01   3.5651519707e+00    0.2192191    0.1189835 -34.57  0.001040656    1.613    0.380
        81  -9.0650    243.6208    138.8032   6.3770318232e+01   5.4094910467e+00    0.2056481    0.1128768 -42.55 0.0007550168    1.722    0.419
        82  -9.0958    248.0206    129.7103   6.1050502234e+01   6.1175732852e+00    0.3061461    0.1217525 -44.36  0.001200577    2.474    0.596
        83  -9.3810    198.0424    126.1799   6.9047838892e+01   1.6710838682e+01    0.2369433    0.2052115 -33.20 0.0002816947    1.088    0.081
        84  -9.8308    248.6518    118.5274   5.8450776149e+01   7.8403237963e+00    0.2937812    0.1535915 -38.11  0.001370611    1.637    0.389
        85  -8.9620    249.2006     97.4098   5.3580980894e+01   1.1163266864e+01    0.1709455    0.1323986  79.17 0.0009417264    1.640    0.390
        86  -8.1280    249.3354     87.6661   5.1338211127e+01   1.2678675932e+01    0.1427547   0.09379173 -61.29 0.0007052142    1.739    0.425
        87  -9.1996    104.1827     80.9687   7.9664254954e+01   4.6504908024e+01    0.2272868    0.2096791  23.24 0.0002840679    1.100    0.091
        88  -8.4595    250.2247     80.2434   4.9531683529e+01   1.3650835331e+01    0.2265599   0.07997413 -43.41  0.000880028    2.430    0.588
        89  -8.5613    200.6054     79.2541   5.6522539797e+01   2.4675243483e+01    0.2604213    0.1814044 -26.85 0.0009052778    1.504    0.335
        90  -8.0082    248.3218     73.6427   4.8259590574e+01   1.5038352256e+01    0.1449056   0.08942077 -60.19 0.0007045033    1.765    0.434
        91  -8.6220    248.3408     43.6883   4.1481148385e+01   1.9293587376e+01    0.1383808   0.08211051 -62.72 0.0005847507    1.696    0.411
        92  -9.3323      2.5384     40.7817   1.0687774826e+02   6.7378530112e+01    0.2357945   0.07877452 -55.42  0.001019082    2.096    0.523
        93  -9.6256      1.4090     25.5583   1.0266401607e+02   7.0376755260e+01    0.3063461   0.08793683 -56.50  0.001366053    2.833    0.647
        94 -10.2551     10.2999     25.9552   9.8107025950e+01   6.9773511917e+01    0.3663697    0.1655918  -4.30   0.00178372    2.870    0.652
        95  -7.5737    162.7311     25.7226   4.7483527729e+01   4.1700596181e+01    0.1346132    0.1002251  35.13 0.0001910999    1.485    0.326
        96  -8.5060    130.7700     21.8286   5.2007127850e+01   4.9996031614e+01    0.2010407    0.1695992  34.25  0.000384414    1.140    0.123
        97 -11.3112    142.4960    247.7860   1.0360487946e+02   4.2698738900e+00    0.4775529      0.26778  40.43  0.002681621    1.453    0.312
        98  -8.5455     27.0325    248.4849   1.2504758551e+02   1.9523767832e+01    0.1565933   0.08344684  44.11 0.0008858011    1.576    0.365
        99  -9.8555     13.7361     12.7392   9.0641167905e+01   7.1756651149e+01    0.1999231    0.1310386  -4.63 0.0008112058    1.372    0.271
       100 -10.7133    195.8138    244.8437   9.2961302104e+01  -3.3798660402e+00    0.4596132    0.2613464   3.11  0.002231801    2.604    0.616
       101 -10.5844    158.5385    245.6936   1.0022153011e+02   2.1460829210e+00    0.3262743    0.1296646  35.68  0.001500497    2.131    0.531
       102  -9.4108     44.0765    244.9899   1.2189285110e+02   1.8272598273e+01    0.3493252    0.1399398  47.65  0.001941618    1.921    0.479
       103 -10.2156      3.2182    243.0849   1.2874451040e+02   2.2868917057e+01    0.3706019    0.1781307  68.92   0.00234605    1.605    0.377
       104  -9.8088    189.8280    244.2881   9.4008327443e+01  -2.4104835732e+00    0.3734225    0.1884799   9.60  0.001393745    4.290    0.767
