#   1 NUMBER                 Running object number                                     
#   2 MAG_AUTO               Kron-like elliptical aperture magnitude                    [mag]
#   3 X_IMAGE                Object position along x                                    [pixel]
#   4 Y_IMAGE                Object position along y                                    [pixel]
#   5 X_WORLD                Barycenter position along world x axis                     [deg]
#   6 Y_WORLD                Barycenter position along world y axis                     [deg]
#   7 A_WORLD                Profile RMS along major axis (world units)                 [deg]
#   8 B_WORLD                Profile RMS along minor axis (world units)                 [deg]
#   9 THETA_WORLD            Position angle (CCW/world-x)                               [deg]
#  10 FWHM_WORLD             FWHM assuming a gaussian core                              [deg]
#  11 ELONGATION             A_IMAGE/B_IMAGE                                           
#  12 ELLIPTICITY            1 - B_IMAGE/A_IMAGE                                       
         1 -15.3055      5.5753    185.3306   1.4084623267e+02   3.4638826517e+01     11.43796     1.699635 -72.68   0.03369529    5.245    0.809
         2 -14.9589     32.3254    217.0821   1.3801586793e+02   2.4509070871e+01     8.688079     1.991166 -77.81  0.002672742    9.203    0.891
         3 -13.2007    200.9791     34.5560   6.1053459385e+01   3.1362013287e+01     1.175842    0.9429244  67.97  0.006224166    1.234    0.190
         4 -13.7534    217.9166     16.7256   5.5555274021e+01   2.9829121943e+01      1.12032     0.864544  45.72  0.007288957    1.841    0.457
         5 -12.5537      2.4395     16.6363   1.0848728036e+02   7.0303494266e+01     0.873211    0.2127999 -43.20  0.002832399    3.458    0.711
         6 -10.9980    105.7845    241.5755   1.2520219456e+02   8.7309152840e+00    0.2323993     0.158081  44.58 0.0005108416    1.313    0.238
         7 -12.1423    174.8600    249.4872   1.1182156109e+02  -4.0202347450e+00    0.8045844     0.150696  37.11  0.002338127    4.908    0.796
         8 -10.7710    126.4962    250.0000   1.2194965130e+02   3.7121342995e+00     0.275089    0.1517944  26.56  0.001253432    2.157    0.536
         9  -9.8127     62.9499    250.3242   1.3495386229e+02   1.3312914375e+01    0.1796083    0.1405146  59.92 0.0006797626    1.083    0.076
        10 -13.4706     10.1025    207.2652   1.4174132851e+02   2.9116962215e+01    0.8900175    0.8284273  62.59  0.003115939    1.331    0.249
        11 -12.9462      4.9407    226.3795   1.4414854254e+02   2.5350631144e+01      1.27598    0.5384206  51.95  0.006817757    2.090    0.522
        12 -13.6724     15.9479    240.9584   1.4310382020e+02   2.1091778912e+01     2.760893    0.5159662  45.18   0.01113774    3.649    0.726
        13 -11.6501      6.0267    249.9196   1.4542746684e+02   2.0294349665e+01    0.7437755    0.3477558  54.94   0.00404565    1.746    0.427
        14 -11.5119     12.9716    247.6868   1.4408094326e+02   2.0014581379e+01    0.5769189    0.2308836  61.26 0.0008313798    2.244    0.554
        15  -9.7722     56.8496    240.3978   1.3521362833e+02   1.6234518588e+01    0.2190351    0.1510078  85.03  0.001176248    1.342    0.255
        16 -10.4650     49.5684    238.1166   1.3645340415e+02   1.7690396570e+01    0.3035541    0.1430653  64.69  0.001402999    2.272    0.560
        17 -14.5869    103.9629    230.3930   1.2411742162e+02   1.1390112405e+01     7.204547     1.131558  46.09   0.01695421    6.871    0.854
        18 -10.1384    249.4193    249.0407   9.7391997629e+01  -1.4557363330e+01     0.256328     0.128357 -22.01  0.001339525    2.072    0.517
        19 -10.3125    226.4907    201.8610   9.3041248116e+01  -3.7706865277e+00    0.3291571    0.2176409 -58.68  0.001515106    2.095    0.523
        20  -9.9460    192.9031    194.7411   9.8303475076e+01   3.2757883402e+00    0.6784669     0.318261 -63.99  0.001553233    8.188    0.878
        21 -11.6506     55.2342    192.5465   1.3021685914e+02   2.7525367440e+01    0.3482394    0.2565844 -45.34 0.0005831004    1.590    0.371
        22  -8.2882    181.4937    192.4474   1.0026919269e+02   5.8313306868e+00    0.1450221    0.1392836  -9.47 8.324051e-05    1.008    0.008
        23 -11.8458     61.9293    184.9125   1.2755822131e+02   2.8516697641e+01      0.30619    0.2471138 -52.15 0.0004556143    1.308    0.235
        24 -14.0957     42.1683    206.5926   1.3486764988e+02   2.5785603112e+01     2.040513     1.215321  84.95  0.001101778    1.693    0.409
        25 -10.8957     72.8733    173.0667   1.2297355511e+02   2.9937392857e+01      0.27118    0.2221127 -61.53  0.000338892    1.145    0.127
        26 -13.2182     59.2409    170.5184   1.2610441817e+02   3.2489498495e+01    0.5650977    0.2896481 -44.85  0.001819837    2.212    0.548
        27 -11.8480     81.0788    164.3514   1.1930925221e+02   3.0898951020e+01     0.689857    0.6202624 -89.94  0.003797257    1.086    0.079
        28 -12.8604     26.1271    224.3313   1.3990999566e+02   2.3575742068e+01    0.3639129    0.2910419 -66.66 0.0007541367    1.369    0.269
        29 -10.0560     94.7718    149.5521   1.1270143600e+02   3.2384225857e+01    0.3045399    0.2792479 -84.05 0.0007672249    1.099    0.090
        30  -9.1057     98.0293    145.5319   1.1094824195e+02   3.2817956840e+01    0.2313356    0.1922825   4.55 0.0003704247    1.486    0.327
        31 -12.0940     83.1068    148.2520   1.1567400721e+02   3.4639008750e+01    0.3358341    0.2555892 -45.83 0.0005919408    1.292    0.226
        32 -12.4364     67.4867    143.6705   1.1918784854e+02   3.8133955710e+01    0.7309085    0.5117185  68.53  0.003204903    1.804    0.446
        33  -9.5425    107.6625    135.3681   1.0599830239e+02   3.3553465129e+01    0.3574181    0.2381758 -13.29   0.00137231    2.519    0.603
        34 -10.5209     57.0398    133.0439   1.2014756271e+02   4.2176183619e+01    0.3189445    0.1923239 -86.19  0.001201076    2.460    0.593
        35 -10.3577     94.6213    132.3566   1.0896894005e+02   3.6641731076e+01    0.2704107    0.2352569 -26.30 0.0007916852    1.235    0.190
        36  -9.4155    105.3511    122.6489   1.0359091805e+02   3.7000958611e+01     0.192075    0.1686156 -11.19 0.0005619189    1.274    0.215
        37 -10.3899     53.3172    117.8348   1.1812642141e+02   4.6313344031e+01    0.2894526    0.1249133 -64.84  0.001088172    2.622    0.619
        38  -9.9318    167.5568    112.5460   8.5426517426e+01   2.6032066988e+01    0.3182062    0.2522006 -81.52  0.001055795    1.474    0.322
        39  -9.0652    203.4693    111.4704   7.8159064995e+01   1.8289867535e+01    0.1460278     0.134671 -59.17 0.0001243311    1.037    0.036
        40 -10.4031    101.0437    249.3267   1.2715949834e+02   7.8985253040e+00    0.1920524    0.1532286  51.38 0.0005138369    1.089    0.082
        41 -11.7669    242.3508     93.8816   6.8408712270e+01   1.3490773511e+01     0.300358    0.2537406 -14.40   0.00176451    1.690    0.408
        42  -9.5631    160.1811     79.1544   7.8441686116e+01   3.4101200687e+01    0.2054724    0.1690842 -83.97 0.0005226309    1.319    0.242
        43  -8.8112    184.5116     77.4921   7.3453267902e+01   2.8753390226e+01    0.1412082    0.1322562 -87.37 -3.36899e-05    1.054    0.051
        44 -10.5591     12.6451     61.3974   1.1877149474e+02   6.2277292390e+01    0.2967719   0.07435165 -50.69  0.001241421    2.874    0.652
        45 -10.6251      2.9537     50.9622   1.1984809648e+02   6.4835477306e+01    0.1540481    0.1406332  73.99  0.001146529    1.733    0.423
        46 -11.4226    139.3236    248.6216   1.1907199789e+02   1.8868569442e+00    0.3511049    0.2784721 -60.24  0.002067483    1.440    0.306
        47 -10.2833     89.8178    246.0117   1.2908816555e+02   1.0302943607e+01    0.2195051    0.1326039  76.83 0.0009032803    2.019    0.505
        48 -11.4719     20.6531     27.1583   1.0411532063e+02   6.7237065067e+01    0.4705657    0.2151832  41.73  0.002127944    3.520    0.716
