#   1 NUMBER                 Running object number                                     
#   2 MAG_AUTO               Kron-like elliptical aperture magnitude                    [mag]
#   3 X_IMAGE                Object position along x                                    [pixel]
#   4 Y_IMAGE                Object position along y                                    [pixel]
#   5 X_WORLD                Barycenter position along world x axis                     [deg]
#   6 Y_WORLD                Barycenter position along world y axis                     [deg]
#   7 A_WORLD                Profile RMS along major axis (world units)                 [deg]
#   8 B_WORLD                Profile RMS along minor axis (world units)                 [deg]
#   9 THETA_WORLD            Position angle (CCW/world-x)                               [deg]
#  10 FWHM_WORLD             FWHM assuming a gaussian core                              [deg]
#  11 ELONGATION             A_IMAGE/B_IMAGE                                           
#  12 ELLIPTICITY            1 - B_IMAGE/A_IMAGE                                       
         1  -8.6489     80.3655     12.8218   9.1456333633e+01   6.2163837606e+01    0.3235399    0.1976314 -40.82  0.001226588    1.615    0.381
         2 -10.0929     12.3934     10.1932   1.1889885153e+02   7.1749960402e+01    0.3381915    0.2656658  -4.99  0.000707483    1.486    0.327
         3  -8.0906     23.0987      8.0811   1.1256059901e+02   7.1208023460e+01    0.1798961    0.1244428 -32.28 0.0004623429    1.256    0.204
         4  -7.7073     59.9417      6.9813   9.5720503269e+01   6.6597687051e+01    0.2042597     0.139528  -3.36  0.001117637    1.680    0.405
         5  -8.9572     12.1945      4.0131   1.1635167573e+02   7.2918339161e+01    0.3412916    0.1553948 -35.46   0.00184044    2.077    0.519
         6  -8.4820     33.6269      1.9597   1.0434895530e+02   7.1108229626e+01     0.187041    0.1722844  12.20 0.0004880567    1.298    0.230
         7  -9.2726    249.7006    232.9027   1.0992942703e+02  -2.6333586164e+00    0.2944236    0.1762074  13.68  0.002156741    1.574    0.365
         8  -8.0463    249.9164    250.4862   1.1220662542e+02  -3.9268600311e+00    0.1441222   0.06711935  39.12 0.0005890503    1.507    0.337
         9  -9.0200    225.2962    248.9077   1.1539670090e+02  -4.8438493819e-01    0.1799164    0.1298306 -23.14  0.001522134    1.801    0.445
        10 -10.6195    212.2938    247.7658   1.1709542915e+02   1.4181453154e+00    0.4355453    0.2269473  32.46  0.003053852    1.514    0.339
        11 -10.6433    178.6769    243.7585   1.2152547456e+02   6.5755457602e+00    0.4292864    0.2984014   6.40  0.003150103    2.111    0.526
        12 -11.4124    166.4168    248.3432   1.2381766487e+02   7.8587152388e+00    0.8477252    0.3512802  51.21  0.005090662    2.059    0.514
        13 -11.5411    154.8953    247.1319   1.2540246707e+02   9.6097654587e+00    0.7808958    0.5603939  15.54  0.005899441    2.030    0.507
        14 -10.7421    193.6815    245.9390   1.1956416282e+02   4.2156123543e+00    0.4052953    0.3003981 -18.22  0.003348069    1.825    0.452
        15  -8.7511     37.9555    249.9502   1.4272471575e+02   2.3823491218e+01    0.1525204   0.06443856  61.68   0.00112794    1.698    0.411
        16  -9.6057     18.0148    249.1483   1.4545660469e+02   2.5907764081e+01    0.1993441   0.08977231  45.85  0.001594089    1.635    0.389
        17 -10.0216     10.1002    248.9723   1.4652874810e+02   2.6670568661e+01     0.421105   0.08393553  41.57    0.0025195    3.106    0.678
        18  -8.2420    248.8724    245.2337   1.1167937654e+02  -3.4211665199e+00     0.174854   0.09206719  16.31 0.0007025104    1.929    0.482
        19  -9.1576    134.0778    245.2925   1.2834060490e+02   1.2713056748e+01    0.1855641    0.1208388  51.53 0.0008997716    1.121    0.108
        20  -8.2952     82.1323    244.3851   1.3604657653e+02   1.9594501075e+01    0.1424095   0.09774655  82.53 0.0008056019    1.448    0.310
        21  -9.8364      2.9858    243.4181   1.4734145904e+02   2.8073789261e+01    0.2550315    0.1055243  62.34  0.002036912    1.558    0.358
        22  -9.4480    234.0059    243.8859   1.1355943808e+02  -1.2961081065e+00    0.2364299    0.1160018  34.85  0.001409507    1.454    0.312
        23  -8.0089     42.2968    244.6625   1.4188080694e+02   2.4086473641e+01   0.09705202   0.04390069  63.56 0.0006002225    1.654    0.395
        24  -9.4352    225.2006    242.0645   1.1456991212e+02   7.6075715410e-02    0.2249146    0.1273299  -9.78  0.001538917    2.418    0.587
        25  -9.9654    201.4698    240.4624   1.1779394571e+02   3.6027778374e+00    0.3271684    0.1543898  36.04   0.00174441    1.643    0.391
        26  -9.8952     27.9605    240.3044   1.4374866464e+02   2.6159022349e+01     0.403543    0.0624197  50.72  0.002171733    3.162    0.684
        27 -10.6826     13.9371    240.2759   1.4573342112e+02   2.7515006517e+01    0.4319915    0.1057539  48.45  0.002797227    2.324    0.570
        28  -9.0836    106.4135    241.2761   1.3217928214e+02   1.6925703002e+01    0.1823194   0.08418024  55.99  0.001188961    1.759    0.431
        29  -8.7195     55.1545    241.4768   1.3986071574e+02   2.3130511800e+01    0.2324752   0.06101256  43.13  0.001317757    2.648    0.622
        30  -9.2327    240.0110    239.1409   1.1211206476e+02  -1.7629001559e+00    0.1890826    0.1286339  -5.86  0.001514453    1.623    0.384
        31  -9.6658    202.8223    249.3602   1.1863201849e+02   2.6124023166e+00    0.2431682    0.2209664   7.59  0.002282544    1.393    0.282
        32  -8.2625    137.5205    239.5103   1.2729034899e+02   1.2913115591e+01      0.10268   0.07389205  49.30 7.151601e-05    1.005    0.005
        33  -9.3694    231.6401    234.7574   1.1271878792e+02  -2.3958186466e-01    0.2769097    0.1595279 -11.17  0.001926469    2.190    0.543
        34 -11.9333    187.2896    248.0363   1.2072712569e+02   4.9294360503e+00    0.7854176    0.6253211  29.79  0.006846727    1.201    0.167
        35  -7.6417     42.4856    236.4746   1.4147360421e+02   2.5205377970e+01   0.09424335   0.06196174  62.71 3.506089e-05    1.007    0.007
        36 -10.8257    145.3674    246.8052   1.2678967064e+02   1.0978364434e+01    0.6443197    0.2942233  30.23  0.003349645    3.367    0.703
        37  -9.1681    243.9533    235.0437   1.1101957097e+02  -1.9970988291e+00    0.1680227   0.08865445  22.48   0.00112715    1.724    0.420
        38 -10.5967    188.0293    233.0320   1.1890748885e+02   6.2889708710e+00    0.3523303    0.2067712  45.33  0.002474411    1.297    0.229
        39  -7.5911    220.2016    238.7847   1.1487258374e+02   1.0571986753e+00    0.1412006   0.08959495  25.33 0.0007246747    1.344    0.256
        40  -8.0516    207.4453    233.4846   1.1606496705e+02   3.3757829727e+00     0.105415    0.0750441  33.44 0.0001960535    1.049    0.046
        41  -9.5835     12.2928    231.5884   1.4568078074e+02   2.8907568231e+01    0.2182261    0.1311523  39.16  0.001728702    1.795    0.443
        42  -8.7502    217.2702    230.8189   1.1428024846e+02   2.1754535549e+00     0.210045   0.09831136  28.53  0.001229789    2.103    0.525
        43  -9.8024    248.4983    224.9094   1.0898586569e+02  -1.8497994587e+00    0.3145424    0.1742058  15.20  0.002094788    1.820    0.450
        44  -9.2647    244.7431    229.8843   1.1020845000e+02  -1.7083040586e+00     0.182503    0.1014616  31.74 0.0006228352    1.315    0.240
        45  -7.7599     37.3345    230.6785   1.4196443650e+02   2.6578164234e+01    0.1019308   0.04486794  62.78 0.0006537107    1.705    0.414
        46  -9.6415    236.8680    227.1887   1.1095510620e+02  -3.6731420102e-01     0.276179    0.1463464  26.26  0.001755502    1.638    0.389
        47  -8.9904      4.2584    227.8891   1.4672187722e+02   3.0175977619e+01    0.1625672   0.08816914 -87.58  0.001373686    1.631    0.387
        48  -9.8825    243.0179    245.2087   1.1247804624e+02  -2.6295449175e+00    0.2688826    0.1758469  23.36  0.002185647    1.183    0.154
        49  -8.7719     22.4972    225.9821   1.4397706375e+02   2.8762489083e+01    0.1394241   0.08960622  61.32  0.001154131    1.068    0.064
        50  -8.3283      1.6386    220.8496   1.4689092338e+02   3.1453548955e+01    0.1291379   0.05615545  79.32 0.0009500128    1.798    0.444
        51  -9.6696    239.5695    218.5789   1.0935491892e+02  -3.9998050201e-02     0.250358    0.1458727  14.04  0.001649377    1.786    0.440
        52 -10.4237    248.4297    214.7658   1.0752515668e+02  -1.0215551281e+00    0.4681631    0.2514476  -3.54  0.002902811    2.264    0.558
        53  -9.7710    233.5749    210.8029   1.0909451535e+02   1.5413836198e+00    0.3032538    0.1583748  28.27  0.001865609    1.687    0.407
        54 -10.1640    231.9102    204.1278   1.0833759302e+02   2.4166692061e+00    0.3314289    0.1811581 -21.70  0.002068195    2.127    0.530
        55  -9.6161    246.6815    205.1107   1.0631257918e+02   5.8997657008e-02    0.2448884     0.166248  36.37  0.001757016    1.212    0.175
        56  -9.7312    241.8024    204.7686   1.0697082767e+02   8.3064985336e-01     0.280816    0.1359183  26.89   0.00160779    1.953    0.488
        57  -9.2744    225.0404    205.4821   1.0957694090e+02   3.3612933104e+00    0.2607627    0.1445902  15.37  0.001482486    2.235    0.552
        58  -9.1076    250.4573    200.2149   1.0499731278e+02  -8.5067763805e-02    0.2817499    0.1018599 -24.45  0.001437415    3.137    0.681
        59 -10.2326    243.9182    198.7117   1.0571110464e+02   1.0528800787e+00    0.3071927    0.1579954  37.80  0.001882862    1.533    0.348
        60  -9.5558    187.6126    192.2700   1.1352466611e+02   1.0917312124e+01    0.2045863    0.1639613  42.81 0.0002905692    1.074    0.069
        61  -9.7953    248.3681    190.7228   1.0375983339e+02   1.0920624957e+00     0.338304    0.1714888  24.32  0.001907145    1.937    0.484
        62 -10.4288    249.5016    184.2483   1.0250359959e+02   1.5174829662e+00    0.3814326    0.2007299 -24.47  0.002273039    2.012    0.503
        63  -8.8411     66.7549    144.2842   1.2992455295e+02   3.8034075481e+01    0.4353509    0.1854886  63.05  0.001909053    3.043    0.671
        64  -7.6944    132.1984    139.0603   1.1504319478e+02   2.8862128375e+01    0.1644091    0.1021598 -49.76 0.0003125444    1.717    0.418
        65  -7.8330    196.9257    128.2879   1.0022840803e+02   1.7881798236e+01    0.1817024    0.1594972  30.40 0.0003539865    1.052    0.049
        66 -10.2859    242.6101    119.7017   9.0833781215e+01   9.7276717418e+00    0.2564075    0.2172061  29.81 0.0004519885    1.125    0.111
        67  -7.2733     70.2466    118.3630   1.2550691425e+02   4.2867378868e+01    0.1184939   0.08850368 -45.40 0.0002461393    1.609    0.379
        68  -7.1978     61.6909    109.6860   1.2624633126e+02   4.5815425050e+01    0.1171229   0.09115096 -40.49 0.0003151086    1.629    0.386
        69  -7.2195    188.6571    105.7604   9.6527452480e+01   2.3061895151e+01    0.1440635    0.1032531  26.16 0.0003883071    1.559    0.358
        70  -8.0071    245.6551    100.5044   8.5955360620e+01   1.1432109930e+01    0.2328503    0.1445037 -42.39 0.0007033545    1.814    0.449
        71  -7.1612    212.5412     79.5067   8.5631334024e+01   2.1479321881e+01     0.144778    0.1353428   0.53 6.826773e-05    1.010    0.010
        72  -7.9799    184.3528     77.9766   9.0031151574e+01   2.8397768914e+01    0.2119306    0.1881502 -21.88 0.0005160905    1.114    0.103
        73  -7.9657    102.1275     69.8611   1.0631835944e+02   4.7973014455e+01    0.2127597    0.1797313 -73.99  0.000443088    1.285    0.222
        74  -8.3138    195.0860     58.0558   8.2393402010e+01   2.8711594699e+01     0.216134    0.2067493  20.12 0.0004029339    1.039    0.038
        75  -7.9691      3.2824     56.6376   1.3493082821e+02   6.2735783699e+01    0.1133153   0.07086947  80.07 0.0007016912    1.679    0.405
        76  -8.5705     95.1643     52.2230   1.0274350720e+02   5.2703415079e+01    0.2067239      0.17972 -21.73  0.001178506    1.195    0.163
        77  -7.8442     47.7725     47.2241   1.1664858616e+02   6.0926410458e+01    0.1661796    0.1259327 -38.04 0.0002573435    1.291    0.225
        78  -7.5003    135.6067     48.1296   9.0756163303e+01   4.4889727084e+01    0.1941991    0.1393477 -19.11 0.0004216064    1.509    0.337
        79  -9.1098    250.1142     43.6037   7.0948658191e+01   1.7167638272e+01    0.2420694    0.1850336 -18.16  0.000436202    1.210    0.174
        80  -7.7976     15.5402     41.2408   1.2726292035e+02   6.5243492070e+01    0.2345558   0.09702358 -69.73  0.001140414    2.191    0.544
        81  -7.8635     11.0201     42.0025   1.2923313801e+02   6.5394243553e+01     0.178217     0.101475 -46.10 0.0003421341    1.595    0.373
        82  -7.6033     92.2023     36.6524   9.7991249189e+01   5.6102311118e+01    0.1815734    0.1266752  35.86 0.0004151782    1.594    0.372
        83  -8.6162      1.5101     31.1099   1.3063333873e+02   6.8251003243e+01     0.162551   0.09853442 -63.32 0.0006155952    1.215    0.177
        84  -7.4435      9.5107     28.5426   1.2646967819e+02   6.8307540486e+01    0.1156978   0.08679086 -55.89 5.359378e-05    1.028    0.027
        85  -9.3174    144.6480     24.2661   8.0123039004e+01   4.6190355622e+01    0.2563493     0.241363  21.36  0.000346843    1.044    0.042
        86  -7.4257     22.3215     25.3480   1.1979265151e+02   6.7985287119e+01    0.1254561   0.07125044 -36.15 0.0007049155    1.740    0.425
        87  -8.7369     84.5732     21.5641   9.4118338944e+01   6.0051855293e+01    0.2532623    0.2119699 -48.55 0.0006111404    1.297    0.229
        88  -8.0320      5.7881     15.7048   1.2427971533e+02   7.1142016854e+01    0.2190345    0.1051106 -57.23  0.001281232    1.528    0.346
        89  -7.1259    189.2972     15.3399   6.9769396389e+01   3.5519008724e+01     0.156195     0.106418  29.08 0.0004213648    1.660    0.398
        90 -10.5351    171.0416    240.0582   1.2226351015e+02   8.0566908417e+00    0.3410346     0.247472   3.19  0.002533017    2.071    0.517
        91  -8.8016     33.5283    249.0195   1.4330613118e+02   2.4401577606e+01    0.1181431   0.06994406  89.60  0.001032752    1.595    0.373
        92  -7.1320     62.7044     12.3891   9.7379050190e+01   6.5324926382e+01    0.1278541   0.09525384 -58.35 0.0007012456    1.780    0.438
        93  -8.5356    126.5176    248.5102   1.2974844005e+02   1.3366752524e+01   0.09995231   0.06959933  51.43 0.0001111424    1.013    0.013
        94  -8.6513     64.4921    248.5260   1.3887856904e+02   2.1129238555e+01    0.1806133    0.0472667  49.26  0.001039009    2.428    0.588
        95  -9.2437    246.8445    239.0690   1.1115353606e+02  -2.6995777698e+00    0.3717541    0.1692405  21.34  0.002090089    2.388    0.581
