#   1 NUMBER                 Running object number                                     
#   2 MAG_AUTO               Kron-like elliptical aperture magnitude                    [mag]
#   3 X_IMAGE                Object position along x                                    [pixel]
#   4 Y_IMAGE                Object position along y                                    [pixel]
#   5 X_WORLD                Barycenter position along world x axis                     [deg]
#   6 Y_WORLD                Barycenter position along world y axis                     [deg]
#   7 A_WORLD                Profile RMS along major axis (world units)                 [deg]
#   8 B_WORLD                Profile RMS along minor axis (world units)                 [deg]
#   9 THETA_WORLD            Position angle (CCW/world-x)                               [deg]
#  10 FWHM_WORLD             FWHM assuming a gaussian core                              [deg]
#  11 ELONGATION             A_IMAGE/B_IMAGE                                           
#  12 ELLIPTICITY            1 - B_IMAGE/A_IMAGE                                       
         1  -9.0141    197.2039     25.9087   4.5878859241e+01   3.2473331116e+01    0.2166261     0.175195 -67.34 0.0005551211    1.208    0.172
         2 -10.3969    163.6166     22.1570   4.9584791014e+01   4.1542216737e+01    0.4944146    0.2637185  46.04  0.001476688    1.893    0.472
         3  -9.2763     52.5692     20.0963   7.9155655588e+01   6.5986890346e+01    0.4344831    0.2439103 -10.42  0.002134547    2.124    0.529
         4 -10.4501    111.2546     18.9373   5.9030197688e+01   5.4866033547e+01    0.3701155    0.3264442  13.07  0.001617236    1.093    0.085
         5 -10.4301     86.9378     17.3402   6.5205261006e+01   6.0312195293e+01    0.4567729    0.3001488 -24.98  0.002469027    1.531    0.347
         6  -9.6138     28.9955     18.2049   8.9176214872e+01   6.9240979560e+01    0.2689103    0.1734806 -27.19 0.0005641067    1.256    0.204
         7 -10.2969    149.7942     17.8752   5.0514691035e+01   4.5559862502e+01    0.3537239    0.2659189 -17.35  0.001557567    1.485    0.326
         8  -9.9373    155.0071     16.8112   4.9273411978e+01   4.4339454506e+01    0.3595232    0.2156837 -17.90  0.001011442    1.929    0.482
         9  -9.7845    101.3120     16.3517   6.0577691013e+01   5.7387598106e+01    0.3279435    0.2219524  17.57  0.001075664    1.558    0.358
        10 -10.2018    102.4039     13.2766   5.9001886278e+01   5.7474090223e+01     0.532841    0.2267587 -39.04  0.002072628    2.794    0.642
        11  -9.7003     34.4202     14.1888   8.4618761557e+01   6.9254121083e+01    0.2798871    0.1696947 -20.21  0.001169491    1.459    0.315
        12 -10.3864     22.2668     15.8028   9.1500172174e+01   7.0293795191e+01    0.7015403    0.4401907 -27.70  0.004477328    1.267    0.211
        13 -10.0684     17.0474      4.2629   8.8719139098e+01   7.2554288531e+01    0.4854168    0.2642116  19.56  0.003002912    1.852    0.460
        14 -10.8169      7.0247      3.3277   9.4015325815e+01   7.3540617393e+01    0.4985413    0.4740998  -4.15  0.003271427    1.617    0.382
        15  -9.6270      8.2125     12.0566   9.7399214139e+01   7.2056942321e+01    0.3352256    0.1470952 -48.44  0.001869959    1.926    0.481
        16 -10.8827     15.9699      8.4444   9.1411643099e+01   7.2024874386e+01    0.4002782     0.202638  22.76  0.001567796    2.067    0.516
        17 -10.6364     19.2931     10.9244   9.0795415841e+01   7.1341905387e+01    0.2656366    0.1808821   6.54  0.000363426    1.398    0.285
        18 -11.0406    183.5818     12.1259   4.3727743084e+01   3.7481855124e+01    0.8234069    0.3861184  48.30  0.003514386    2.249    0.555
        19 -10.3316     57.6697     13.4460   7.3868336108e+01   6.6108768178e+01    0.3838358    0.2571061  44.33  0.001955294    1.688    0.408
        20  -9.9603    120.1680     13.1807   5.4666259345e+01   5.3384443719e+01    0.4693097    0.2405624 -40.04  0.002095375    2.261    0.558
        21  -9.8605    123.4585     11.5088   5.3315133438e+01   5.2759230433e+01    0.3189718    0.2576083  37.89 0.0009922266    1.133    0.118
        22  -9.9234    210.2176      9.4728   4.0074112759e+01   3.1080400577e+01    0.4529676    0.2539857 -37.19  0.001738202    1.735    0.424
        23  -9.1207    212.8218      5.7746   3.8897970765e+01   3.0830940269e+01    0.2234047    0.1524621 -71.42  0.001230693    1.387    0.279
        24  -8.9482    129.1055     10.9355   5.1940566077e+01   5.1441004645e+01    0.1978887    0.1816586 -71.05 0.0005036267    1.253    0.202
        25  -9.1453     93.1327     10.2452   6.0239865990e+01   5.9800878391e+01    0.2040152    0.1887611 -26.18 0.0006714199    1.274    0.215
        26  -9.2107     47.4565      9.1282   7.6038642170e+01   6.8224203064e+01    0.3897492    0.2191285  26.38  0.002174685    1.709    0.415
        27  -9.3725     40.2916      7.6879   7.8554588396e+01   6.9416802294e+01    0.2715553    0.1893007 -48.21  0.001583321    2.236    0.553
        28  -9.4601     37.8870      4.7857   7.8171818770e+01   7.0112157355e+01    0.1633098    0.1415113   2.86  0.000271379    1.284    0.221
        29  -8.8976    237.9762      9.3157   3.7584383108e+01   2.4540570893e+01    0.1815038    0.1488016 -81.03  0.001155006    1.073    0.068
        30  -9.3865     78.5312      7.0659   6.3211033059e+01   6.3108052133e+01    0.3072994    0.1993769  16.11  0.001686339    1.522    0.343
        31  -8.6066    158.4369      6.7573   4.5489926522e+01   4.4449226772e+01    0.2436597    0.1575516  84.77 0.0006152782    1.612    0.380
        32 -10.1107     10.3713     15.2006   9.7566088958e+01   7.1376900618e+01     0.365242    0.1603047 -43.80 0.0007454011    1.739    0.425
        33  -8.8413    108.2638      6.0651   5.4558859010e+01   5.6845677602e+01    0.1818034    0.1649251   7.58  0.001007764    1.133    0.117
        34  -9.0692    127.4797      5.2417   5.0152554859e+01   5.2357068320e+01    0.2464119    0.1664187  58.92 0.0006433296    1.300    0.231
        35  -8.8775     25.8522      4.8338   8.4238610239e+01   7.1572862691e+01     0.186415    0.1478684 -37.42 0.0008962372    1.570    0.363
        36  -9.0004     22.0813      3.0940   8.5332966400e+01   7.2220124182e+01    0.1934717    0.1414748  34.02  0.001121802    1.806    0.446
        37  -9.7458     90.3959      3.5804   5.8057090994e+01   6.1018342345e+01    0.3687379     0.212045  56.51  0.001704132    1.677    0.404
        38  -8.6875     85.3774      1.0000   5.8300424582e+01   6.2297873592e+01     0.323301    0.1056303  64.49 0.0006259701    5.458    0.817
        39  -8.8381    231.3027      2.8265   3.6630600697e+01   2.6761653822e+01     0.198028    0.1294435 -52.40 0.0004280152    1.361    0.265
        40  -9.4211    189.9671      1.9374   4.0149595512e+01   3.6861904976e+01    0.3699218    0.1829958 -83.48  0.001566364    2.393    0.582
        41  -9.4329     50.7762      2.8247   7.1341000209e+01   6.8472646842e+01    0.4914862    0.1167883  38.20  0.001777313    4.105    0.756
        42  -9.0228     30.8176      3.0619   8.0728603680e+01   7.1234146030e+01    0.1692253     0.133233 -16.23 0.0004426702    1.185    0.156
        43  -9.1128    137.6765      1.5469   4.6989493618e+01   5.0150623508e+01    0.2242774    0.1488858  77.91  0.001152062    1.529    0.346
        44  -9.7083    103.8884      1.7799   5.3816827125e+01   5.8212588704e+01    0.3693564    0.1860791  74.24 0.0007584041    2.771    0.639
        45  -8.0021     42.2398      1.9586   7.4623118435e+01   6.9854997761e+01    0.1440481   0.08623153 -24.64 0.0008521951    1.511    0.338
        46  -9.2737    242.1488      1.4563   3.5519601211e+01   2.4446985501e+01    0.1731329    0.1083643  82.79 0.0003492935    1.479    0.324
        47  -8.9247     64.9816      1.0000   6.4861287233e+01   6.6260723234e+01    0.1972926   0.06349342  50.08 0.0008029452    2.946    0.661
        48 -10.3314     25.9181    116.5456   1.1646853351e+02   4.8564950722e+01    0.3866428    0.2606007  24.44  0.001452693    1.825    0.452
        49 -10.2881     11.4966    114.8894   1.2038309847e+02   5.0025568365e+01    0.2548322    0.1974314 -49.92 0.0005688303    1.319    0.242
        50  -9.5758      2.2280    113.4902   1.2282441021e+02   5.0918737644e+01    0.3500939    0.2146084 -89.71  0.001886553    1.450    0.311
        51 -10.0402      8.7975    102.4813   1.1958950110e+02   5.3099656853e+01    0.4163689    0.2371613 -73.02  0.002393982    1.391    0.281
        52  -9.8434      7.4386    107.8878   1.2068940675e+02   5.1919812586e+01    0.2800146    0.2195268  14.37 0.0005213545    1.669    0.401
        53 -10.8311     17.6882    109.3549   1.1786662125e+02   5.0905326706e+01    0.6398708    0.3753544  35.01  0.002556758    1.993    0.498
        54  -9.7608     16.8820    104.2721   1.1738473440e+02   5.2160919869e+01    0.2400376    0.1996136 -40.36  0.001007602    1.306    0.234
        55  -8.9349     90.6171    111.2105   9.6009226454e+01   4.1847589893e+01    0.3072164    0.2047703 -58.67  0.001070926    1.466    0.318
        56  -9.2086     50.0170    112.2623   1.0857677835e+02   4.7267890660e+01    0.1810373    0.1635286 -59.48 0.0004648376    1.069    0.064
        57  -9.3194    127.9102    109.9023   8.5034552429e+01   3.5018641543e+01    0.3204806    0.2185907 -24.88  0.001213023    1.838    0.456
        58  -9.8774     71.8457    107.5304   1.0086218408e+02   4.5639787137e+01    0.3244294    0.1932172 -59.33 0.0002737719    1.557    0.358
        59  -8.7073     34.7789    107.5517   1.1240926792e+02   4.9949356237e+01    0.2526208    0.1239202 -55.95  0.001230558    1.671    0.401
        60  -9.0570    123.2544    103.4217   8.4554213834e+01   3.7444488304e+01    0.2201809    0.1500089  54.67 0.0009497028    1.627    0.385
        61  -8.8691    119.0282    107.4651   8.6823383624e+01   3.7415686372e+01    0.2255774    0.1542128  43.12 0.0004003448    1.500    0.333
        62  -8.8755     41.2556    106.2565   1.1016682835e+02   4.9641235378e+01    0.2920742    0.1733174 -71.92 0.0009289006    1.581    0.368
        63  -9.8248     40.6100    101.7316   1.0952019899e+02   5.0787634899e+01    0.3205095    0.2088344 -19.44 0.0007520095    2.086    0.521
        64  -8.3861     45.4613    106.1989   1.0883866719e+02   4.9223922203e+01    0.1784022    0.1168916 -76.85 0.0002494116    1.547    0.354
        65 -10.5377     80.0057    103.4451   9.7360901893e+01   4.5399695572e+01    0.3659067    0.2933216 -21.27  0.001901869    1.441    0.306
        66 -10.1807     53.0871     99.1275   1.0495575086e+02   5.0071115513e+01    0.4577867    0.2841574 -60.44  0.002329188    1.416    0.294
        67 -10.1758     59.0460    100.0179   1.0321946687e+02   4.9142455824e+01    0.3163887    0.2424218  20.75 0.0008350683    1.530    0.346
        68  -9.4757     57.8996    104.3585   1.0453873005e+02   4.8248422590e+01    0.3622276    0.1415435 -45.71  0.001030539    2.511    0.602
        69  -8.3137    142.0469    105.0000   7.9986369259e+01   3.2990369744e+01    0.2592044   0.09082986  46.52 0.0007936438    2.882    0.653
        70 -10.0880     38.3057    114.6317   1.1252971008e+02   4.7916150972e+01    0.4697615    0.3012724 -69.10   0.00256653    1.332    0.250
        71  -9.5996    108.1461    103.2567   8.8801003541e+01   4.0534073891e+01    0.4042547    0.2537958  31.35  0.001730195    1.811    0.448
        72  -8.6569    102.0051     98.8391   8.9419097000e+01   4.2705904834e+01    0.2568364    0.1792883  68.55  0.001100433    2.037    0.509
        73  -9.4452     79.4212     95.4780   9.5533044668e+01   4.7354567862e+01    0.4339646    0.2258739 -46.83  0.001862634    1.762    0.433
        74  -9.3428     18.5316     97.5937   1.1585211461e+02   5.3616174658e+01    0.2051158    0.1844158 -32.88 0.0005586023    1.269    0.212
        75  -9.3131     15.7511     95.3708   1.1638699034e+02   5.4323987479e+01    0.2301641    0.1728306  56.59 0.0008689097    1.586    0.369
        76  -9.1156    147.9346     96.4496   7.6098628940e+01   3.3429523639e+01    0.2569307    0.2215754  -5.13 0.0006373074    1.305    0.233
        77  -9.5191     69.0538     96.0891   9.9041219442e+01   4.8745883968e+01    0.2497059    0.1861484 -54.37 0.0007327578    1.211    0.174
        78  -8.5510     96.8540     96.1485   9.0242121241e+01   4.4263799731e+01    0.2040739    0.1757581  -1.73 0.0006222513    1.310    0.236
        79  -9.0119     27.8711     97.9227   1.1291377823e+02   5.2835668319e+01    0.1853373    0.1531338 -66.68 0.0004016161    1.037    0.035
        80  -9.8189    132.4091     93.6828   7.9301281353e+01   3.7562611211e+01    0.2851817    0.2608673 -10.76  0.000297563    1.142    0.125
        81  -9.8037     37.7397     93.8369   1.0890016553e+02   5.2935290673e+01    0.2197917    0.2133972   7.84 0.0002557193    1.216    0.178
        82  -8.5150     33.3386     90.8119   1.0976587797e+02   5.4045702271e+01     0.189241    0.1459686 -62.04 0.0005945324    1.091    0.083
        83  -9.6793      1.7405     91.8247   1.2033319696e+02   5.5945294373e+01    0.4198186    0.1265648 -62.06  0.001933502    2.211    0.548
        84  -8.9871      5.2394     87.1543   1.1853123467e+02   5.6838635803e+01    0.2746675    0.1068083 -43.84  0.001318124    2.401    0.583
        85  -9.4779    153.3275     92.9711   7.3779530882e+01   3.2860725755e+01    0.2241828    0.2006411 -38.16 0.0004004532    1.110    0.099
        86 -10.0178    139.5213     88.9777   7.6048105227e+01   3.6915769636e+01    0.3725327    0.2189908 -36.35 0.0008101994    1.730    0.422
        87  -9.3390     89.2959     92.2649   9.1521270834e+01   4.6475260597e+01    0.2973934    0.2553093  -9.63  0.000806328    1.283    0.220
        88  -9.5932     52.1335     91.3101   1.0351022357e+02   5.2024171130e+01    0.3311577      0.18985 -61.72  0.001138667    1.602    0.376
        89  -8.8548      9.5898     93.1509   1.1802091398e+02   5.5220686323e+01    0.1751491    0.1564299  68.39 0.0005996755    1.307    0.235
        90  -9.4314     43.7607     91.0850   1.0629415288e+02   5.2988909268e+01     0.331452    0.1909873  45.95  0.001637737    2.137    0.532
        91  -8.9053     47.8645     89.1416   1.0445803487e+02   5.3008283419e+01    0.1850255    0.1592765 -48.74  0.001122507    1.028    0.027
        92  -8.8164     15.5702     90.0530   1.1557991681e+02   5.5572195141e+01    0.2132615    0.1683966 -29.16 0.0007824855    1.409    0.290
        93 -10.7849    121.1150     87.8393   8.0674780279e+01   4.1269325350e+01    0.5196775    0.4440451  71.21 0.0003302664    1.380    0.275
        94 -11.0567    124.5607     85.2584   7.8930714839e+01   4.1057578590e+01    0.5444708    0.4238022 -38.38  0.002309342    1.264    0.209
        95  -9.9325    131.6676     86.8640   7.7479163592e+01   3.9144099083e+01    0.3889862    0.2672959 -33.66  0.000745417    1.491    0.329
        96 -10.9003    135.1895     82.9735   7.5363315899e+01   3.9124669891e+01    0.3422241    0.3132161 -46.35            0    1.111    0.100
        97 -10.2139    109.9634     88.2909   8.4034221639e+01   4.3495567675e+01    0.3804488    0.3042368  48.72  0.001879516    1.327    0.247
        98  -8.6578     56.8926     89.4896   1.0146169082e+02   5.1882385736e+01    0.1865723    0.1380001  28.00 0.0009603042    1.533    0.347
        99  -8.3847     21.5729     89.4034   1.1346380223e+02   5.5313599299e+01    0.1242112    0.1016655 -63.99 9.781262e-05    1.038    0.037
       100  -8.7124    145.0301     88.0146   7.4363271420e+01   3.5821313279e+01    0.1884602    0.1836036 -23.66 0.0004144267    1.017    0.016
       101  -8.9342    101.7545     87.3933   8.6241152004e+01   4.5300124675e+01    0.2862683    0.1446911  45.38  0.001129926    2.112    0.526
       102 -10.4542    174.5578     85.2990   6.6778468417e+01   2.9160195721e+01     0.397014    0.2764102  82.19  0.001033252    2.000    0.500
       103  -9.1759     81.1101     84.7888   9.2057574447e+01   4.9516058058e+01    0.3360309    0.2261036 -13.03  0.001209426    2.077    0.519
       104  -9.0772     80.8099     80.8307   9.1004233233e+01   5.0438180686e+01    0.2638888    0.2114122 -33.94 0.0009383063    1.180    0.153
       105  -9.1092     65.8396     84.7941   9.7199368614e+01   5.1797464985e+01     0.257836    0.1985675 -37.49  0.001025692    1.214    0.177
       106 -10.2445     46.1129     83.9818   1.0384734920e+02   5.4390475125e+01    0.2703012    0.1974629 -56.25  0.001532443    1.182    0.154
       107  -9.3290     41.4853     83.9891   1.0547618770e+02   5.4866622632e+01    0.2687688    0.1708932  83.80 0.0008822342    2.542    0.607
       108  -9.5626     27.3738     84.4310   1.1052140387e+02   5.6026518915e+01    0.2499308    0.2004076  46.70 0.0009428054    1.524    0.344
       109  -8.0061     57.2478     84.3048   1.0003436054e+02   5.3032030304e+01    0.1374058   0.09264193 -34.14 0.0001752433    1.500    0.333
       110  -8.2647     34.1229     84.3528   1.0814450154e+02   5.5477053942e+01    0.1553032    0.1161904  40.19 0.0004015271    1.605    0.377
       111  -9.7276    158.5001     83.0434   6.9651206167e+01   3.3543203842e+01    0.2390264    0.1555666 -36.85 0.0004677626    1.536    0.349
       112 -11.0460    144.2815     81.3554   7.2544591966e+01   3.7308158742e+01    0.5207214    0.3639892  66.44   0.00188518    1.726    0.421
       113  -8.2905     70.4952     83.5680   9.5273731316e+01   5.1416445116e+01     0.143938    0.1252558 -31.88 0.0001077993    1.085    0.078
       114  -8.9036    116.9056     82.5047   8.0250990864e+01   4.3279256715e+01    0.2296974    0.1519117  42.05 0.0006877236    1.542    0.352
       115  -9.1744    100.8024     82.2355   8.4984181842e+01   4.6592168485e+01    0.2548169    0.2234815  29.71 0.0009135331    1.179    0.152
       116 -11.5017    104.7304     78.4604   8.2604256319e+01   4.6618396491e+01    0.5548956    0.4644095 -16.87  0.001085696    1.249    0.199
       117 -10.0621    110.2983     71.9168   7.8820625361e+01   4.6805754584e+01    0.3045186    0.2495423  -8.32  0.000361134    1.332    0.249
       118  -8.1939      1.3007     82.7008   1.1916792421e+02   5.8044543483e+01    0.1115947   0.08014119  77.54 0.0002382104    1.581    0.367
       119 -10.3874     75.8847     82.7078   9.3204314910e+01   5.0802782072e+01    0.3700856     0.267692 -60.32 0.0009733333    1.464    0.317
       120  -9.2123     55.4128     80.3083   9.9631003915e+01   5.4164426479e+01    0.2820812    0.1794294 -46.10  0.001452327    1.364    0.267
       121  -9.3569     51.0521     80.9937   1.0135803430e+02   5.4525551288e+01    0.2418695    0.1961223 -70.53 0.0003997808    1.322    0.243
       122  -9.5454     49.8642     76.7198   1.0066639307e+02   5.5624155191e+01    0.3186981    0.2266991  14.73    0.0012076    1.644    0.392
       123  -8.7043     54.3455     74.3178   9.8379203030e+01   5.5630510321e+01    0.2487412     0.163514 -27.41  0.000743069    1.639    0.390
       124  -9.5742     57.6409     71.1139   9.6252492009e+01   5.5919785342e+01    0.3240969    0.2387454  -4.51  0.001161834    1.583    0.368
       125  -8.9465     22.2026     80.2773   1.1149889113e+02   5.7370779921e+01    0.2084434    0.1372896 -58.84 0.0006493272    1.204    0.169
       126 -10.2379     20.8768     75.2626   1.1093988590e+02   5.8602507420e+01    0.2654426    0.2259188 -74.04 0.0007011158    1.209    0.173
       127 -10.7913      6.3701     79.5890   1.1694117815e+02   5.8501617107e+01    0.4311063    0.2661134  89.75 0.0007535147    1.808    0.447
       128 -10.5275    154.2061     79.4986   6.9584519328e+01   3.5262608492e+01    0.3646294    0.2876856  69.46  0.001297192    1.433    0.302
       129  -8.6929    130.0883     79.4731   7.5635580039e+01   4.0987994334e+01     0.228514    0.1533265  47.05 0.0003978142    1.500    0.333
       130  -8.9482     96.8670     78.7117   8.5129278026e+01   4.8083714008e+01    0.3668188    0.2400884  12.38  0.001008061    2.211    0.548
       131 -10.0785     98.7535     73.5995   8.2911768554e+01   4.8784678866e+01    0.3637376    0.3037913 -86.84  0.001559024    1.641    0.391
       132 -10.3284     97.0738     69.0805   8.1965278426e+01   5.0016513459e+01    0.3651871    0.2249464 -42.78 0.0008543981    1.570    0.363
       133  -8.6364     15.6756     78.9811   1.1356350390e+02   5.8106905437e+01    0.1742046    0.1290744 -63.56 0.0003878541    1.100    0.091
       134  -8.1862     43.6970     78.6999   1.0341194918e+02   5.5848984045e+01    0.1365185   0.08751412 -33.14 0.0003715021    1.587    0.370
       135  -9.0441     28.3322     78.0626   1.0882942361e+02   5.7407544853e+01    0.1895896     0.148178 -37.93 0.0002473756    1.201    0.167
       136 -10.6871     77.0586     75.0796   9.0542563732e+01   5.2284791804e+01    0.5850965     0.286833  26.85  0.001599666    2.569    0.611
       137  -8.7791     35.9407     76.2236   1.0562796865e+02   5.7167250482e+01     0.221294     0.150618 -74.63 0.0006805666    1.640    0.390
       138 -11.1994    137.4152     73.3782   7.1792186935e+01   4.0458856757e+01    0.7216375    0.3371599 -43.02   0.00267197    2.176    0.540
       139 -10.4758    150.6694     57.8180   6.3604928363e+01   3.9949509557e+01    0.3895925    0.2496025  48.44 0.0008749574    1.516    0.340
       140 -10.9983    146.6051     53.8937   6.3238645002e+01   4.1596343233e+01    0.5015894    0.3547767 -86.48  0.001462236    2.046    0.511
       141 -11.2667    151.8136     73.2957   6.8245093906e+01   3.6994818921e+01    0.4838347    0.4474056 -71.41  0.001192792    1.172    0.146
       142 -11.7039    151.7996     65.2112   6.5715391472e+01   3.8428669624e+01    0.7089084    0.4083157 -44.49  0.002922027    1.814    0.449
       143 -11.0515    158.0947     73.5177   6.6873589454e+01   3.5400934780e+01    0.5764252    0.3367478 -27.35  0.001531767    1.916    0.478
       144 -11.4754    163.1097     67.5089   6.3936983464e+01   3.5198873080e+01    0.6538318    0.5092372  49.97  0.002646536    1.267    0.211
       145  -9.8721    128.0270     75.5511   7.4955106383e+01   4.2223941909e+01    0.3561639    0.1424913  42.81  0.001203414    2.591    0.614
       146  -9.6030     45.5083     72.5075   1.0113657694e+02   5.7042764582e+01    0.3432589     0.202651 -68.57  0.001204603    2.007    0.502
       147  -9.2109     10.3654     73.5845   1.1444349009e+02   5.9639844166e+01    0.2831766    0.1728865  60.18  0.001230027    2.349    0.574
       148  -8.9902    177.5905     71.6863   6.2220459076e+01   3.0824680444e+01    0.2954162    0.1534091 -29.57  0.001126219    2.077    0.519
       149  -9.0126     16.3368     71.8021   1.1188717256e+02   5.9682388668e+01    0.2798882    0.1371022  -3.64  0.001021666    2.977    0.664
       150 -11.4580    142.4772     68.8691   6.9086443292e+01   4.0074714664e+01    0.5397479    0.4874792   9.65  0.001573123    1.164    0.141
       151  -8.7190     38.9706     71.4361   1.0329877419e+02   5.7949896371e+01    0.1698689    0.1276711  12.97 0.0004671466    1.535    0.349
       152  -9.8574    105.1613     67.2426   7.8820937851e+01   4.8775761383e+01    0.3123663    0.2544094 -71.62 -0.000430966    1.638    0.390
       153  -9.3204     88.6409     66.3608   8.3808143411e+01   5.2126028625e+01    0.3822895    0.2832346 -67.69  0.001706928    1.907    0.476
       154 -10.7166     44.3964     63.7855   9.9096866168e+01   5.9055710017e+01    0.4858122    0.3098992 -37.44  0.002647334    1.390    0.281
       155  -8.6208     28.2156     68.1475   1.0655309908e+02   5.9635806836e+01    0.1942906    0.1428032 -38.27 0.0004308638    1.201    0.167
       156  -8.9045     15.4907     67.8891   1.1136987927e+02   6.0604892719e+01    0.2738111    0.1285165  29.58  0.001314531    2.548    0.608
       157  -8.0673    116.6563     66.7072   7.5233541857e+01   4.6446545648e+01    0.1572781    0.1165079  11.29 0.0001673219    1.659    0.397
       158  -8.8424    200.7768     64.9848   5.6151124914e+01   2.6099486864e+01    0.2021547    0.1201427 -33.73 0.0004465239    1.656    0.396
       159 -10.8590    172.2362     62.9346   6.0679048195e+01   3.3648790108e+01    0.4959566    0.3450994  -3.39  0.001921333    2.001    0.500
       160 -10.8731      2.2293     62.4821   1.1534350490e+02   6.2497216547e+01    0.2764732     0.171613 -66.73 0.0003767394    1.311    0.237
       161 -10.1724      5.6542     58.7355   1.1322056065e+02   6.3147968244e+01    0.2489667    0.1836535 -41.11 0.0009652621    1.173    0.148
       162 -10.3056    109.3006     62.5185   7.5960525818e+01   4.8806797372e+01    0.5349961    0.4158431 -38.29  0.002702174    1.277    0.217
       163  -9.4193    111.9433     55.6204   7.2768271522e+01   4.9472409969e+01    0.2901397    0.2134777 -28.51 0.0004198556    1.359    0.264
       164  -8.0165     93.2967     64.3472   8.1590119805e+01   5.1663612832e+01    0.1521902    0.1099974  -6.76 0.0003777367    1.676    0.403
       165  -9.7979     32.6998     63.2424   1.0353014661e+02   6.0323549602e+01    0.3868409    0.2913341  89.91  0.002213963    1.891    0.471
       166  -9.0215     26.2838     56.1005   1.0414348555e+02   6.2386681513e+01    0.1834358    0.1602762 -14.04 0.0003499587    1.206    0.171
       167  -9.3976     30.4346     56.4537   1.0253427548e+02   6.1965471690e+01    0.2203661    0.1542894 -37.76 0.0004875357    1.194    0.162
       168  -9.1620     29.4718     52.8030   1.0185658098e+02   6.2807725258e+01    0.2038981    0.1571628 -51.41 0.0007176043    1.178    0.151
       169  -9.2327     67.2960     62.9022   9.0133370352e+01   5.6320422128e+01    0.2892569    0.2013092  12.74  0.001084757    1.669    0.401
       170  -8.7581    219.4886     61.5346   5.2386982305e+01   2.2064982489e+01    0.1438223     0.133487 -59.67 0.0002154703    1.004    0.004
       171  -9.8813    162.8285     60.4302   6.1813342277e+01   3.6453364630e+01    0.2987786    0.2455723   2.78 0.0009340967    1.435    0.303
       172  -9.5103    159.4925     57.0127   6.1438930157e+01   3.7852461624e+01    0.4030509    0.2560226 -14.83  0.001177532    2.030    0.507
       173  -9.9235    162.6266     53.0228   5.9540508994e+01   3.7678584190e+01    0.4048224     0.294769 -13.32 0.0009231881    1.632    0.387
       174  -9.1676     88.9204     60.2630   8.1623599609e+01   5.3261597144e+01    0.2591402    0.2046968 -62.37  0.001318131    1.638    0.389
       175 -10.3581     95.6257     56.8165   7.8198275533e+01   5.2633465856e+01    0.5910341    0.3657522  -8.91  0.002422079    2.392    0.582
       176  -8.4294     84.6840     60.7644   8.3231612673e+01   5.3928241133e+01     0.138843    0.1047663   2.66 0.0001821336    1.504    0.335
       177  -8.9778     50.2471     59.7920   9.5591464662e+01   5.9229289397e+01    0.1814545    0.1570504 -38.87 0.0003835007    1.081    0.075
       178  -9.0645    212.9840     49.7578   5.0217087428e+01   2.5378309723e+01    0.3534295     0.194602  41.54  0.001476966    2.325    0.570
       179 -10.6065    200.2727     56.4469   5.3880793165e+01   2.7547330174e+01    0.5796821    0.3424219  38.43  0.002437835    2.139    0.532
       180 -10.9085    204.3777     51.4776   5.1897414479e+01   2.7258040354e+01    0.6763558    0.5222828  85.19  0.003429234    1.360    0.265
       181  -9.1499    184.1153     57.4145   5.6833163228e+01   3.1492964009e+01    0.2847367    0.2354574  25.33  0.000683916    1.412    0.292
       182  -9.5534     69.3373     56.7678   8.7294406894e+01   5.7235332134e+01    0.3819338    0.1786915 -35.54   0.00132638    2.117    0.528
       183 -10.4419     59.6205     57.3246   9.1147477838e+01   5.8532956889e+01     0.431783    0.2697751  10.10  0.001746643    2.029    0.507
       184  -8.6465    125.8907     56.9093   6.9345124734e+01   4.6108741033e+01    0.2212776    0.1928839  13.26            0    1.180    0.153
       185  -9.1606    104.8925     56.0452   7.5017274740e+01   5.0900791759e+01    0.2341813     0.199669  38.97 -0.0009232552    1.179    0.152
       186  -8.7836     78.1758     55.9049   8.3784800039e+01   5.5978915060e+01    0.2474522    0.1830548   4.27 0.0007667514    1.518    0.341
       187  -8.2652     81.3138     53.3286   8.1746220713e+01   5.5920362562e+01    0.3414327    0.1397819 -31.35  0.001223428    2.889    0.654
       188  -9.2476     81.0000     48.9639   8.0236365781e+01   5.6762210630e+01    0.3557875    0.1503566 -41.33  0.001435076    2.286    0.563
       189  -9.8780     84.1488     46.8330   7.8331684754e+01   5.6568326338e+01    0.4028226    0.2886013  19.65  0.001275188    1.476    0.322
       190  -8.7486    222.0117     55.0381   5.0370193543e+01   2.2430561292e+01    0.1778265    0.1512612 -44.22 0.0004322319    1.109    0.098
       191  -9.2518     85.9647     54.6120   8.0606925431e+01   5.4856314282e+01    0.2785814    0.2068808  46.22  0.001445159    1.496    0.331
       192 -10.6078    173.9626     52.1404   5.7091522367e+01   3.4902859206e+01    0.5238969    0.1995031 -35.97  0.001857547    2.546    0.607
       193  -9.7845    134.5752     53.3038   6.5884973459e+01   4.4645626004e+01    0.4202978      0.30294 -22.15  0.001894854    1.489    0.329
       194  -8.6557    122.2981     53.3185   6.9055504781e+01   4.7541241097e+01    0.2781735    0.1485323 -27.56 0.0006194454    2.042    0.510
       195  -9.3425    126.3339     50.6369   6.7045736571e+01   4.7038232420e+01    0.3407545    0.2511536  24.55 0.0009671338    1.498    0.332
       196  -9.1438     36.1609     53.2298   9.9194049833e+01   6.2104802329e+01    0.2836311    0.2031327 -66.47  0.001613894    1.674    0.403
       197  -9.1021     42.5533     52.2810   9.6245148180e+01   6.1636975761e+01     0.306851    0.1108816 -51.82  0.001269455    2.461    0.594
       198  -9.4360     49.1843     49.5779   9.2605070758e+01   6.1406212302e+01    0.2978191    0.1974687 -15.23  0.001007968    1.636    0.389
       199  -8.8007     46.4296     47.4837   9.3000541620e+01   6.2141720410e+01    0.1908823     0.179415  42.75  7.78177e-05    1.408    0.290
       200 -10.3329    179.2636     50.6016   5.5678852205e+01   3.3769051920e+01    0.4891753    0.1614818 -38.23  0.001639688    2.868    0.651
       201 -10.1673    106.6670     51.1032   7.2695814922e+01   5.1378772844e+01    0.2490273    0.2207782  43.31 0.0002915711    1.165    0.142
       202 -11.7168     58.6761     47.8560   8.8168529851e+01   6.0495309197e+01    0.5086161    0.3720547  28.72 0.0005340407    1.452    0.311
       203 -10.1957     55.6043     41.9072   8.7156278084e+01   6.2011206309e+01    0.4097019    0.2951992  -1.01  0.001480006    1.444    0.307
       204 -10.7077     18.1767     50.8405   1.0607703759e+02   6.4088028639e+01    0.4234094    0.2416888  -0.54   0.00143682    2.129    0.530
       205  -9.2425     14.7280     51.6801   1.0777498633e+02   6.4139957215e+01    0.1654258    0.1410969 -64.84 0.0003781805    1.267    0.211
       206  -8.6694    233.8145     51.4285   4.7974125836e+01   2.0183010983e+01    0.1846022    0.1243344  53.36 0.0007063335    1.634    0.388
       207  -8.1253    116.4409     51.4583   7.0001159999e+01   4.9180376500e+01    0.1462122    0.1399786   9.10 0.0001459566    1.038    0.037
       208  -8.7979      5.6534     49.0233   1.1096813890e+02   6.5204053897e+01    0.2583519    0.1154921 -42.43 0.0009882167    1.754    0.430
       209  -8.8761    121.7540     48.5586   6.7512762397e+01   4.8437008126e+01    0.2658785    0.2193202 -85.73  0.001326084    1.621    0.383
       210  -9.9536     96.3916     48.0659   7.4739661867e+01   5.4013103148e+01    0.4229338    0.3295819  15.77  0.001374834    1.326    0.246
       211 -10.9333    167.3544     43.2063   5.5558955619e+01   3.7907771337e+01    0.3669665    0.3365324  33.95  0.001021185    1.140    0.123
       212  -9.2371     34.7729     47.5513   9.7944927881e+01   6.3383331036e+01    0.2224167    0.1879902  66.56 0.0005828273    1.811    0.448
       213  -9.2482     10.5900     48.1873   1.0862250845e+02   6.5113883161e+01    0.2094673    0.1515895 -15.95 0.0008378587    1.435    0.303
       214  -9.5895     64.6244     70.5480   9.3537485262e+01   5.5107453667e+01    0.3495832    0.2207237  47.68  0.001697185    2.001    0.500
       215  -8.6931     90.7023     47.6321   7.6422812413e+01   5.5203301046e+01      0.27756    0.1278267  40.30  0.001136667    2.188    0.543
       216 -10.8159    142.6132     42.8475   6.0429638899e+01   4.4263761848e+01    0.6430023      0.53565  -6.68  0.003349936    1.312    0.238
       217  -8.1241     67.4665     46.4243   8.4222957701e+01   5.9462580780e+01    0.1374608     0.116273 -11.66 0.0001671663    1.049    0.047
       218  -9.7779    175.0128     44.7287   5.4658890879e+01   3.5715600738e+01    0.2053074    0.1835487  61.47 0.0003285355    1.080    0.074
       219  -9.8027    158.2659     45.0756   5.7884155450e+01   3.9979417296e+01    0.5215148     0.135867  48.50  0.001505554    3.734    0.732
       220  -9.2383    108.4796     44.0330   6.9543408975e+01   5.2133250168e+01    0.3639797    0.1975687  49.44   0.00151832    1.817    0.450
       221  -8.3997    187.6448     43.1787   5.2111047100e+01   3.2679531344e+01    0.1921583    0.1409084 -18.99 0.0009286131    1.565    0.361
       222  -8.7700     81.5819     42.7569   7.7645063259e+01   5.7723874043e+01    0.1895048     0.125599 -42.80 0.0007309379    1.596    0.373
       223  -8.5610     74.5972     42.8453   8.0179137220e+01   5.8931844251e+01    0.3323021     0.183995 -44.64  0.001553586    1.907    0.476
       224  -8.4207     69.8556     43.1442   8.2055478245e+01   5.9664364607e+01    0.1788603    0.1380157  -3.91 -0.000430966    1.275    0.216
       225  -8.3563      8.5552     43.0460   1.0812073842e+02   6.6279675866e+01    0.1700733   0.09326603 -58.02 0.0002840561    1.486    0.327
       226  -9.2865    204.1614     41.2866   4.9159714284e+01   2.8748279888e+01    0.3546676    0.1832769 -52.42  0.001050178    2.072    0.517
       227  -9.7148     45.0831     40.8807   9.1153386396e+01   6.3546384014e+01    0.4146174    0.2215401 -38.65  0.002144389    1.602    0.376
       228  -9.2899     48.3058     36.5155   8.8082211679e+01   6.3935243219e+01    0.2716336    0.1860115 -62.18  0.001395509    2.337    0.572
       229  -8.5333    217.3806     41.6828   4.7535755843e+01   2.5431825919e+01    0.2905856    0.1291026  71.06  0.001136813    2.420    0.587
       230  -8.8611    197.6716     40.7437   4.9918857542e+01   3.0456728350e+01    0.2690668    0.1587613  56.53  0.001228591    1.658    0.397
       231 -10.2785    149.5872     39.0719   5.7667721481e+01   4.3036998497e+01    0.5282397    0.2574252 -47.17  0.001788277    2.427    0.588
       232  -9.0415    150.0109     34.2271   5.5962018643e+01   4.3575594472e+01    0.2418231    0.1985592  -9.41 0.0006110739    1.352    0.260
       233  -8.7457     98.5553     40.8372   7.1296459241e+01   5.4738192039e+01    0.2517179     0.192144 -80.78  0.001182053    2.259    0.557
       234  -9.2214     63.4875     41.1271   8.3706023962e+01   6.1010783483e+01    0.2125275     0.174875  17.51 9.425383e-05    1.203    0.169
       235 -10.4127     32.0277     37.7936   9.5748560945e+01   6.5531436205e+01    0.6320434    0.2247277 -40.33  0.002802147    2.354    0.575
       236  -8.9338     17.7719     41.3177   1.0343623995e+02   6.6046619223e+01    0.1804669    0.1439127  10.01 0.0008683107    1.425    0.298
       237  -8.8724    227.0486     39.7005   4.5875661451e+01   2.3381081659e+01    0.1966089    0.1724474 -89.65  0.001091518    1.102    0.093
       238  -9.5832    161.7844     37.4364   5.4761535200e+01   4.0135014095e+01    0.3142319    0.2431664  31.61 0.0009028169    1.427    0.299
       239 -10.8369    157.7751     37.6103   5.5568140702e+01   4.1143407856e+01    0.6570616    0.3170482  41.96  0.002541953    2.292    0.564
       240  -9.0385    122.1412     38.4878   6.3755174210e+01   4.9857749739e+01     0.249079    0.2098673  58.29 0.0006743615    1.227    0.185
       241  -7.8725     92.6877     40.7407   7.3114758769e+01   5.5942399909e+01     0.141347    0.1010175  13.99 0.0002604897    1.531    0.347
       242  -8.7816      2.2268     39.5252   1.1002586705e+02   6.7309982571e+01    0.1848395    0.1036498  21.01   0.00113171    2.169    0.539
       243  -9.9633     81.2182     26.0870   7.0897842858e+01   6.0321609210e+01    0.3867745    0.2921624 -55.62  0.002060136    1.968    0.492
       244  -9.7914     82.2337     36.5067   7.4918646735e+01   5.8609771477e+01    0.3581941    0.2373715 -27.20  0.001735751    1.450    0.310
       245 -10.7087     78.3769     31.5554   7.4217763570e+01   6.0069257857e+01    0.3887002    0.2759577 -22.58 0.0009295092    1.336    0.251
       246  -9.3215     75.0451     37.9735   7.8070652700e+01   5.9664446602e+01    0.2014745    0.1743004  -6.87 0.0004194841    1.015    0.015
       247  -9.2502    246.8556     35.4290   4.2764122859e+01   1.9407389887e+01    0.4099362    0.2354379 -84.07  0.001997062    2.026    0.506
       248  -8.9569     69.4467     36.1992   7.9424784802e+01   6.0896565601e+01    0.2535138    0.1750998 -16.22  0.001362316    1.427    0.299
       249  -9.2091     27.6178     36.3887   9.7250188674e+01   6.6207708569e+01    0.2078265    0.1509728 -42.74  0.000670784    1.186    0.157
       250  -9.8257    191.4786     34.5031   4.9052285391e+01   3.2859652742e+01     0.359344    0.2671873 -75.26  0.001825227    1.437    0.304
       251 -10.0166    194.2294     32.1975   4.8017294580e+01   3.2452733810e+01    0.2883571    0.2177269 -19.45 0.0006748198    1.521    0.343
       252  -9.2797    174.2881     35.7519   5.2057708899e+01   3.7125198844e+01    0.3456609    0.2025529  22.69  0.001127176    2.762    0.638
       253  -8.1271    102.2450     36.4216   6.8453576076e+01   5.4624988691e+01    0.1485491    0.1017249   5.57 0.0002811413    1.734    0.423
       254  -8.1831     90.5134     35.9788   7.1925385304e+01   5.7104524259e+01     0.186519    0.1136516  -3.07 0.0004302082    2.212    0.548
       255  -9.0352     62.9227     35.9836   8.1856545072e+01   6.1970411729e+01    0.1982378    0.1711836  -9.04 0.0003814646    1.045    0.043
       256  -8.4809    106.9018     35.2482   6.6640298588e+01   5.3784443512e+01    0.1919714    0.1698717  23.52 0.0003928834    1.036    0.034
       257  -8.1160     94.4201     35.4616   7.0466918231e+01   5.6397385185e+01     0.140492     0.124204   7.55 0.0001338626    1.017    0.017
       258  -9.4636    185.1604     31.8556   4.9207464618e+01   3.4817840024e+01    0.5075324    0.2093064 -22.60  0.001841567    2.998    0.666
       259  -8.6438    175.9039     30.4818   5.0203107359e+01   3.7378243790e+01    0.2263737    0.1353244  66.32  0.001029478    1.583    0.368
       260 -10.2297    181.8404     27.4230   4.8398409673e+01   3.6219448941e+01    0.6235934    0.3246432  32.90  0.002375498    2.928    0.658
       261  -9.5093    178.8295     22.5232   4.7387991313e+01   3.7571831732e+01    0.3509645    0.2584645 -68.87  0.001810107    1.459    0.314
       262  -8.5775     86.4835     34.4589   7.2636353121e+01   5.8118621580e+01    0.1385243    0.1224165   5.60 0.0001253822    1.013    0.012
       263 -10.3717    236.6392     31.5935   4.2876229036e+01   2.2203081368e+01    0.5133034    0.3898882  84.91  0.002043764    1.289    0.224
       264  -9.5773    237.3976     26.7825   4.1666693422e+01   2.2632248438e+01    0.2579387    0.2137851 -50.35 0.0009263318    1.111    0.100
       265 -10.3082    238.6606     22.6145   4.0576176567e+01   2.2852230600e+01    0.3615519    0.2965982  76.59  0.001173303    1.230    0.187
       266 -10.3051    127.5114     37.1310   6.1922393011e+01   4.8771801488e+01    0.4430676    0.3977112  66.71  0.002044996    1.193    0.162
       267  -9.2002    143.3998     32.0303   5.6553986331e+01   4.5532115640e+01     0.326052    0.2233397  20.36  0.001513697    1.791    0.442
       268  -9.1937    119.9796     19.0916   5.6980633334e+01   5.2809929946e+01    0.2751579    0.2073892  33.13 0.0005362582    1.264    0.209
       269  -9.7015    119.8371     26.3370   5.9782810080e+01   5.2003966262e+01    0.5566779    0.1802577  49.40  0.001994002    2.670    0.626
       270  -9.0882    118.0862     22.8908   5.8890293663e+01   5.2827592175e+01    0.2820485    0.2004011  62.65  0.001093898    1.450    0.311
       271  -9.1226    120.4175     32.0482   6.1797635551e+01   5.1143073700e+01    0.2354137    0.2219136  56.16 0.0006472717    1.130    0.115
       272  -9.9476    125.4890     30.0627   5.9819425550e+01   5.0194623423e+01     0.334746    0.2007128  41.32 0.0003346313    1.605    0.377
       273  -9.1696    114.2450     32.8686   6.3701533649e+01   5.2465735096e+01    0.2494175    0.2043423  76.18 0.0009416405    1.517    0.341
       274  -9.5554    110.1674     29.3699   6.3438512475e+01   5.3854908011e+01    0.5083923    0.2647907  63.12  0.002104034    2.345    0.574
       275  -8.6097    100.5214     33.1231   6.7661709237e+01   5.5463201952e+01    0.2514664    0.1536703  43.88   0.00121009    1.545    0.353
       276  -8.5016     51.7507     32.9238   8.5154521039e+01   6.4098493923e+01    0.1653844   0.09581076 -35.73 0.0008673233    1.531    0.347
       277  -9.1023     43.6462     33.3076   8.8812459578e+01   6.5074332994e+01    0.1725365    0.1560369 -73.05  0.001105748    1.718    0.418
       278  -9.4145    205.9879     26.6126   4.4985365878e+01   3.0181502644e+01    0.4150825    0.2152087 -17.45  0.001503938    2.594    0.615
       279 -10.0626    201.0396     29.2003   4.6290697508e+01   3.1103531921e+01    0.3395326    0.2265799  74.34 0.0004166257    1.449    0.310
       280  -9.3143     57.8926     31.2185   8.1882742372e+01   6.3506532932e+01    0.2160309    0.1784373 -47.40  0.001017498    1.530    0.347
       281  -8.2385     37.2824     32.6242   9.1384393359e+01   6.5928557252e+01    0.1112216   0.09738155 -67.63 0.0007012871    1.711    0.416
       282  -9.3880     11.2271     32.1163   1.0352364549e+02   6.8271277247e+01    0.2719469    0.1470099  26.03  0.001608875    2.203    0.546
       283  -8.2854    229.7784     28.9662   4.2943153978e+01   2.4126379056e+01    0.1657305    0.1040156 -33.49 0.0003763807    1.567    0.362
       284  -8.5624     69.9862     29.0096   7.6189459345e+01   6.1924225873e+01    0.1870677     0.162378 -57.89 0.0006977195    1.669    0.401
       285  -9.6835     47.3534     27.8597   8.4898674472e+01   6.5521387427e+01    0.2860626     0.192324  -1.25  0.000864649    1.527    0.345
       286  -9.8837     16.3133     27.4115   9.9350952597e+01   6.8797571127e+01    0.3266603    0.1713046 -39.82  0.001191457    1.463    0.316
       287  -9.1047    215.8185     27.6307   4.4110828914e+01   2.7632858310e+01    0.3009303    0.2063824  43.85  0.001026451    1.754    0.430
       288  -9.5624    222.0234     26.5077   4.3149705824e+01   2.6270386338e+01    0.2467296    0.1861937 -39.97 0.0003284056    1.287    0.223
       289  -8.3211    154.6589     27.3104   5.2782347674e+01   4.3250017176e+01    0.1496689    0.1078483 -70.29 0.0004499682    1.694    0.410
       290  -9.2651    105.9706    248.2674   1.1368749156e+02   9.9649521586e+00    0.3574388    0.2429088   2.69   0.00171942    3.719    0.731
       291  -8.7212     31.2863     26.6433   9.1734845622e+01   6.7606528641e+01    0.1719084    0.1493384 -27.43 0.0005610521    1.230    0.187
       292  -9.8511     29.7998     22.9782   9.0896751010e+01   6.8378853368e+01    0.2892575    0.1614339 -27.95  0.001005285    1.564    0.361
       293  -8.9772     69.0259     25.4398   7.4990088754e+01   6.2608434355e+01    0.1962421    0.1199814  37.98  0.001030231    1.606    0.377
       294 -10.0002     91.0342    214.7686   1.1307630868e+02   1.8240817165e+01    0.5013816    0.3046903  17.32  0.002252792    3.163    0.684
       295  -9.0316    226.8943     22.7376   4.1722855925e+01   2.5567525020e+01    0.2490025    0.1618354 -80.94  0.001028385    1.561    0.360
       296  -9.2734    222.4082     20.2100   4.1551025757e+01   2.6932980995e+01    0.2534066    0.1956145  59.12 0.0008006865    1.378    0.275
       297  -8.2114     98.5359     23.5841   6.4367638544e+01   5.7146506258e+01    0.1374997    0.1211406  22.86 0.0001294669    1.016    0.016
       298  -8.6136     62.9446     23.4251   7.6432004176e+01   6.3908000593e+01     0.152934    0.1162239  65.57 0.0003743001    2.351    0.575
       299  -9.1140     54.3346     23.3200   7.9888667541e+01   6.5254873190e+01    0.2592176    0.1691072  12.33  0.001442619    1.577    0.366
       300 -12.6022     76.4313    218.6862   1.1642019188e+02   1.9580554192e+01    0.9767373    0.5456057  47.28   0.00383364    1.507    0.336
       301 -10.1563      2.0484     22.1237   1.0471983747e+02   7.0667114898e+01     0.247704    0.1812207 -33.48  0.001122954    1.046    0.044
       302  -9.2161      7.9746     22.1803   1.0163657578e+02   7.0317198672e+01    0.1958972    0.1423692  -8.35 0.0005030643    1.332    0.249
       303  -9.5110    142.2923     20.9956   5.2957871551e+01   4.7124063645e+01    0.3263406    0.2292465   6.12  0.001170352    1.739    0.425
       304  -9.0868    132.1073     20.8070   5.4939935796e+01   4.9684235633e+01    0.4109146    0.2453788 -60.80  0.001737315    2.521    0.603
       305 -10.7048     69.1413    217.6963   1.1776415371e+02   2.0774426506e+01    0.3522234    0.2580699  79.88  0.001091517    1.220    0.180
       306  -9.3845     89.2684     20.9752   6.6058250933e+01   5.9403326100e+01     0.257057    0.2361702  12.05  0.000663143    1.111    0.100
       307  -8.2173    248.2968    213.3725   8.1768544882e+01  -7.5595184657e+00     0.130558   0.07853932   2.75 0.0007027771    1.739    0.425
       308  -9.0269    123.9917    205.9852   1.0507185969e+02   1.4700838400e+01    0.1888756    0.1631691  52.18            0    1.009    0.009
       309  -9.7248      1.4361    185.1793   1.2862878602e+02   3.4903384919e+01    0.3598185   0.08293653 -77.27   0.00150239    3.394    0.705
       310 -10.0116     38.2242     17.6884   8.4463355592e+01   6.8272908361e+01    0.3306838    0.1931493  19.34  0.001048726    1.748    0.428
       311  -9.6785     13.1239    174.1481   1.2555474426e+02   3.6288760487e+01    0.1683487     0.137562 -79.38  0.001210805    1.212    0.175
       312 -10.8833      5.7819    168.4217   1.2670212840e+02   3.8157630413e+01    0.3997069    0.1726651  48.54  0.002207384    2.157    0.536
       313 -11.2397     18.3533    158.6627   1.2316583693e+02   3.9301316293e+01     0.440273    0.2405967  71.10  0.002431172    1.780    0.438
       314 -10.9616      2.2489    153.3620   1.2639891406e+02   4.1772586986e+01    0.3661443    0.1885951 -84.21 0.0006456542    1.531    0.347
       315 -10.0456      5.2356    150.1811   1.2547302357e+02   4.2275686056e+01    0.2171399    0.1585161  79.77 0.0006366251    1.156    0.135
       316 -10.1345     11.6952    151.8332   1.2411124256e+02   4.1411260816e+01    0.2523091    0.1374176 -73.32  0.001382455    1.462    0.316
       317  -8.2114     21.3338    148.3298   1.2149116311e+02   4.1424994377e+01    0.1228672   0.08028885 -49.23 0.0007052057    1.724    0.420
       318  -8.0859     36.4662    147.5033   1.1765415976e+02   4.0203388492e+01    0.1285026    0.1062865 -81.23 0.0008094942    1.032    0.031
       319  -9.2819     24.5917    145.1889   1.2036523404e+02   4.1874302939e+01    0.1744067   0.09354731 -64.73 0.0003694368    1.565    0.361
       320 -11.2180      5.6482    140.7671   1.2459005100e+02   4.4395221138e+01    0.3577227    0.2795442  80.28  0.001973216    1.140    0.123
       321  -9.8192     43.8742    141.5972   1.1499860734e+02   4.0839053045e+01     0.310702    0.1929402   8.07  0.001513633    2.609    0.617
       322  -8.2309     35.6521    142.2729   1.1722588504e+02   4.1527616791e+01    0.1310042   0.08405165  68.04 0.0002056369    1.627    0.385
       323  -8.7237    144.4948     14.1156   5.0174540909e+01   4.7293932230e+01    0.1969893    0.1408156 -17.35  0.001020059    1.564    0.361
       324  -9.1919     21.8243    141.9581   1.2071181881e+02   4.2872486918e+01    0.1857633    0.1623081  73.92 0.0003746675    1.171    0.146
       325 -10.4733     15.9805    141.5068   1.2212449310e+02   4.3457105425e+01    0.2998595    0.1467279  72.72  0.001463492    2.285    0.562
       326  -8.8223     67.2251     12.8489   6.9873320785e+01   6.4574644829e+01    0.2750572    0.1451948  34.20  0.001393205    1.778    0.437
       327  -9.0582     29.2648    137.6358   1.1831568069e+02   4.3239226600e+01    0.2148084    0.1120153  34.53  0.001119705    2.117    0.528
       328 -10.0874      8.6855    138.6393   1.2365516895e+02   4.4671680448e+01    0.2270644    0.1536702 -41.53 0.0006934626    1.827    0.453
       329  -8.4307    138.1726     17.9376   5.2683111949e+01   4.8489744453e+01    0.1942643     0.145836  86.37  0.000363513    1.540    0.350
       330  -9.2549     45.2198    135.4001   1.1377311862e+02   4.2185965444e+01    0.1689742    0.1149115  49.38 0.0002310684    1.563    0.360
       331  -8.5711     11.0086    133.7758   1.2260224250e+02   4.5634513414e+01    0.1310295    0.1001222  30.39 0.0003326494    1.618    0.382
       332  -8.7234     78.2400    131.9843   1.0406475812e+02   3.8791388233e+01    0.1919884    0.1126866 -60.56 0.0002681438    1.580    0.367
       333  -8.6049     15.4996    131.4885   1.2120405303e+02   4.5839247090e+01    0.1239986   0.09771752 -78.77 0.0004029653    1.016    0.015
       334 -10.9920    227.7664    134.6090   6.9175942537e+01   7.9741214004e+00    0.4410746    0.3253936  67.75  0.001439113    1.880    0.468
       335  -9.6018     41.1586    127.9409   1.1379465612e+02   4.4416693999e+01    0.4545629   0.09664664 -54.96  0.001526824    3.611    0.723
       336  -9.9314     37.6262    126.5770   1.1458188353e+02   4.5099993495e+01    0.2377808    0.1867574 -88.38 0.0005112116    1.182    0.154
       337  -9.5209     32.7838    128.0595   1.1613810194e+02   4.5205007132e+01    0.3184997    0.1448583 -60.52  0.001531634    1.800    0.444
       338 -10.4618     30.0271    124.5352   1.1641906450e+02   4.6300935114e+01    0.3993486    0.2804218 -27.25 0.0006340029    1.899    0.473
       339 -11.3576    231.2254    125.1291   6.6357234135e+01   8.8947333623e+00    0.4796689    0.3995182 -46.74  0.002141578    1.250    0.200
       340  -8.8703     53.2574    125.6078   1.0999650690e+02   4.3657552423e+01     0.303394    0.1576943 -39.00  0.001013373    2.471    0.595
       341  -9.7643     48.9962    124.9902   1.1111354071e+02   4.4294162423e+01     0.339775    0.1840598 -52.80  0.001652923    1.683    0.406
       342  -9.5532     11.9839    122.7896   1.2117494053e+02   4.8136978848e+01    0.3453079    0.1834248  24.60  0.001311438    2.326    0.570
       343  -9.1429      2.6794    122.9578   1.2368408205e+02   4.8698509206e+01    0.2673666    0.1640681 -10.79   0.00154292    2.535    0.605
       344  -8.5648     93.7980    122.1902   9.7623822983e+01   3.8690859947e+01    0.2063229    0.1721003 -29.78 0.0007644571    1.345    0.257
       345  -9.2472     75.3061    121.5042   1.0283156128e+02   4.1768605889e+01    0.4179304    0.3339188 -51.66  0.001974808    1.181    0.153
       346  -9.8508     69.5746    117.9474   1.0379403411e+02   4.3444826079e+01    0.3456274    0.2378116 -78.74 0.0008696352    1.609    0.378
       347  -9.8949     98.3640    117.4350   9.5220188196e+01   3.9036603992e+01    0.2812816    0.2498856   2.91   0.00073705    1.307    0.235
       348  -8.5515     90.0188    121.5417   9.8565158094e+01   3.9477528689e+01     0.202465    0.1466783  37.95 5.659082e-05    1.467    0.318
       349 -10.3408     57.6291    117.1925   1.0720783348e+02   4.5182392065e+01    0.3052104    0.2557036 -85.11  0.001331812    1.188    0.158
       350  -9.5479     34.9816    113.4952   1.1333668505e+02   4.8504467112e+01    0.2365372    0.1855436  73.94 0.0008274977    1.376    0.273
       351  -9.6889     27.5753    108.8613   1.1482768611e+02   5.0262833657e+01    0.4617654    0.1875722 -73.25  0.001989946    2.311    0.567
       352  -8.4606     20.6679    118.6808   1.1826504641e+02   4.8474248548e+01    0.1304694     0.104677 -75.78 0.0003064862    1.015    0.015
