#   1 NUMBER                 Running object number                                     
#   2 MAG_AUTO               Kron-like elliptical aperture magnitude                    [mag]
#   3 X_IMAGE                Object position along x                                    [pixel]
#   4 Y_IMAGE                Object position along y                                    [pixel]
#   5 X_WORLD                Barycenter position along world x axis                     [deg]
#   6 Y_WORLD                Barycenter position along world y axis                     [deg]
#   7 A_WORLD                Profile RMS along major axis (world units)                 [deg]
#   8 B_WORLD                Profile RMS along minor axis (world units)                 [deg]
#   9 THETA_WORLD            Position angle (CCW/world-x)                               [deg]
#  10 FWHM_WORLD             FWHM assuming a gaussian core                              [deg]
#  11 ELONGATION             A_IMAGE/B_IMAGE                                           
#  12 ELLIPTICITY            1 - B_IMAGE/A_IMAGE                                       
         1 -13.2306    196.0042     17.1223   6.3214082758e+01   3.4304405397e+01    0.5877729      0.52951  50.67   0.00217618    1.311    0.237
         2 -12.2287     83.6075    245.9614   1.3621087521e+02   1.2931734126e+01    0.4048619    0.1852774 -68.27    0.0020254    2.346    0.574
         3 -14.1940    247.5902    127.6692   8.1581316916e+01   5.2865025210e+00     2.697368     0.560786 -40.57  0.007859768    4.158    0.759
         4 -13.0000    233.8152    212.6051   1.0146452914e+02  -6.8734820259e+00     1.457189    0.9353029  67.09   0.00603722    3.824    0.738
         5 -14.8413    232.0701    187.7260   9.6956673969e+01  -2.4955625705e+00     2.118183    0.6933028 -35.23  0.007454281    3.245    0.692
         6 -14.5832    242.4665    232.7759   1.0355937796e+02  -1.1193304695e+01     1.440404     1.262737 -73.33  0.009225704    2.006    0.502
         7 -15.3169    247.4314    194.7559   9.5579612404e+01  -6.2697821879e+00     5.041909    0.7134724 -40.34   0.01296873    6.666    0.850
         8 -13.4911    241.9128    201.9243   9.7957022143e+01  -6.5129636376e+00    0.9214404     0.634724 -49.52  0.004654468    1.788    0.441
         9 -12.6521    217.3991    236.2101   1.0876757627e+02  -7.8008286159e+00    0.7400169    0.6494995 -26.98  0.004929202    1.270    0.213
        10 -13.9569    202.2649    244.2382   1.1297191595e+02  -6.5334337030e+00     1.768532     1.056511  18.17  0.009036572    1.976    0.494
        11 -13.1905    162.9780    246.1107   1.2086879746e+02  -1.9853130994e-01    0.8295118    0.5870116  22.20  0.004380636    1.595    0.373
        12  -9.9564     99.0975    250.5014   1.3378093831e+02   9.6938595141e+00    0.1835368    0.1027267  46.28 0.0004589612    1.493    0.330
        13 -19.3968     12.8034    136.1457   1.3919478123e+02   4.5903847735e+01     18.56073     2.299214 -70.36   0.04321344    8.534    0.883
        14 -10.9276     66.6214    224.8130   1.3730895032e+02   1.9665377939e+01    0.1779568    0.1042108 -84.80 0.0009491069    1.699    0.411
        15 -11.9823    191.3102    210.7604   1.0936632591e+02   8.6174234854e-01    0.7045396    0.5281824  74.24  0.003496278    2.003    0.501
        16 -11.3041     83.3740    212.5247   1.3252180962e+02   1.9811556385e+01    0.2202222    0.1187665 -66.26 0.0008324892    1.838    0.456
        17 -12.6067     79.1828    210.8661   1.3319728288e+02   2.0813269426e+01    0.3195772    0.2571104  74.06  0.001611914    1.064    0.060
        18 -13.4979     94.2706    204.1986   1.2909982799e+02   1.9911758936e+01     1.284749    0.6726404  46.97  0.006030002    1.768    0.434
        19 -12.0055    106.1170    201.5322   1.2611261243e+02   1.8519486302e+01    0.6024765    0.3757751 -88.38  0.002740852    2.064    0.516
        20 -10.5770     88.8837    243.2732   1.3493916579e+02   1.2646554498e+01    0.1969381    0.1467833  86.22 0.0002290216    1.278    0.218
        21 -10.8130    159.3372    197.0946   1.1358799621e+02   9.5861712157e+00    0.3070546     0.209507  49.50  0.001485112    1.413    0.292
        22 -13.7473    239.7010    246.8656   1.0648477038e+02  -1.2684369213e+01    0.9298224    0.7476052  52.22   0.00556283    1.811    0.448
        23 -11.7461     79.6065    183.3406   1.2942533803e+02   2.7001837336e+01    0.4083365    0.2560368 -45.44  0.001970707    1.927    0.481
        24 -11.2016     83.1640    177.7533   1.2774971467e+02   2.7769560575e+01    0.3533785     0.229357 -45.66 0.0008066898    1.792    0.442
        25 -14.0355    172.9750    248.6462   1.1929468600e+02  -2.3166714712e+00     1.634785    0.6509331  36.52  0.007081097    2.292    0.564
        26 -11.1940     90.3313    167.5840   1.2435583046e+02   2.9047516779e+01    0.2638269    0.2391041 -78.71 0.0004684639    1.042    0.040
        27 -12.8318     79.0229    163.5092   1.2646464070e+02   3.1812882380e+01    0.4621943    0.3254606 -39.62  0.001815291    1.737    0.424
        28 -12.1903     71.6447    236.7173   1.3753934705e+02   1.6508244738e+01    0.2626832    0.1843851  82.62 0.0009192881    1.280    0.219
        29 -11.1827     95.0913    161.1261   1.2202479319e+02   2.9806126810e+01    0.3357341    0.2186736 -43.16 0.0008214448    1.727    0.421
        30 -13.9327    234.4906    156.8082   9.0083983344e+01   2.5515386733e+00    0.7879401    0.4508789 -45.35  0.003644154    1.688    0.408
        31 -12.5028     64.3970    233.0827   1.3855849810e+02   1.8272467013e+01    0.3136089    0.2118305 -51.62  0.001833291    1.978    0.494
        32 -13.3406     68.3225    144.0132   1.2583243881e+02   3.8086173405e+01    0.7405308    0.4695212  77.30  0.003366058    2.126    0.530
        33 -10.2782    179.6891    147.6807   9.8840099260e+01   1.5792125297e+01    0.1563614    0.1246148   0.68 0.0004138949    1.645    0.392
        34 -11.3864     82.8253    230.0276   1.3467958558e+02   1.6204233266e+01     0.225016    0.1628787  53.05  0.000461752    1.212    0.175
        35 -11.6388    214.3562    220.6319   1.0660910677e+02  -4.9002716463e+00    0.6458966    0.2983646  49.25  0.002760228    2.567    0.611
        36 -11.4476     95.6130    144.0519   1.1857841620e+02   3.3827747897e+01    0.2629988    0.2444336 -49.67 0.0004215642    1.115    0.103
        37 -10.9070    103.1587    129.4405   1.1337252277e+02   3.5971696986e+01    0.4301252    0.2803215  60.38  0.001517384    1.877    0.467
        38  -9.4237    110.2771    120.6969   1.0935015943e+02   3.6669160363e+01    0.1490895    0.1188454 -89.60 0.0002295072    1.544    0.352
        39 -11.2745    177.4824     37.5717   7.0932100369e+01   3.6351308923e+01    0.2534985     0.222593  77.15 0.0008696981    1.016    0.016
        40 -12.7397    187.0171     29.6649   6.7465006734e+01   3.5013654114e+01    0.6110749    0.4799752  78.43  0.003545694    1.130    0.115
