#   1 NUMBER                 Running object number                                     
#   2 MAG_AUTO               Kron-like elliptical aperture magnitude                    [mag]
#   3 X_IMAGE                Object position along x                                    [pixel]
#   4 Y_IMAGE                Object position along y                                    [pixel]
#   5 X_WORLD                Barycenter position along world x axis                     [deg]
#   6 Y_WORLD                Barycenter position along world y axis                     [deg]
#   7 A_WORLD                Profile RMS along major axis (world units)                 [deg]
#   8 B_WORLD                Profile RMS along minor axis (world units)                 [deg]
#   9 THETA_WORLD            Position angle (CCW/world-x)                               [deg]
#  10 FWHM_WORLD             FWHM assuming a gaussian core                              [deg]
#  11 ELONGATION             A_IMAGE/B_IMAGE                                           
#  12 ELLIPTICITY            1 - B_IMAGE/A_IMAGE                                       
         1 -11.7864     89.6164     27.9905   4.3762958604e+01   5.9434902916e+01    0.4427539    0.3054945 -24.15 0.0009415603    1.513    0.339
         2  -9.9351     79.9832     19.7600   4.3165151281e+01   6.2758897438e+01    0.5405861    0.3414983 -27.74  0.002266429    1.613    0.380
         3 -10.9988     72.2894     29.9251   5.1026990609e+01   6.2824037664e+01    0.6604071    0.3183382 -37.24  0.002828904    2.060    0.515
         4 -12.0196     78.7759     30.2033   4.8627244438e+01   6.1458907810e+01    0.5010682    0.3894026 -54.34 0.0003654493    1.572    0.364
         5 -10.6807     26.4467     21.9656   7.0465413729e+01   7.1338782152e+01    0.3030099    0.1882989 -36.00  0.001695063    1.427    0.299
         6 -12.0013     62.4187     16.6520   4.8501560363e+01   6.6813280521e+01    0.8314404    0.3317995  44.90  0.001565031    2.421    0.587
         7 -11.2440     70.1117     11.7812   4.2686299071e+01   6.5933216624e+01    0.3629509    0.2632183 -45.15 0.0008183814    1.653    0.395
         8 -11.8143      7.8035     15.7706   8.0155892009e+01   7.4152116327e+01    0.7908881    0.3799601 -18.55  0.003911031    2.462    0.594
         9 -11.9077    245.6215     10.7751   1.3758361964e+01   2.1964083871e+01    0.4360896    0.3597101  13.01  0.002769726    1.646    0.393
        10 -12.5954    238.5479     16.8104   1.5651312955e+01   2.2878934246e+01    0.5612398    0.3756621 -51.63  0.002494149    1.286    0.222
        11 -11.0636    174.7497     12.8200   2.0373909192e+01   3.9027366517e+01    0.5385914    0.3115226 -26.96  0.002499352    1.788    0.441
        12 -11.3495    133.0135     12.7016   2.6357160604e+01   5.0335529476e+01    0.2727018    0.2615165 -89.59  0.000315228    1.065    0.061
        13 -11.1940    124.9695     12.0448   2.7593304043e+01   5.2558713459e+01    0.4840412    0.3570074 -83.77  0.001079806    1.546    0.353
        14  -9.3221     89.9893     13.4952   3.6762703143e+01   6.1275837590e+01    0.3346809    0.1999532  44.77  0.001588574    1.544    0.352
        15 -10.1118     89.3005     10.4742   3.5473200095e+01   6.1784877380e+01    0.6343475    0.2536536  38.18  0.002313641    2.837    0.647
        16  -9.7457    200.2617     12.1730   1.7549045236e+01   3.2453073827e+01    0.2846918    0.1694129 -27.56 0.0009864916    1.691    0.409
        17 -10.4490    144.9356     12.7025   2.4362312632e+01   4.7105874336e+01    0.3888107    0.2134198  67.95  0.001124916    1.665    0.400
        18 -10.4748     91.0358      1.9240   3.0676849074e+01   6.2235484576e+01    0.5225263    0.2553433  80.34  0.001924518    3.237    0.691
        19 -11.5273     98.1369      9.6798   3.2615255963e+01   5.9727024113e+01    0.7093093    0.6302898 -63.56  0.003633743    1.315    0.239
        20 -10.0133    107.4986      7.3397   2.9237602621e+01   5.7602859147e+01    0.3156922    0.2332547  56.62 0.0007475066    1.220    0.180
        21  -9.0204    103.5164      7.4920   3.0236129359e+01   5.8603094282e+01    0.2166828    0.1882007 -40.25 0.0007325533    1.275    0.216
        22  -9.9390    107.2367      2.5130   2.7096110745e+01   5.8117094280e+01    0.5195336    0.2161135  35.06   0.00188778    2.944    0.660
        23 -10.8144    191.1655      8.2009   1.7260901318e+01   3.5172610007e+01     0.565151    0.2848846 -32.27  0.002360544    1.894    0.472
        24 -11.9147    184.3593      4.6282   1.6850908357e+01   3.7282223448e+01    0.5162091    0.2936129 -63.34  0.001146714    1.809    0.447
        25 -11.1454    195.8760      3.5377   1.5508172790e+01   3.4409351068e+01    0.4379413     0.219546  68.39 0.0006125969    1.860    0.462
        26  -9.2776    184.4128     12.2767   1.9136460250e+01   3.6525112559e+01    0.1985602    0.1197455 -39.37 0.0009306963    1.593    0.372
        27 -10.1696     55.3991      9.7076   4.7777874620e+01   6.9119202436e+01    0.3867463    0.2886253 -84.03  0.001268086    2.788    0.641
        28  -8.8993     32.5189     11.0215   6.0971078614e+01   7.2594538250e+01     0.190273    0.1128211 -41.44  0.001028707    1.600    0.375
        29 -11.6066    231.4115      4.5961   1.3191895001e+01   2.5722421774e+01    0.7190434    0.3402169  -5.49  0.002789126    3.902    0.744
        30 -11.0921    237.9116      3.6353   1.2562537017e+01   2.4357434676e+01    0.4568077    0.1809914  58.42  0.002052187    2.813    0.644
        31 -10.3804      7.8833      9.2200   7.7160139378e+01   7.5441004605e+01    0.1976319    0.1565803  -7.66 0.0005224603    1.227    0.185
        32 -10.0090      3.4710      8.7638   8.0358633137e+01   7.5811389351e+01    0.2998471   0.09695512 -44.33  0.001399827    2.324    0.570
        33 -11.4850    207.5312      3.0693   1.4453562758e+01   3.1531566008e+01    0.6097363    0.2856648 -68.70  0.002628976    2.312    0.567
        34 -10.5335    213.7365      7.6936   1.5206870270e+01   2.9568480274e+01    0.4052506    0.1918679  48.26  0.001591948    2.636    0.621
        35 -11.6782    217.9867      3.3627   1.3775326046e+01   2.8968157015e+01    0.4900614    0.4145221  64.60  0.001184362    1.299    0.230
        36  -9.7249     45.6236      6.0425   5.0417523581e+01   7.1362465361e+01    0.4960517    0.1706084 -25.99  0.001728168    3.922    0.745
        37  -9.9183    141.7451      1.9779   2.0876565052e+01   4.8971109256e+01    0.2756034    0.1949899  86.61 0.0006641103    1.386    0.278
        38  -9.9458    138.6063      6.8271   2.3162855598e+01   4.9393705711e+01    0.2773327    0.1918539  70.09 0.0005878614    1.318    0.242
        39 -10.4990    136.0516      2.6894   2.1974846866e+01   5.0454296435e+01    0.3571088    0.2876674 -63.93  0.001141834    1.317    0.241
        40 -11.3933     79.2164      4.2287   3.5342370408e+01   6.4805308552e+01    0.2923834    0.2308384 -10.49 0.0006353234    1.296    0.228
        41 -11.2930     75.9940      2.2313   3.5294830308e+01   6.5740670844e+01     0.496474    0.2440762  57.40  0.002258673    1.920    0.479
        42  -9.8715     24.7362      7.0680   6.3696445569e+01   7.4239397430e+01    0.1724155    0.1621195 -23.21 0.0003877927    1.294    0.227
        43  -9.6548     20.6484      5.8040   6.5793090362e+01   7.4920861099e+01    0.1995667    0.1536552   7.71 0.0009154929    1.252    0.201
        44  -9.3535    178.3137      9.2998   1.8878536151e+01   3.8429759380e+01    0.2581448    0.1915006  42.45 0.0007150961    1.521    0.342
        45  -9.6103    150.6422      4.9207   2.0731029963e+01   4.6295917342e+01      0.60199    0.3692583  66.20  0.002882613    1.459    0.315
        46 -12.1303    160.0964      1.8845   1.8512165325e+01   4.3998656778e+01    0.4041444    0.3353674 -82.67  0.002265363    1.136    0.120
        47 -10.3931    156.3950      3.4799   1.9493909678e+01   4.4861645749e+01    0.2278429    0.2125655  86.77 0.0001000393    1.037    0.035
        48  -9.4667     88.2951      6.0847   3.3552876131e+01   6.2493023947e+01    0.2321813    0.1674859  44.72 0.0006456693    1.248    0.199
        49  -9.1546     37.9611      4.7837   5.3878498912e+01   7.2785547421e+01    0.1878576     0.133849  -6.95 0.0002811739    1.374    0.272
        50  -9.8446     41.5785      1.8557   4.9918953626e+01   7.2612746133e+01    0.3389497    0.1814314  15.86 0.0009077573    2.635    0.621
        51 -10.2962     14.6323      3.8400   6.9073447248e+01   7.5878340390e+01    0.2795986     0.199082  38.25  0.001202108    1.805    0.446
        52 -10.2672    115.8408      2.2104   2.5217800584e+01   5.5902287966e+01    0.2653978    0.2129271 -45.53 0.0004518703    1.379    0.275
        53 -10.7773     30.5107      2.6628   5.7078406170e+01   7.4196210752e+01    0.2868425    0.2559521 -68.91  0.001736672    1.798    0.444
        54 -10.5811    249.8551      1.6743   1.1441813937e+01   2.1965268139e+01    0.1977933    0.1645511 -74.46 0.0002600044    1.133    0.117
        55  -8.6452     69.2742      2.3445   3.7693028878e+01   6.7213749068e+01    0.1402555   0.09099453  21.04 0.0006999469    1.622    0.383
        56  -9.9568      5.4753      1.9658   7.5327971439e+01   7.6979001220e+01    0.2484467    0.1529676  -1.43  0.001029599    1.680    0.405
        57  -9.2749     23.6942      1.3765   6.0830537517e+01   7.5293556852e+01    0.1484528    0.1030861  13.84 0.0002962548    1.408    0.290
        58  -9.1989     41.6336    129.8399   8.9993614989e+01   4.4546728925e+01    0.1891716    0.1534659  87.36  0.001121678    1.113    0.102
        59 -11.2736    200.1034    248.8213   6.9906829513e+01  -9.6657081724e-01    0.3989852    0.2316822  51.70  0.002242859    2.769    0.639
        60 -10.1527    241.2102    124.3895   4.0735189974e+01   8.4291969887e+00      0.21482    0.1773692  54.30  0.001308973    1.475    0.322
        61  -8.3919     77.6881    124.7224   7.8151076124e+01   4.1039189247e+01    0.1370483    0.1132078 -20.34 0.0001671334    1.562    0.360
        62 -10.2966      3.2796    123.3577   1.0094085855e+02   4.9340817355e+01    0.2744531    0.1447981  75.52  0.001033022    1.730    0.422
        63  -9.7346      7.2348    121.1256   9.9592686683e+01   4.9620470396e+01    0.2682183    0.1217117  42.38  0.001364913    2.112    0.527
        64  -9.1742     50.8606    121.1535   8.5910974683e+01   4.5614748209e+01    0.1755977    0.1521586 -48.50 0.0002401075    1.265    0.209
        65 -11.4283     21.3185    118.2385   9.4954547018e+01   4.9292317643e+01    0.5437543    0.4023224  84.45  0.001895743    1.207    0.171
        66 -10.6336     21.0029    109.6553   9.4109409873e+01   5.1412265227e+01    0.2443966    0.1898774 -75.03 0.0001753206    1.124    0.111
        67  -9.6288    221.4087    119.7236   4.2772407494e+01   1.2848270976e+01    0.2421333    0.1856113  45.22 0.0008904545    1.374    0.272
        68 -10.5854     28.7385    118.1976   9.2583238970e+01   4.8667788553e+01     0.434447    0.2281208  66.66  0.002036652    2.118    0.528
        69  -8.7957     93.8327    119.1656   7.2141538852e+01   3.9670480801e+01    0.1964519    0.1773711  -9.22 0.0006321057    1.315    0.240
        70  -8.6110     36.7530    115.9298   8.9698171415e+01   4.8459330003e+01    0.1646108    0.1015928 -70.00 0.0002772881    1.458    0.314
        71  -8.8814     80.5014    115.5009   7.5457875426e+01   4.2808630892e+01    0.1454225     0.137708  82.40  0.000810692    1.005    0.005
        72  -9.8983      8.7991    114.1262   9.8539133522e+01   5.1195290801e+01    0.2802413    0.1135223  76.15  0.001172508    2.781    0.640
        73 -11.8440     37.0347    110.2633   8.8798671881e+01   4.9828598179e+01    0.2508419    0.2117223 -85.73 0.0003437898    1.067    0.063
        74  -8.6724      4.9373    111.0000   9.9511360856e+01   5.2184087579e+01    0.1710929   0.07036859  17.78 0.0004087997    2.877    0.652
        75  -9.2556     89.9659    108.0323   7.0823611656e+01   4.2980056983e+01    0.2314757    0.1729766  72.31 0.0003790903    1.601    0.375
        76  -8.5846     82.6410    107.6788   7.3075679881e+01   4.4331191051e+01    0.1516916    0.1163318 -17.29  0.000704402    1.768    0.434
        77  -9.8437     50.1392    105.9827   8.3622014655e+01   4.9441990757e+01    0.3883854    0.2092772  40.80  0.001806681    1.879    0.468
        78 -10.9150     32.7340    105.1121   8.9512803302e+01   5.1520876283e+01    0.5160248    0.2304723 -42.68  0.002132771    2.763    0.638
        79  -9.9830    101.2417    103.6025   6.6237142133e+01   4.1911801861e+01    0.3312191    0.2404146  11.84  0.001451465    1.939    0.484
        80  -8.7776    161.5147    103.6019   5.0251813483e+01   2.8680137138e+01    0.1521228     0.146466  41.29 -4.978072e-05    1.023    0.023
        81 -10.0771     71.1571    102.5490   7.5717942542e+01   4.7413110439e+01    0.2986613    0.2569324 -36.41  0.001622433    1.271    0.213
        82 -10.6839     56.1377    100.8735   8.0555283602e+01   4.9951914404e+01    0.4408686    0.2604645 -35.53  0.001944939    2.182    0.542
        83 -10.4491     51.9054     98.5585   8.1592957129e+01   5.1059547218e+01    0.5369883    0.2578157 -36.51  0.002017488    3.064    0.674
        84  -8.9985     44.9235    101.9008   8.4711480712e+01   5.1058419288e+01     0.180187    0.1449349  81.17            0    1.260    0.207
        85  -9.2092     27.9818    102.3364   9.0773739061e+01   5.2636667315e+01     0.170003    0.1582313  71.55 0.0003445519    1.111    0.100
        86 -11.0970    245.3325     98.9485   3.4468585899e+01   1.1167397695e+01    0.3378511    0.2609152  79.19   0.00193453    1.778    0.438
        87  -9.6755    126.6596     97.8631   5.7327590889e+01   3.7848224685e+01    0.3836783    0.2413962 -73.28  0.001388667    2.732    0.634
        88  -9.9615    117.9276     97.7723   5.9743178460e+01   3.9785546675e+01     0.245488    0.2203428 -40.89 0.0005382601    1.145    0.126
        89  -9.5216      7.4865     97.6894   9.7440461607e+01   5.5250164141e+01    0.2368278    0.1225909  38.10 0.0008941173    2.027    0.507
        90  -9.6123    165.5444     95.7876   4.7257749286e+01   2.9184913977e+01    0.3892418    0.2511823  -2.99  0.001461104    2.620    0.618
        91  -9.1584    101.3107     97.6878   6.4675393922e+01   4.3247834120e+01    0.1552203    0.1204064  81.70 0.0002863659    1.629    0.386
        92 -10.0987     86.9415     96.0563   6.8852346164e+01   4.6337721625e+01    0.2313629    0.1825501 -17.28 0.0004655129    1.619    0.382
        93  -8.6803     42.3334     95.1840   8.4417459380e+01   5.3005737529e+01    0.1920529    0.1183305 -77.31 0.0004694032    1.635    0.388
        94  -9.5877     21.6127     91.2890   9.1496495652e+01   5.5878020165e+01    0.4572936    0.2004358  77.79  0.001604008    3.541    0.718
        95 -10.1960     17.9774     90.8677   9.2803450210e+01   5.6247397370e+01    0.2241659    0.1945636  63.57 0.0004052038    1.200    0.167
        96  -9.4812      2.2770     92.4434   9.8777494474e+01   5.6796352250e+01    0.3884017    0.1276903  69.36  0.001290773    4.758    0.790
        97  -9.2968     47.5667     91.7630   8.1800011893e+01   5.3256259482e+01    0.1918286    0.1261594 -79.25 0.0009351938    1.612    0.380
        98  -8.8326     89.7856     91.3754   6.6667763838e+01   4.6905693489e+01     0.205307    0.1435107  28.93  0.000723924    1.598    0.374
        99 -10.5892     64.4533     90.7056   7.5322894743e+01   5.1284430990e+01    0.3935271    0.2619819  19.81  0.001855167    1.831    0.454
       100 -10.7709     42.3362     89.9913   8.3410742555e+01   5.4285449864e+01    0.3075308    0.2940558 -74.35  0.001132998    1.057    0.054
       101  -8.8562     34.0257     90.7693   8.6715282372e+01   5.4943836606e+01    0.1614507    0.1118712  26.26 0.0007437694    1.605    0.377
       102  -9.3327     97.4889     88.4582   6.3334187217e+01   4.6089251067e+01    0.2784163    0.1459982 -60.26  0.001029831    2.372    0.578
       103  -9.5710     86.9298     88.4322   6.6815208137e+01   4.8110814535e+01    0.3573895    0.2242151  18.20  0.001436043    2.339    0.572
       104 -10.1317     25.9339     87.3777   8.9234283655e+01   5.6498007225e+01    0.2289693    0.1650406 -86.35 0.0006269083    1.343    0.255
       105 -11.0870     66.5471     85.1903   7.3170980109e+01   5.2294236513e+01    0.5070405    0.3741365  33.19  0.002590441    1.428    0.300
       106  -9.7732     66.2028     79.9163   7.1888953199e+01   5.3594203136e+01    0.3268926    0.2127625 -49.99   0.00114398    1.458    0.314
       107  -8.7767     21.3909     87.4889   9.1009400229e+01   5.6828108337e+01    0.1296977    0.1094595 -73.03 9.429653e-05    1.025    0.024
       108 -10.6011      2.9369     85.1030   9.7786080964e+01   5.8535496429e+01    0.3381135    0.2142376 -57.01 0.0008095781    1.413    0.292
       109  -9.8520    117.2667     83.0812   5.5677356650e+01   4.3057470320e+01    0.2701761    0.2228086 -73.44 0.0002459079    1.428    0.300
       110  -9.3733    155.0790     85.0681   4.6545524785e+01   3.3686765469e+01    0.2294894    0.1996807  19.76            0    1.266    0.210
       111 -10.4507     73.3832     80.3276   6.9320272441e+01   5.2351949630e+01     0.404929    0.2395116 -41.21  0.001170766    1.767    0.434
       112 -10.0097     77.3646     83.9276   6.8889711974e+01   5.0846592695e+01    0.3787855    0.2648951 -58.80  0.001204759    1.440    0.305
       113 -10.3604     81.6067     82.3644   6.6939142699e+01   5.0467487412e+01    0.3898428    0.2665418 -38.15  0.001168645    1.555    0.357
       114 -10.2753     51.4864     82.5015   7.8234151106e+01   5.5037022955e+01    0.3007769    0.2311929 -36.27  0.001615066    1.380    0.275
       115  -9.3191     91.8097     80.8002   6.2957215543e+01   4.8916522015e+01    0.2209845    0.2009551 -13.46 0.0004258965    1.195    0.163
       116 -10.0648     42.6401     80.0806   8.1179544675e+01   5.6674635075e+01    0.3731452    0.2467529 -32.45   0.00144179    1.749    0.428
       117  -9.4224    150.4297     80.0222   4.6115974636e+01   3.5759955168e+01    0.3108522    0.2136477  35.74 0.0009921959    1.610    0.379
       118  -8.9865     19.4760     80.5051   9.0657254277e+01   5.8677348641e+01    0.1294264    0.1107774 -67.82 0.0001328774    1.017    0.017
       119 -10.7415    166.9729     77.9838   4.1910776396e+01   3.2006499713e+01    0.2466212    0.2166794 -36.06  0.001259045    1.142    0.125
       120  -9.3213    169.7855     74.7309   4.0391185756e+01   3.1856180496e+01      0.26104    0.2081337 -36.37 0.0003819298    1.253    0.202
       121 -10.4372    166.1050     72.7166   4.0529695960e+01   3.3121848598e+01    0.2933706     0.276995  44.56 0.0002525058    1.066    0.062
       122  -9.5963    143.6155     84.6326   4.9116204859e+01   3.6562110813e+01    0.3597429    0.1825005 -47.17  0.001136391    2.109    0.526
       123  -9.2806    109.7384     77.4082   5.6150799474e+01   4.5915211231e+01    0.2226047       0.1448  35.96  0.000947748    1.648    0.393
       124  -9.7630    118.9737     76.1744   5.3031173030e+01   4.4080790016e+01    0.2300331    0.2096615  87.57 0.0003506852    1.203    0.169
       125 -10.3152     28.8519     74.6525   8.5694331520e+01   5.9359877370e+01    0.2761959      0.21127 -61.84 0.0008967587    1.142    0.125
       126 -11.0136     89.0195     73.3867   6.1608518758e+01   5.1090599246e+01    0.8008736    0.4585682 -23.18  0.002856004    2.982    0.665
       127 -10.5385     95.4617     71.8930   5.8929344760e+01   5.0120119197e+01    0.3954587    0.2768356  40.26 0.0009567266    1.442    0.307
       128  -9.7222     68.3918     74.6217   6.9544492148e+01   5.4482948586e+01     0.264449     0.212725   4.63 0.0005685728    1.486    0.327
       129  -9.8518     63.9975     75.0020   7.1356741510e+01   5.5079574233e+01    0.2976793    0.2069684  45.46  0.001321651    1.545    0.353
       130  -9.8041     59.4153     72.8934   7.2565312086e+01   5.6248652999e+01    0.2428472    0.2271839  40.23  0.000333569    1.135    0.119
       131  -9.8248     18.8280     72.7165   8.9586036480e+01   6.0615112815e+01    0.3491147    0.1523749 -63.03  0.001634153    1.855    0.461
       132  -9.8310    108.2929     73.1448   5.5222138292e+01   4.7114903518e+01    0.2646655    0.2141844  15.70 0.0008326453    1.466    0.318
       133  -9.7077    143.9186     70.8275   4.4800957569e+01   3.9055293917e+01    0.3873834    0.2253156  36.81  0.001216935    2.014    0.504
       134  -9.6916    147.6037     66.2718   4.2493023521e+01   3.8927108547e+01     0.256897     0.227606 -41.05 0.0004440697    1.147    0.128
       135 -11.2217     52.3115     69.0435   7.4375867281e+01   5.8129362804e+01    0.4279015    0.3861389 -59.25  0.002525116    1.067    0.063
       136  -8.8715     39.5172     71.5848   8.0467337704e+01   5.9062427412e+01     0.133101    0.1220861 -57.12 0.0001412841    1.017    0.016
       137  -8.8497     81.8751     70.1744   6.3111862336e+01   5.3151169243e+01    0.2000668    0.1728117 -11.18 0.0005508081    1.286    0.222
       138  -9.6855     64.1352     69.3550   6.9628619600e+01   5.6358444283e+01    0.2372862    0.2106674 -54.49  0.001331737    1.091    0.083
       139  -9.4891    102.3094     69.0544   5.5744354060e+01   4.9263802649e+01     0.276989    0.2183755  14.56 0.0009436959    1.540    0.351
       140 -10.3992     29.7015     68.0535   8.3892135831e+01   6.0873389143e+01      0.31706    0.2880774  25.37  0.001375348    1.235    0.191
       141  -9.8242     22.5987     68.6169   8.7155606033e+01   6.1327760543e+01    0.2427816    0.2287652 -30.01   0.00131057    1.147    0.128
       142 -10.0173     22.2266     62.6562   8.6050830311e+01   6.2779316816e+01    0.4324604    0.1181029 -52.76  0.001659149    2.786    0.641
       143 -11.2856      8.0708     51.6054   9.0510057730e+01   6.6275531552e+01    0.6380922    0.3595722 -44.76  0.003543966    1.575    0.365
       144 -10.9199      2.3425     66.0740   9.5684405789e+01   6.3127508478e+01    0.3934244    0.2371291 -83.21  0.001452383    1.494    0.331
       145 -11.3490      6.0690     61.6249   9.3324373946e+01   6.4018736720e+01    0.3974803    0.3766056  45.09 0.0008693731    1.242    0.195
       146  -8.7172    173.4921     68.5596   3.7855738163e+01   3.1937942786e+01    0.1509651    0.1466225 -79.64 5.843111e-05    1.028    0.027
       147  -9.7422     52.1374     77.2449   7.6669579665e+01   5.6216609682e+01    0.2487726    0.2280598  23.43 0.0006885939    1.179    0.152
       148 -10.7881     15.5282     64.7067   8.9546816819e+01   6.2760203860e+01    0.5204008    0.2366518 -23.72   0.00219942    3.151    0.683
       149  -9.1031    119.9744     67.5091   4.9907087753e+01   4.5545304857e+01    0.2399101    0.1513075  49.69 0.0008576433    1.554    0.357
       150 -11.1697     76.7297     64.2629   6.3063778932e+01   5.5375868060e+01    0.6052569    0.3316811 -37.63  0.001409651    1.946    0.486
       151 -10.1394     65.8467     61.7527   6.6498400152e+01   5.7787497668e+01    0.3751387    0.2436977  33.38  0.001109997    1.618    0.382
       152  -9.5420     71.1657     60.3639   6.3884962732e+01   5.7197103091e+01    0.3178287    0.2395445  54.16  0.001540063    1.530    0.346
       153  -9.4175     61.9391     58.4320   6.6987623576e+01   5.9136353488e+01    0.1959607    0.1783973  27.77 0.0007717536    1.145    0.127
       154 -12.0342     55.9637     56.8888   6.9021723866e+01   6.0378088311e+01    0.3600519    0.2975005  36.23 0.0003535313    1.289    0.224
       155 -11.0736    135.5774     64.4404   4.4748193720e+01   4.2292398814e+01    0.4394813    0.3452017  79.60  0.001970946    1.495    0.331
       156 -10.2976     97.1922     63.2399   5.5415133910e+01   5.1543499021e+01    0.4149576    0.2932758 -83.93 0.0007921743    2.340    0.573
       157  -8.5332     84.9538     65.0000   6.0269311432e+01   5.3678373215e+01    0.2487776   0.08442444  42.28 0.0002880137    2.986    0.665
       158 -10.9142     63.6166     54.0553   6.4733760857e+01   5.9807994333e+01    0.4757709    0.3239413  64.72  0.001466808    2.224    0.550
       159  -9.3191     26.8894     63.0782   8.3999614118e+01   6.2302931160e+01    0.1919737    0.1686739 -82.84 0.0006907237    1.179    0.152
       160  -8.6912    193.5176     62.5006   3.2675223732e+01   2.7844307840e+01    0.1454966    0.1404814 -54.23 0.0002897536    1.005    0.005
       161  -9.3368     82.4855     61.6444   6.0003281614e+01   5.4858547615e+01    0.2385273    0.1749555  16.44  0.001003943    1.677    0.404
       162  -9.2387     43.7280     61.7570   7.5987402862e+01   6.0898175353e+01    0.1708641    0.1538816  87.73 0.0006273245    1.256    0.204
       163  -8.7148    143.4661     58.5625   4.0910775520e+01   4.1297951411e+01    0.1558552    0.1476322  37.67 5.704728e-05    1.069    0.064
       164  -9.6434     85.7943     57.5070   5.7307280859e+01   5.5056525456e+01    0.2533778    0.2131529 -74.93 0.0002867482    1.469    0.319
       165  -9.5575     82.6394     55.2487   5.7626512831e+01   5.6135330111e+01    0.3984863    0.2496603  -8.06  0.001494917    2.893    0.654
       166 -10.9663     25.0730     55.4075   8.2953913833e+01   6.4255055187e+01    0.4223089    0.2229758 -69.87  0.001408999    1.879    0.468
       167 -11.0315     20.6086     53.2336   8.4594965010e+01   6.5112368035e+01    0.3383979    0.2860501   4.34 0.0009382298    1.323    0.244
       168  -9.4957    226.5020     57.0726   2.6753656893e+01   2.0784946663e+01    0.1957738    0.1784396 -56.89 0.0005825922    1.056    0.053
       169 -10.0681    135.6003     56.4507   4.2037676840e+01   4.3670479867e+01    0.4047157     0.253985  38.19  0.001147762    1.761    0.432
       170  -9.2334    116.9410     56.5103   4.6933613340e+01   4.8310022095e+01    0.2327411     0.150058  53.26 0.0003626727    1.528    0.346
       171  -8.7477    163.5749     55.5285   3.5736881125e+01   3.6549661199e+01    0.1501562    0.1474725  89.81 3.304898e-05    1.012    0.012
       172  -8.9099    130.2045     53.8340   4.2449344332e+01   4.5484016686e+01    0.2186477    0.1768188  29.67 0.0009253215    1.347    0.257
       173  -9.4741     43.0162     53.2927   7.3698613875e+01   6.2905117519e+01    0.2952456     0.183324 -64.41  0.001450729    1.724    0.420
       174  -9.7756     35.7734     53.1178   7.7102299420e+01   6.3768164132e+01    0.2662034    0.2107192  -7.16  0.001364569    1.392    0.281
       175  -9.8060     30.6719     52.1151   7.9294426994e+01   6.4511347853e+01    0.3697081    0.1816999  23.05  0.001744105    2.264    0.558
       176 -10.0806    122.9716     51.8374   4.3592081883e+01   4.7641193679e+01    0.3529565    0.2359916 -40.46  0.001167308    1.535    0.348
       177  -9.4234     95.5431     52.8529   5.2165709659e+01   5.3918478725e+01    0.3066632    0.1959279  61.74   0.00131125    1.926    0.481
       178 -10.2470     70.7010     52.2229   6.1118900091e+01   5.8982690873e+01    0.3661522    0.3182783 -38.64   0.00141946    1.112    0.101
       179  -8.6474    183.6833     52.2700   3.1258451316e+01   3.1811601290e+01     0.150998    0.1098814 -68.90 0.0005267286    1.557    0.358
       180  -9.0212    155.8414     51.8780   3.6060570413e+01   3.9138464140e+01    0.2113041    0.1768155 -73.35 0.0003652918    1.305    0.234
       181  -9.1510    111.0150     51.7821   4.6902388382e+01   5.0572104665e+01    0.2070503    0.1889243  40.71  0.001085328    1.068    0.063
       182  -9.6994    200.0382     50.1174   2.8244319483e+01   2.7980953660e+01    0.3041391    0.1981883  73.83  0.001441924    1.638    0.390
       183  -9.8437    175.2901     48.9059   3.1594766509e+01   3.4465344328e+01    0.5022324    0.3298999  17.65  0.002088214    2.263    0.558
       184  -8.9860    141.0690     49.8461   3.8482247231e+01   4.3331300877e+01    0.2117931    0.1726125  36.11 0.0004323826    1.293    0.227
       185 -10.3275     87.3996     48.8873   5.3446983684e+01   5.6401744626e+01    0.3580004    0.2945941  19.33  0.001073425    1.300    0.231
       186  -9.2025    136.9307     49.2660   3.9218336043e+01   4.4500456821e+01    0.2139109    0.1967133  58.40 0.0003900868    1.052    0.049
       187  -9.9511    128.3360     48.6216   4.1046522195e+01   4.6817578717e+01    0.3216187    0.2631724  86.12  0.001289392    1.409    0.290
       188  -8.6689    133.4866     48.4882   3.9747759122e+01   4.5515869763e+01    0.1541088    0.1475851  87.53 0.0008094611    1.069    0.065
       189 -10.6548     79.4889     45.4744   5.4999947912e+01   5.8652056124e+01    0.5185662    0.2408031 -38.22  0.001473992    2.167    0.539
       190 -10.1725     46.5253     47.0624   6.9877284049e+01   6.3822359638e+01    0.3488902    0.2340717  30.35  0.001175756    1.584    0.369
       191  -9.0671    235.0129     47.2249   2.3362097565e+01   2.0154292765e+01    0.1790836    0.1592006 -60.18 0.0003943823    1.071    0.067
       192  -9.5311     38.6352     47.2484   7.3793664519e+01   6.4759474043e+01    0.2117603    0.1769078  18.06 0.0005546303    1.282    0.220
       193  -9.5433     17.1180     46.4585   8.4626490070e+01   6.6921122688e+01    0.2339653    0.1530329 -57.91 0.0008186227    1.284    0.221
       194  -8.6152    166.3445     46.2394   3.2276554524e+01   3.7197441294e+01    0.1530064    0.1095162  38.35 0.0001401066    1.562    0.360
       195  -9.8827    150.1532     44.5855   3.4751902849e+01   4.1733917812e+01    0.4578131    0.1679065 -48.74  0.001372922    3.614    0.723
       196 -12.7213     61.6087     44.5450   6.1962628495e+01   6.2093177445e+01    0.4980624    0.2855535  36.34 0.0002093307    1.804    0.446
       197 -10.4711    245.3258     44.7046   2.1751605477e+01   1.8241659485e+01    0.2358117    0.1693195  57.90 0.0008576778    1.574    0.365
       198  -9.8782    115.1310     45.0068   4.3156111004e+01   5.0721709471e+01    0.2658227     0.211033  51.04 0.0004516541    1.214    0.176
       199 -10.6721    105.8269     43.3554   4.5188213743e+01   5.3248346790e+01    0.5437884    0.4165356  62.89  0.001873381    1.397    0.284
       200  -9.5715     10.7966     43.9132   8.7346314520e+01   6.7900054510e+01    0.3973793   0.09602894 -52.43  0.001575993    2.809    0.644
       201 -10.4295     13.9182     38.3493   8.4114044615e+01   6.8961420954e+01    0.4160807    0.1729178 -62.83  0.001955823    2.046    0.511
       202  -9.8900    201.0495     43.3853   2.6226341753e+01   2.8624196437e+01    0.3236216    0.2142001  81.84 0.0007940198    1.647    0.393
       203 -10.2044     92.0832     43.3203   4.9570172691e+01   5.6404706278e+01    0.3211212    0.2479581 -22.61  0.001313283    1.366    0.268
       204  -9.4250    122.6346     44.9581   4.1135196036e+01   4.8853811980e+01    0.2786244    0.2347322 -65.58  0.001324987    1.351    0.260
       205  -8.4860    157.3291     43.2796   3.2932419860e+01   4.0012598491e+01    0.1560793    0.1126327  33.64  0.000224831    1.600    0.375
       206  -8.7339     87.0174     43.0459   5.1223226232e+01   5.7548434583e+01    0.1703905    0.1619835   4.08 0.0003735353    1.008    0.008
       207  -9.8554     29.2882     41.9754   7.6796048408e+01   6.6909015466e+01    0.3824112    0.2110102 -13.25  0.001723041    2.587    0.613
       208 -10.2655     73.2072     41.0050   5.5604840120e+01   6.0705477935e+01     0.362614     0.254944 -36.02  0.001544771    1.395    0.283
       209  -9.5336     46.3780     42.1084   6.8079020665e+01   6.4885904493e+01    0.2896523    0.1590023 -12.09   0.00105842    3.582    0.721
       210 -10.5011     22.5087     41.5377   8.0304595513e+01   6.7617536912e+01    0.2427386    0.1901671 -41.61 0.0008272845    1.106    0.096
       211  -9.2348    144.7048     40.9126   3.4579737921e+01   4.3713369638e+01    0.2704604    0.1926612  46.78 0.0008179783    1.396    0.284
       212 -10.6899    228.5788     39.5612   2.2100668018e+01   2.2535469403e+01    0.2995424    0.2513145  85.98 0.0005934927    1.234    0.190
       213  -9.4896    124.9017     39.7425   3.8590990436e+01   4.9079424406e+01    0.3362415    0.1648857  54.45  0.001007248    1.904    0.475
       214 -11.3646      6.5582     36.0437   8.7704985505e+01   6.9898427338e+01    0.5718837    0.3461579  84.59  0.003015814    2.239    0.553
       215 -10.4743      9.2275     31.7460   8.4898259351e+01   7.0703395856e+01    0.2862923    0.2354485  29.66  0.001116331    1.451    0.311
       216 -12.0840    238.5978     37.7545   2.0700592382e+01   2.0517661653e+01    0.3027695    0.2496885 -51.53 0.0002752036    1.065    0.061
       217 -10.0604    242.5063     34.4981   1.9571978339e+01   2.0050696830e+01    0.2178504    0.1780097  -8.65    0.0012657    1.434    0.303
       218  -9.4229    203.6951     38.9949   2.4674043840e+01   2.8528322061e+01    0.1970886    0.1720532 -45.04 0.0007645971    1.085    0.078
       219  -9.2341      3.1954     42.6713   9.1183793502e+01   6.8557985303e+01    0.2077406    0.1433307 -20.65  0.001284866    1.548    0.354
       220 -10.3831    247.1067     36.4930   1.9654231813e+01   1.8838326535e+01    0.2245464    0.1696076 -12.17  0.000914352    1.523    0.343
       221  -9.5737    153.8869     37.1567   3.1500914369e+01   4.1781355346e+01     0.225298    0.1959392 -75.88 0.0003253282    1.194    0.162
       222 -10.2322     86.1489     36.8616   4.8912353871e+01   5.8802355227e+01    0.3528835    0.2363397 -13.53   0.00108569    1.848    0.459
       223 -10.9953    115.7054    248.5677   8.5317203744e+01   1.0863204607e+01    0.2322407    0.2183829  83.89  0.001882611    1.368    0.269
       224  -8.7766     23.2463     36.3298   7.8168946206e+01   6.8693751990e+01    0.1277025    0.1087312 -44.50 0.0001987478    1.041    0.039
       225  -8.8485    167.0359     36.0447   2.8880141016e+01   3.8404642172e+01    0.1763761    0.1642965  78.90 0.0004183831    1.028    0.027
       226 -10.5329    140.9264     32.2442   3.2237824165e+01   4.5914323360e+01    0.5523501     0.324229  -5.24  0.002164357    2.479    0.597
       227 -10.4605    146.3937     28.9287   2.9995438289e+01   4.4870628163e+01    0.3089408     0.233362  59.98 0.0003579927    1.243    0.196
       228 -10.8392    113.5694     34.5102   3.9433623935e+01   5.2734576876e+01    0.5599813    0.3219028  47.36  0.002420567    1.658    0.397
       229  -9.2311      3.3064    130.6728   1.0140916922e+02   4.7621179538e+01    0.1294617   0.07105698  63.26 0.0007036632    1.652    0.395
       230  -9.6927    172.4874    246.4876   7.4501818434e+01   3.1165346092e+00    0.1159881   0.08445685  29.06 0.0008104315    1.001    0.001
       231 -10.1014     78.3391     35.0678   5.1003667789e+01   6.0745380274e+01     0.266287    0.2272662  58.14 0.0007536602    1.328    0.247
       232  -9.2498    247.6490    245.6748   6.1652954610e+01  -6.7089795072e+00     0.112667   0.05858975  10.86 0.0007048293    1.757    0.431
       233 -10.4596     86.1131     22.0908   4.2177208721e+01   6.1073373688e+01    0.2791332    0.2285502  54.38 0.0005065424    1.241    0.194
       234  -9.7152     90.0639     20.7377   4.0238912900e+01   6.0351162016e+01    0.2212303    0.1907476 -41.12 0.0002924043    1.279    0.218
       235  -9.1373     56.6295     36.2144   6.0718899026e+01   6.4532670027e+01    0.1874099    0.1512287  -7.72 0.0002710137    1.279    0.218
       236 -10.6746     60.7577     34.4147   5.8027955947e+01   6.4178617658e+01    0.2567122    0.2158417 -33.99 0.0002648117    1.148    0.129
       237  -9.3342    130.4141     35.2909   3.5601272634e+01   4.8290504421e+01    0.2619523    0.1866338 -89.56  0.001169123    1.757    0.431
       238 -10.7618     98.1146     34.7574   4.4007339791e+01   5.6449442782e+01    0.3491581    0.2739938  18.59  0.000407086    1.403    0.287
       239  -9.4279     43.7339     32.0827   6.5250183212e+01   6.7263114338e+01    0.2244469    0.1858976 -67.99 0.0007690792    1.560    0.359
       240  -8.7662     47.4980     34.5067   6.4389041230e+01   6.6260574057e+01    0.2296585    0.1305212  32.92  0.001118151    1.839    0.456
       241  -9.1497     51.8119     33.3057   6.1724191197e+01   6.5847400897e+01    0.2439842    0.1763355  50.06   0.00129266    1.703    0.413
       242 -10.0796     31.0812     33.8531   7.2836317825e+01   6.8457101486e+01    0.2282092    0.1700641  13.64  0.000658065    1.430    0.301
       243  -9.4512    223.7782     33.5675   2.1049203099e+01   2.4358223203e+01    0.2465936    0.1207071  64.14  0.001127502    2.083    0.520
       244 -11.7575    107.2035     30.5469   3.9528407198e+01   5.4890332352e+01    0.6342133    0.4265556  27.79  0.002896082    1.716    0.417
       245 -10.2950    233.8429     30.6607   1.9389713763e+01   2.2398255280e+01    0.3144719    0.2446533  54.60  0.001175277    1.469    0.319
       246 -10.2361     65.1164     30.9066   5.4488251302e+01   6.4028104751e+01    0.4691438    0.2232002 -43.34  0.001527645    2.142    0.533
       247 -10.5562    248.7251     30.1962   1.8049323270e+01   1.9217815458e+01    0.2927293     0.210864  -4.65 0.0009527926    1.787    0.440
       248  -9.4702    178.4964     30.6493   2.5467811592e+01   3.6036309550e+01    0.2951925    0.1457374 -25.21  0.001199682    2.140    0.533
       249 -10.6107    119.6521     30.9642   3.6447342918e+01   5.1690552607e+01    0.2700242    0.2182129  53.09 0.0001661774    1.165    0.142
       250  -9.3729     24.3943     31.5042   7.5741547165e+01   6.9616164726e+01     0.236368    0.1220303  23.17  0.001192556    2.105    0.525
       251  -8.8115    125.5999     30.7047   3.4933694015e+01   5.0181832296e+01    0.1658258    0.1052446  33.51 0.0006997998    1.809    0.447
       252 -10.3943     18.7991     28.2911   7.7863038232e+01   7.0778202203e+01    0.3424293    0.2273714 -68.99 0.0007998284    1.704    0.413
       253 -10.2645    222.0990     26.6074   1.9419149504e+01   2.5557746188e+01    0.2654092    0.2071709 -33.90 0.0009870271    1.224    0.183
       254 -11.0378     37.1197     26.9551   6.6501326838e+01   6.9130128328e+01    0.3717834    0.2851311  18.17 0.0009638531    1.340    0.254
       255 -10.3656     47.8669     26.4286   6.0490869905e+01   6.7725001886e+01    0.4128591     0.331295  70.83  0.002258826    1.974    0.493
       256 -10.5874     50.3515     22.2917   5.7165148052e+01   6.8060492062e+01    0.2835765    0.2279918  -8.44 0.0005796129    1.195    0.163
       257  -8.9771    120.1346     25.8239   3.4255254283e+01   5.2247488334e+01    0.2071283    0.1639068  32.13 0.0005431194    1.316    0.240
       258  -8.7713    100.8019     26.3769   3.9550774224e+01   5.7039405741e+01    0.2121725    0.1247473  46.72 0.0009410435    1.599    0.374
       259 -10.6764      1.8024     25.1767   8.7587295615e+01   7.2500700390e+01    0.2705026    0.1492761 -65.57 0.0009213647    1.566    0.361
       260 -10.7343     62.2503     23.0964   5.1942812260e+01   6.5858903464e+01    0.3388171     0.246615  -6.05  0.001489581    1.510    0.338
       261  -9.4361    153.8444     23.3131   2.6730882343e+01   4.3531542126e+01    0.2554865    0.1899602 -43.56 0.0008254388    1.379    0.275
       262  -9.5934    109.3461     23.8764   3.6105704562e+01   5.5260561332e+01     0.227757    0.2060864 -10.16 0.0006159744    1.155    0.134
       263 -12.1035    105.0324     20.8611   3.5926452424e+01   5.6724560274e+01     0.424224    0.2670435  50.75 0.0003343935    1.459    0.315
       264  -9.4578    230.4154     22.8215   1.7740804873e+01   2.4055905474e+01     0.179279    0.1225805 -13.21 0.0007507249    1.735    0.424
       265  -9.4228    150.0221     23.0750   2.7274568006e+01   4.4595790941e+01    0.3047015    0.1898811 -34.99 0.0009957291    1.637    0.389
       266 -10.5945    152.1899     18.2667   2.5227115564e+01   4.4548419278e+01    0.2720733    0.2412817 -75.35  0.001493319    1.127    0.112
       267  -9.2425    144.1863     20.9243   2.7494092895e+01   4.6425360235e+01    0.2357516     0.190308 -76.36 0.0006318092    1.320    0.242
       268 -11.0756    133.6680     21.5535   2.9665229340e+01   4.9190379518e+01    0.5270551    0.3100052  66.66  0.001408516    1.618    0.382
       269 -10.1101    140.1689     19.9244   2.7832815206e+01   4.7626204469e+01    0.3047319    0.2114244  40.05   0.00105863    1.519    0.342
       270  -9.1574    158.2916    244.3378   7.6849750410e+01   5.4082164011e+00    0.1123137   0.07635681  12.31 0.0002867966    1.643    0.391
       271 -10.3767    217.3507     17.4769   1.7472558156e+01   2.7691264112e+01    0.2482327    0.2225643 -61.83  0.000379916    1.031    0.030
       272  -9.6679    188.6402     22.1566   2.1617900881e+01   3.4367033309e+01     0.237042    0.1607737 -48.20   0.00118204    1.420    0.296
       273  -9.7358    173.0274     22.0100   2.3496025226e+01   3.8504364630e+01    0.2284865    0.2107661 -84.62  0.001294784    1.011    0.011
       274  -8.9337    169.4944     21.9682   2.3957062724e+01   3.9455880030e+01    0.2250923    0.1374859 -32.44 0.0001245474    1.645    0.392
       275  -9.8307    116.6064     22.4342   3.3690571193e+01   5.3587879678e+01    0.3313121    0.1642181  49.45  0.001224878    1.863    0.463
       276 -11.0987    244.6717     20.8930   1.6178715751e+01   2.1107016334e+01    0.2445559    0.1581016  60.64 0.0005980899    1.738    0.424
       277  -9.2911    207.0132     20.9801   1.9346168714e+01   2.9829745148e+01    0.2374539    0.1360757 -57.00 0.0006120133    1.733    0.423
       278  -8.7010    177.3376     21.2890   2.2713255232e+01   3.7436137684e+01    0.1480539    0.1035046  40.49 0.0006198472    1.637    0.389
       279  -9.4222     36.3357     20.5154   6.3832421333e+01   7.0434367889e+01    0.2239374    0.1750921  20.28 0.0005949838    1.293    0.227
       280  -9.9639    193.3029     20.1148   2.0501501362e+01   3.3387307020e+01    0.2108164    0.1818686  65.95 0.0002790402    1.178    0.151
       281 -10.8425    182.1973     18.5446   2.1278814107e+01   3.6451245448e+01    0.2890929    0.2451731  44.33 0.0006436178    1.302    0.232
       282 -10.5717    166.1309     18.3560   2.3237128058e+01   4.0760482612e+01    0.3663027    0.2419802  45.13  0.001095108    1.622    0.384
       283  -9.0788    118.6860     19.3001   3.1903085805e+01   5.3423459086e+01    0.1476815    0.1110869 -68.41 0.0002641719    1.610    0.379
       284  -9.2620      1.5963    243.8249   1.0610600724e+02   2.4953314218e+01     0.132802   0.06693435  71.60 0.0006012576    1.568    0.362
       285  -8.5872     45.0004    244.0000   9.8337087735e+01   2.0546733238e+01     0.292776   0.04711719  33.37  0.001047755    4.902    0.796
       286  -8.6447    244.4849    242.4764   6.1687052211e+01  -6.0369001048e+00    0.1092547   0.07268533  13.03 -1.165734e-06    1.064    0.060
       287  -9.1439    145.5226    242.4730   7.9028815702e+01   7.4949577625e+00     0.118371   0.08796849  31.81 4.555349e-05    1.067    0.063
       288 -10.4758    248.1520    239.2078   6.0634894128e+01  -6.1784756955e+00    0.2381416    0.1442576  41.39  0.001588753    2.075    0.518
       289 -11.7475    232.6329     15.5037   1.5764471952e+01   2.4339794805e+01    0.3889389    0.2126205  89.10  0.001949235    1.946    0.486
       290  -9.7356    198.8168     18.8419   1.9562360285e+01   3.2117602964e+01    0.2950721    0.1853824  82.95  0.001214991    1.588    0.370
       291  -9.4783     15.1953     17.8895   7.5912107024e+01   7.3192974614e+01    0.2107966    0.1235109 -20.57 0.0002584454    1.802    0.445
       292  -9.9073    201.6816    240.5734   6.8524934999e+01  -2.7997609153e-01    0.2248828   0.08315697  33.21  0.001137093    2.109    0.526
       293 -10.5656    221.6327     21.1579   1.8058825208e+01   2.6275371625e+01    0.3046272    0.2248908 -79.19 0.0005430968    1.325    0.246
       294 -10.0022     45.4848     15.1279   5.5855517054e+01   7.0024602273e+01    0.3562809     0.199355  32.57  0.001796791    1.811    0.448
       295  -9.5640    210.0107     14.7244   1.7376797839e+01   2.9761959552e+01    0.2336438    0.1253173  26.63 0.0008968735    3.446    0.710
       296  -9.4756    195.0471     15.0732   1.8867676272e+01   3.3479627374e+01    0.2111936     0.183012 -70.95 0.0003482405    1.052    0.050
       297  -9.2173    117.1320     15.0913   3.0481244103e+01   5.4305568531e+01    0.2324678    0.1855017  35.77  0.001215109    1.254    0.202
       298 -10.6250    189.2338    240.5426   7.0719444737e+01   1.4589144204e+00    0.2839727   0.08643427  35.91  0.001291202    2.523    0.604
       299 -11.0155    221.9641    236.9798   6.4547966732e+01  -2.6369595692e+00     0.257258    0.1823863   5.82   0.00187751    1.193    0.162
       300  -8.6462    122.3380    238.6965   8.3071726363e+01   1.1375590070e+01    0.1204529   0.07246257  54.82 0.0005242848    1.670    0.401
       301 -10.1657    188.2219    235.4048   7.0207391829e+01   2.2125374117e+00    0.1649054   0.08697464  40.79 0.0008226904    1.636    0.389
       302  -8.8356    161.0018    235.0000   7.5198215884e+01   6.2408975411e+00    0.2033991   0.05262799  37.78 0.0008026809    2.944    0.660
       303  -9.0136    152.8442     13.6309   2.3498933123e+01   4.4860233859e+01     0.202228    0.1300644  84.94 0.0004705246    1.598    0.374
       304  -9.0012     66.2248    234.3982   9.3717247794e+01   1.9645220559e+01    0.1744446   0.07231943  44.77 0.0009496995    1.728    0.421
       305  -9.3529     31.9868    232.0334   1.0019946278e+02   2.3991082672e+01    0.1325029   0.09289403  54.73  0.000357878    1.025    0.024
       306  -9.1920    178.5135    231.5079   7.1454230263e+01   4.1090809481e+00    0.1200315   0.09049883  26.80 2.553269e-05    1.004    0.004
       307  -9.2067    224.0049    225.4769   6.2496101148e+01  -1.6857541007e+00    0.1691172    0.1284299  -6.60  0.001227429    1.256    0.204
       308  -9.1123    207.6795    226.5572   6.5471146163e+01   4.7285973255e-01    0.2227702   0.08815583  32.93   0.00111871    2.053    0.513
       309  -9.2576    235.4928    225.0501   6.0522684363e+01  -3.1851721181e+00    0.1471259   0.09618243 -19.37 0.0005779252    1.521    0.342
       310  -8.6968    125.5035    225.5321   8.1009908632e+01   1.2926981550e+01     0.123853   0.09572297  40.75 0.0002163898    1.012    0.011
       311  -8.6961    109.3445    221.7079   8.3887726085e+01   1.5941698554e+01    0.1276453   0.07603791  56.28 0.0007028127    1.660    0.397
       312  -8.9979     89.0244    221.0052   8.8028143752e+01   1.8959450405e+01    0.1706227    0.1396844   7.07 0.0009785095    1.697    0.411
       313  -9.1316    174.9856    217.9249   7.0211548708e+01   6.4447967328e+00    0.1839234    0.1276794   5.91 0.0005079409    1.620    0.383
       314  -9.0649    179.6241    216.2612   6.9080210582e+01   5.9533778907e+00    0.1501395    0.1089942 -18.63 0.0009364711    1.577    0.366
       315  -8.8958    212.3111    215.3416   6.2939661138e+01   1.1276907214e+00    0.1238615   0.07548375   8.93  0.000704566    1.697    0.411
       316  -8.4914    242.6182    214.7297   5.7735351168e+01  -3.0460817934e+00     0.119751   0.06667318  12.79 0.0006354458    1.697    0.411
       317  -8.7172    117.7087    211.7145   8.1002068100e+01   1.6379274939e+01    0.1157492   0.09185483  12.05 0.0002265556    1.537    0.349
       318  -8.9341     12.5230    203.5081   1.0281199039e+02   3.1174472348e+01    0.1132407   0.08161065  62.60 0.0008101222    1.018    0.018
       319  -8.8403     81.0361    198.7716   8.7579978690e+01   2.4176422929e+01    0.1646581   0.08824458  38.72 0.0004420797    1.566    0.361
       320  -8.7939    157.9998    197.5212   7.0535176029e+01   1.2236545043e+01     0.196937     0.109865  38.87 0.0007045515    1.500    0.333
       321  -9.3715      4.6828    196.6404   1.0417177533e+02   3.3207839071e+01   0.09895349   0.07814917 -54.79 0.0007043489    1.759    0.431
       322  -9.3375      2.2904    189.6732   1.0442915317e+02   3.4793997543e+01    0.1204846   0.05749205  60.61  0.000507768    1.617    0.382
       323  -8.8440    240.7369    181.5581   5.2322893580e+01   9.9876272664e-01    0.1572013    0.1082377  43.95 0.0009530351    1.720    0.419
       324  -9.8472     17.0000    171.9767   1.0031798936e+02   3.7231215730e+01    0.1879702   0.05859559 -79.70 0.0008029811    2.946    0.661
       325 -11.3483     39.4808    160.0134   9.3841468336e+01   3.7672784137e+01    0.5586082    0.2621481  60.81  0.002376213    2.137    0.532
       326 -12.2358     33.1301    156.7318   9.5209405831e+01   3.9086995885e+01     1.104656    0.3049674  53.91  0.003894813    3.897    0.743
       327  -9.3152     24.1146    163.1710   9.8024073167e+01   3.8513462003e+01    0.1654997    0.1508943  84.12 0.0003948824    1.191    0.160
       328  -9.8475      2.0780    156.4323   1.0313004527e+02   4.1839377658e+01    0.3084423    0.1328614 -84.50  0.001608594    1.990    0.497
       329  -9.6936     58.3152    150.9370   8.7824596872e+01   3.7541717325e+01    0.2063924    0.1571487  55.14 0.0002805642    1.194    0.163
       330  -9.1614     19.3646    151.2915   9.8402406256e+01   4.1628314317e+01    0.1159078    0.0880189 -43.49 0.0004379351    1.706    0.414
       331  -9.8711     10.0272    147.4963   1.0061364316e+02   4.3258462649e+01    0.2268497    0.1721921 -45.51  0.001012492    1.673    0.402
       332 -10.2000     13.4513    142.0322   9.9332945534e+01   4.4251594327e+01    0.3617799    0.2072369 -57.41  0.001001578    1.851    0.460
       333  -9.3692    236.9362    146.2676   4.6050577566e+01   6.1739201710e+00    0.1772853    0.1511243  14.34 0.0006162963    1.106    0.096
       334  -8.6908     36.4942    144.3876   9.3142624423e+01   4.1608060204e+01    0.1286841    0.1081806  70.84 -0.0001791258    1.039    0.037
       335  -8.8592     29.7736    143.4088   9.4927556507e+01   4.2509061955e+01    0.1578474    0.1236773  10.25 0.0007922319    1.662    0.398
       336  -9.3002    112.7641     13.7062   3.0865762759e+01   5.5591971160e+01    0.2372917    0.1587807  41.38 0.0008443105    1.457    0.314
       337 -10.9435     35.0703    137.0633   9.2784392260e+01   4.3492739956e+01    0.1962452    0.1708613  78.64            0    1.021    0.021
       338  -9.1075     15.6415    135.1456   9.8208465703e+01   4.5691084633e+01     0.177498   0.09469841 -69.05 0.0008024202    1.679    0.404
       339  -9.2349     24.4873    133.9778   9.5555422942e+01   4.5230862357e+01    0.1941095   0.08568768  75.16 0.0008104842    2.622    0.619
       340  -9.5208    249.1062    132.2533   4.1265400275e+01   5.9790133014e+00    0.2553724    0.1286385 -38.02  0.001264543    1.911    0.477
       341  -8.8445    225.4984    133.5093   4.5188151043e+01   1.0020554372e+01    0.1330242    0.1194261  -8.85 0.0008100117    1.055    0.052
       342  -8.5651     75.7116    133.7009   8.0345255519e+01   3.9193917380e+01    0.1345153    0.1103587 -27.73 0.0003377757    1.557    0.358
       343  -9.4857     61.4864    132.3480   8.4350635830e+01   4.1539625710e+01    0.2824428    0.1702718 -50.11 0.0009353131    1.796    0.443
       344  -9.4382      8.0796    132.9262   1.0019908056e+02   4.6774142742e+01    0.1965386    0.1256666 -50.37  0.001139619    1.793    0.442
