#   1 NUMBER                 Running object number                                     
#   2 MAG_AUTO               Kron-like elliptical aperture magnitude                    [mag]
#   3 X_IMAGE                Object position along x                                    [pixel]
#   4 Y_IMAGE                Object position along y                                    [pixel]
#   5 X_WORLD                Barycenter position along world x axis                     [deg]
#   6 Y_WORLD                Barycenter position along world y axis                     [deg]
#   7 A_WORLD                Profile RMS along major axis (world units)                 [deg]
#   8 B_WORLD                Profile RMS along minor axis (world units)                 [deg]
#   9 THETA_WORLD            Position angle (CCW/world-x)                               [deg]
#  10 FWHM_WORLD             FWHM assuming a gaussian core                              [deg]
#  11 ELONGATION             A_IMAGE/B_IMAGE                                           
#  12 ELLIPTICITY            1 - B_IMAGE/A_IMAGE                                       
         1 -14.4697    167.9916     37.9076   7.6043270986e+01   3.8464024453e+01     1.289947     1.028813   4.10  0.004406365    1.497    0.332
         2 -13.3094    182.0584      8.8494   6.5003440115e+01   3.7991704467e+01    0.8915855    0.4805807 -86.03  0.003475604    2.197    0.545
         3 -13.6577    185.4235      3.6161   6.3084405541e+01   3.7594517780e+01      1.02505    0.5423958  78.81   0.00468332    1.776    0.437
         4 -11.2312    196.9947    245.0252   1.1809197593e+02  -2.1631775637e+00    0.1886494    0.1432195  34.54 0.0007940261    1.078    0.073
         5 -19.7662     66.9131    181.0489   1.3598154486e+02   3.0131997207e+01     16.49112     5.297056 -68.88   0.06488128    3.268    0.694
         6 -10.2991     30.2684    205.3696   1.4569128847e+02   2.9551184685e+01    0.1523455    0.0999871  33.64 0.0006360471    1.783    0.439
         7  -9.7880    168.9926    202.5257   1.1692096042e+02   8.7709041600e+00    0.2016649    0.1157575  42.29 1.270842e-05    1.477    0.323
         8  -9.7815     20.5332    202.4983   1.4734106076e+02   3.1112410386e+01    0.1095574   0.08292749  76.34 8.258272e-05    1.046    0.044
         9 -12.8001    138.2738    198.4550   1.2267890998e+02   1.5125541366e+01    0.6573833     0.349364  59.24  0.002867866    2.287    0.563
        10  -9.9964      7.7395    196.6624   1.4939570402e+02   3.3455827481e+01    0.1313212   0.08066416  49.79 0.0009146713    1.447    0.309
        11 -11.5940    175.0923    193.7193   1.1416312801e+02   9.0931459610e+00    0.2881196    0.2020688 -64.31  0.001437038    2.101    0.524
        12 -11.1690    180.1985    192.3586   1.1287287376e+02   8.3473988311e+00    0.2425008    0.2241907  73.77 0.0006608679    1.324    0.245
        13 -11.6547    207.5855    196.0444   1.0811306969e+02   2.6378586997e+00    0.2590668    0.1756664  50.13  0.001201536    1.602    0.376
        14 -12.5026    167.3299    190.8849   1.1527668968e+02   1.1059341585e+01    0.4291554    0.2970342  28.98  0.001786005    1.441    0.306
        15 -11.5927    156.3168    191.0365   1.1763168278e+02   1.3132657332e+01    0.1902723     0.177565  52.84 0.0006650508    1.100    0.091
        16 -11.8396    175.9841    234.7767   1.2050010681e+02   2.6304441699e+00    0.2435208    0.1850857 -37.56  0.001155682    1.655    0.396
        17 -11.6460    176.5583    188.1036   1.1285240406e+02   9.7620213370e+00    0.2575815    0.2256188 -33.80 0.0009538362    1.286    0.223
        18 -11.3012    184.4826    186.7760   1.1097432281e+02   8.4518692374e+00    0.2732795    0.1800485  40.65 0.0008953296    1.336    0.251
        19 -11.6455    153.9101    185.1738   1.1713496875e+02   1.4662407521e+01    0.2251243    0.1827809  59.35  0.001240688    1.262    0.208
        20 -12.3722    205.2538    180.5603   1.0561585764e+02   5.4408716313e+00    0.5256263    0.3084482  42.66  0.001802501    1.561    0.359
        21 -12.2984    208.5192    178.4988   1.0457055057e+02   5.1363125973e+00     0.435972    0.3174856  26.57  0.002351235    1.274    0.215
        22 -12.6054    196.1455    171.6252   1.0564249944e+02   8.6883174217e+00    0.7479747    0.4223521 -48.11  0.002797801    2.167    0.538
        23 -13.5716    137.7915    170.8523   1.1817313169e+02   2.0546934375e+01    0.7743554    0.3775396  39.39  0.002703892    1.941    0.485
        24 -12.4108    140.6983    174.3266   1.1813803028e+02   1.9290730488e+01    0.2927679    0.2389988  64.42 0.0007407483    1.268    0.212
        25 -10.5812     22.4377    166.6583   1.4443256403e+02   3.8287527321e+01    0.2448949    0.1704618   9.10  0.001223213    2.314    0.568
        26 -12.6825    144.3039    168.2550   1.1619841144e+02   1.9797103920e+01    0.4804002    0.3072214  58.65  0.001808693    1.726    0.421
        27 -10.6288    223.8124    164.0283   9.8688699801e+01   4.4314784432e+00    0.1942911    0.1874596 -37.34 0.0005028656    1.281    0.219
        28 -10.8421     22.3636    232.8920   1.4868623096e+02   2.5285357523e+01    0.1179567   0.08010673 -78.15 0.0006286633    1.514    0.339
        29 -10.6374    237.5265    159.4751   9.5245239516e+01   2.4962994905e+00    0.1368735    0.1201193   4.03 0.0002049347    1.019    0.019
        30  -9.5348    227.9853    231.9338   1.1055447489e+02  -5.5282104933e+00    0.1418117    0.1126241   9.83 0.0006928929    1.124    0.110
        31 -12.1458    163.6807    156.0185   1.0933696495e+02   1.8251656299e+01    0.3572313    0.3025625 -50.89  0.001087596    1.297    0.229
        32 -13.5977    133.6782    145.5959   1.1420215417e+02   2.6630179721e+01     1.119486    0.3939637 -55.17  0.003493136    3.610    0.723
        33 -11.3891    129.0304    143.7438   1.1496389334e+02   2.7963448983e+01    0.3615637    0.2248784  54.50  0.001249167    1.682    0.405
        34  -9.7733     26.2615    229.7085   1.4786333763e+02   2.5437595632e+01    0.3485561    0.1357519 -66.45  0.001995243    2.670    0.625
        35 -11.0932    174.8097    148.9206   1.0532005737e+02   1.7235150147e+01    0.2726641    0.2191925 -65.97 0.0008997501    1.563    0.360
        36 -12.7866    144.8542    146.0630   1.1158478419e+02   2.4229721201e+01    0.4992974    0.3523831  57.04  0.002328474    1.486    0.327
        37 -13.4248      5.6450    139.4914   1.4604539044e+02   4.5571433876e+01    0.5137985    0.4491784 -79.60  0.003443641    1.188    0.158
        38 -13.4919      3.0399    126.8706   1.4560020170e+02   4.8527997394e+01     1.110818    0.3408285 -71.18  0.005217222    2.399    0.583
        39 -12.5533      3.3286    112.4297   1.4412382955e+02   5.1721477352e+01    0.3942004    0.2380585 -73.46  0.002490983    1.282    0.220
        40 -12.8323    106.0117    130.8092   1.1818963855e+02   3.5250510227e+01    0.4607808    0.3764468 -80.23     0.001225    1.332    0.250
        41 -11.0862    198.9115    222.6778   1.1435198072e+02   3.9654481314e-01     0.185464    0.1336091  35.45 0.0004705277    1.128    0.113
        42 -11.9042    109.1183    124.8694   1.1604475279e+02   3.6022442990e+01    0.3060186    0.2886638 -21.01  0.000624452    1.168    0.144
        43 -10.3845     20.6991    219.2834   1.4826664927e+02   2.7910670828e+01    0.1149536   0.08747397  67.72 0.0002580298    1.111    0.100
        44 -10.5619    167.4450    238.4767   1.2261694435e+02   3.5444418948e+00    0.1246236   0.09690668  40.00 2.376372e-05    1.028    0.028
        45 -12.7566    115.9705    137.9809   1.1707511592e+02   3.1780318666e+01    0.5148922    0.3274393 -41.63   0.00232748    1.741    0.426
        46 -12.6746    119.8655    129.0514   1.1410714286e+02   3.3014669260e+01    0.4181988    0.4000095  47.49  0.001327603    1.044    0.042
        47 -13.3207    124.9603    126.5834   1.1220034616e+02   3.2538789516e+01    0.7581185    0.4202047 -63.32  0.002890817    2.410    0.585
        48 -12.6924    135.6180    122.1548   1.0837602201e+02   3.1269998907e+01    0.7247219     0.243259 -49.18  0.002253694    3.211    0.689
        49  -9.9768     28.6421    238.2581   1.4791304771e+02   2.3678711140e+01    0.1186853   0.08131076 -83.03 0.0003410455    1.436    0.304
        50 -11.5946    114.0093    118.4499   1.1321418434e+02   3.6528940494e+01    0.2779465    0.2231228 -51.70 0.0003295233    1.246    0.198
        51 -11.0017    167.6307    112.8219   9.8215626526e+01   2.5894471400e+01    0.4234539    0.2958909 -88.54  0.001657168    2.371    0.578
        52 -11.2185    160.7936    127.6965   1.0356016254e+02   2.4526292462e+01    0.3235513    0.2218946 -52.50  0.001418596    1.618    0.382
        53 -12.9402    155.3875    197.2462   1.1886739212e+02   1.2201391809e+01    0.6284041    0.3529331 -73.63  0.002237043    4.417    0.774
        54 -11.7473    159.0048    204.5299   1.1929266518e+02   1.0275425800e+01      0.35114    0.1778686  50.57  0.001070292    1.900    0.474
        55 -10.5344    205.6525    110.1229   8.9600202407e+01   1.7326783267e+01     0.294035     0.217668  42.78 0.0007117612    1.353    0.261
        56 -13.0052    106.2594    138.0292   1.1962403818e+02   3.3568480204e+01    0.5272532    0.3629344  69.21  0.001150927    1.780    0.438
        57 -11.7800    163.4074    203.8227   1.1827559898e+02   9.5862321625e+00     0.290226    0.2400209 -44.98 0.0009294426    1.433    0.302
        58 -11.4909    161.1821    198.4684   1.1785751999e+02   1.0908011892e+01    0.2958987     0.200916  65.57  0.001286124    1.918    0.479
        59 -10.0388     13.5000     59.8816   1.3259558273e+02   6.2727966578e+01    0.1749092   0.09536315 -62.07  0.000433123    1.489    0.328
        60 -14.0761    156.0924     53.5758   8.3404623987e+01   3.9380825341e+01     1.193128    0.9221289  39.07  0.001182135    1.303    0.232
        61 -11.2060    132.0658    247.9939   1.3036466484e+02   7.9329907028e+00    0.3243245    0.1652913  33.06  0.001707437    1.988    0.497
        62 -12.4678    171.6075     30.7570   7.3171575703e+01   3.8400706570e+01    0.3954856    0.3417464  22.19 0.0009604092    1.293    0.227
        63 -10.4002    138.3207     31.5918   7.9787766678e+01   4.7017892031e+01    0.3381282    0.1785603  66.81 0.0009813691    2.046    0.511
        64  99.0000     13.6955    244.3224   1.5061312468e+02   2.4209905715e+01     0.324157    0.0702789 -68.29  0.001554648    4.358    0.771
