#   1 NUMBER                 Running object number                                     
#   2 MAG_AUTO               Kron-like elliptical aperture magnitude                    [mag]
#   3 X_IMAGE                Object position along x                                    [pixel]
#   4 Y_IMAGE                Object position along y                                    [pixel]
#   5 X_WORLD                Barycenter position along world x axis                     [deg]
#   6 Y_WORLD                Barycenter position along world y axis                     [deg]
#   7 A_WORLD                Profile RMS along major axis (world units)                 [deg]
#   8 B_WORLD                Profile RMS along minor axis (world units)                 [deg]
#   9 THETA_WORLD            Position angle (CCW/world-x)                               [deg]
#  10 FWHM_WORLD             FWHM assuming a gaussian core                              [deg]
#  11 ELONGATION             A_IMAGE/B_IMAGE                                           
#  12 ELLIPTICITY            1 - B_IMAGE/A_IMAGE                                       
         1 -13.4765    146.4261     52.4785   9.0406847154e+01   4.1840239896e+01     1.483313     1.126987 -21.54  0.004251391    1.282    0.220
         2 -13.4216    152.5655     24.3260   7.8885649210e+01   4.4165450815e+01     1.181568     1.064672  38.15  0.004371882    1.092    0.084
         3 -10.6174    145.8898     21.7302   7.9097900287e+01   4.6189868667e+01    0.2480939    0.2114409 -15.91 0.0006907209    1.148    0.129
         4 -11.9825    249.1223    247.1753   1.1379851039e+02  -3.1314571153e+00    0.5514193    0.3602317   2.11  0.004503493    1.203    0.169
         5 -10.9746    156.1936    247.9712   1.2893173424e+02   8.0218252138e+00    0.2515416    0.1774946 -14.31 0.0008968895    1.796    0.443
         6 -19.2995     98.0543    216.2980   1.3634244407e+02   1.9636892927e+01     5.318293     4.021404  38.22   0.02584139    1.089    0.082
         7 -10.3383      5.7953    221.6140   1.5381124492e+02   2.8102778541e+01    0.2201803    0.1888288 -84.66 0.0007415446    1.415    0.293
         8 -11.3770    173.8166    175.8391   1.1569022071e+02   1.5118686802e+01    0.3800651    0.3017763  30.13  0.001216989    1.137    0.121
         9 -12.7589    176.7130    169.6435   1.1400992624e+02   1.5582958827e+01     1.056372    0.5894238 -50.70  0.005068011    2.562    0.610
        10 -11.5987    230.3440    168.9813   1.0406806489e+02   7.1143025202e+00    0.3676963    0.2564913 -39.43  0.002070309    1.922    0.480
        11 -11.2880    187.5249    226.3016   1.2088600443e+02   6.4672031184e+00    0.2242296    0.1796405 -16.10 0.0006394038    1.390    0.280
        12  -9.8541    192.2366    154.5404   1.0805874249e+02   1.5240824498e+01    0.3357891    0.2337705   0.58  0.001264246    1.484    0.326
        13 -10.0374    198.2647    238.1516   1.2062630186e+02   3.7864349259e+00    0.1817083    0.1479413  -9.98 0.0007501749    1.381    0.276
        14 -11.8283    248.9086    222.1216   1.1019578539e+02  -9.7659359817e-01    0.4209935    0.1885277 -26.92  0.002361793    2.262    0.558
        15  -9.8979     20.8243    216.4244   1.5098143335e+02   2.7727570870e+01    0.1656127    0.1276814  67.52  0.000306142    1.097    0.088
        16  -9.6934      9.0932    214.8454   1.5303766858e+02   2.8959815321e+01    0.1508644     0.108471  71.61 0.0003340415    1.143    0.125
        17 -11.4324      6.0396    130.8155   1.5011227489e+02   4.5714599134e+01    0.5565585    0.2422647  62.69  0.002853365    2.204    0.546
        18 -10.7242     30.6048    210.3171   1.4891218508e+02   2.7901298727e+01    0.1973357    0.1562303  74.28 0.0002175663    1.146    0.127
        19 -10.3045    153.4604    126.3299   1.1012739372e+02   2.7027235082e+01    0.2319433    0.1758587  60.14 0.0008442638    1.687    0.407
        20 -10.3921     97.2054    126.1322   1.2429454188e+02   3.6977521283e+01    0.3533039    0.1800422  41.97   0.00127301    1.952    0.488
        21 -11.8657     11.1761    207.1639   1.5241213175e+02   3.0102191484e+01    0.4927678    0.3130895  29.19  0.003114109    1.638    0.390
        22  -9.4049     12.5807    195.1419   1.5171199415e+02   3.2124256104e+01    0.2236108    0.1285671 -56.55   0.00105815    2.229    0.551
        23 -11.9961    160.3481    129.2338   1.0923500404e+02   2.5186980751e+01    0.5399076    0.3916208 -20.15  0.001721656    1.457    0.314
        24 -11.1333    141.8470    122.2116   1.1190915079e+02   3.0017224258e+01    0.5767044    0.3062896  62.13  0.001902258    3.956    0.747
        25  -9.4574      5.6332    225.8401   1.5395073321e+02   2.7434355294e+01    0.1923959    0.1073663  55.92 0.0005448998    1.279    0.218
        26  -8.7468     17.8742    190.6752   1.5048223589e+02   3.2517320758e+01    0.1404909    0.1040999  58.98 0.0003719498    1.064    0.060
        27 -10.7282    197.1807    177.6446   1.1152832441e+02   1.1149976567e+01     0.335116    0.2634352  26.11  0.001119351    1.156    0.135
        28  -8.9960     35.0890    118.3197   1.4090564290e+02   4.6433164040e+01    0.1853015    0.1558792 -21.37  0.001168206    1.494    0.331
        29 -10.6548    244.8102    116.1257   9.0600559927e+01   1.1295441965e+01    0.2486713    0.2116838   9.37 0.0004650501    1.149    0.129
        30  -9.2981     41.9489    115.2840   1.3847563234e+02   4.6517638339e+01    0.2069225    0.1660172 -75.11 0.0003525882    1.109    0.098
        31 -12.8067    194.1943    168.5066   1.1040794132e+02   1.2889522032e+01    0.5939358    0.4216288 -38.85  0.001945503    1.644    0.392
        32 -12.0529    204.2762    176.5068   1.1002113020e+02   1.0191431473e+01    0.5373443    0.4747024  24.37  0.001135481    1.310    0.237
        33 -11.1548     57.1762    113.1393   1.3353427623e+02   4.5418961791e+01    0.4638185    0.2478341  32.43  0.002242624    1.964    0.491
        34 -11.7964     66.4345    105.5311   1.2930928387e+02   4.6102827069e+01    0.6128193    0.4804931 -29.20   0.00337126    1.479    0.324
        35 -12.4150    203.1773    167.1386   1.0847476232e+02   1.1620681213e+01    0.6742293    0.5542564 -30.24  0.002154099    1.408    0.290
        36 -10.2170    141.8360    103.4935   1.0727661247e+02   3.3662957127e+01    0.2805316    0.2116512 -37.71 0.0008133581    1.301    0.232
        37  -9.8040      2.8477    101.9180   1.4905938159e+02   5.2568325154e+01    0.1871166    0.1367256 -60.32 0.0007244764    1.310    0.236
        38  -9.8901    196.4260    105.9352   9.6137503591e+01   2.1907228065e+01     0.630124     0.414315  88.19  0.002133728    4.687    0.787
        39 -10.1712    142.1835     97.3283   1.0553040914e+02   3.4786278534e+01    0.3442445    0.2588376  38.54  0.000973989    1.340    0.254
        40  -9.6047    192.1149    181.8904   1.1322266663e+02   1.1365295749e+01    0.2452225    0.2035828  -4.85 0.0009198848    1.146    0.128
        41  -9.9432    122.9712     96.6807   1.1034693308e+02   3.8810498112e+01    0.2087673    0.1942408  32.10 0.0006018287    1.097    0.089
        42  -9.8993    113.3167     95.1889   1.1263336211e+02   4.0983925681e+01    0.2462094    0.2032387  20.63 0.0006533608    1.299    0.230
        43 -11.1217    136.7992     83.8299   1.0300887089e+02   3.8528594188e+01    0.4469146     0.349301 -13.65  0.001477387    1.373    0.272
        44 -12.8731    138.3315     66.4063   9.7102491407e+01   4.1416818784e+01       1.1865     1.089764 -37.99  0.001112104    1.127    0.113
        45 -11.1703    187.4165    175.1868   1.1292490750e+02   1.3036711362e+01    0.6938386    0.4027258 -55.62  0.003093793    3.467    0.712
        46 -12.4730    149.4354     42.8880   8.6336163221e+01   4.2544292955e+01    0.6972803    0.5603048 -12.57 0.0007940974    1.232    0.188
        47  -8.4617    196.9588     54.9134   8.1807286656e+01   2.9244889804e+01    0.1684412    0.1530836 -11.62  0.000301749    1.011    0.011
        48  -9.8561    137.0619     45.6441   9.0089228629e+01   4.5185462856e+01    0.2505628    0.2013569 -36.19  0.000335473    1.241    0.194
        49  -8.9522    250.6216     40.0181   7.1247199349e+01   1.9204318293e+01    0.1927208    0.1049432 -25.31 0.0003045587    1.524    0.344
        50  -9.3278     20.5957    180.9643   1.4946385097e+02   3.4132398368e+01    0.2138672    0.1359858 -63.85  0.001443665    1.728    0.421
