#   1 NUMBER                 Running object number                                     
#   2 MAG_AUTO               Kron-like elliptical aperture magnitude                    [mag]
#   3 X_IMAGE                Object position along x                                    [pixel]
#   4 Y_IMAGE                Object position along y                                    [pixel]
#   5 X_WORLD                Barycenter position along world x axis                     [deg]
#   6 Y_WORLD                Barycenter position along world y axis                     [deg]
#   7 A_WORLD                Profile RMS along major axis (world units)                 [deg]
#   8 B_WORLD                Profile RMS along minor axis (world units)                 [deg]
#   9 THETA_WORLD            Position angle (CCW/world-x)                               [deg]
#  10 FWHM_WORLD             FWHM assuming a gaussian core                              [deg]
#  11 ELONGATION             A_IMAGE/B_IMAGE                                           
#  12 ELLIPTICITY            1 - B_IMAGE/A_IMAGE                                       
         1 -13.5751     68.9361    144.5183   9.5495414733e+01   3.7577750007e+01     3.247025     1.667687 -87.97  0.003526407    4.758    0.790
         2 -13.4204    217.8481     31.7931   3.3848514838e+01   2.8264156312e+01    0.9225107    0.7702287  44.63   0.00402577    1.619    0.382
         3 -13.5836    205.5553     42.6971   3.7519177928e+01   2.9495510758e+01     1.541925     1.257969  27.77  0.008516291    1.784    0.439
         4 -12.7963    244.2921      6.6922   2.6884305950e+01   2.5871191664e+01    0.7440738    0.5508359 -71.07  0.005290267    1.017    0.016
         5  -9.9676      2.0000     11.4907   8.5563820525e+01   7.3170539575e+01    0.2336199     0.054187 -46.74 0.0009424803    3.997    0.750
         6  -9.7551     47.5984      2.2561   5.7207756329e+01   6.8346031360e+01    0.2147925     0.176752  63.14  0.000844199    1.752    0.429
         7 -10.0468     51.9318      4.1679   5.6467243915e+01   6.7417689676e+01    0.2473474    0.1620717  59.60  0.001040168    1.967    0.492
         8 -10.6875    119.5392    212.7658   9.3489544197e+01   1.3187553251e+01    0.3726929    0.2594123 -57.22  0.001897745    1.556    0.357
         9 -11.2051    102.0000    249.0433   1.0231813925e+02   8.3829738001e+00    0.4033649    0.3553989  89.29  0.002374413    1.279    0.218
        10 -10.7832    101.1462    242.7658   1.0177614357e+02   9.7216838046e+00    0.5868356    0.1619772 -54.37  0.001564032    3.787    0.736
        11 -14.9420      5.6665    140.9696   1.1423281058e+02   4.4868265041e+01     6.413598     2.006591 -80.06   0.02279403    3.325    0.699
        12  -9.3383     99.3213    180.8735   9.3394935358e+01   2.3778998014e+01    0.2652358    0.2164495  21.26  0.000700146    1.312    0.238
        13 -10.7145    240.7857    176.2263   6.1107575085e+01   8.2425301537e-01    0.4046172    0.1788501  26.08  0.001647842    3.406    0.706
        14  -9.4961     85.1805    174.3930   9.6105991921e+01   2.7582413268e+01    0.2844915    0.2520896  56.80 0.0008679957    1.142    0.124
        15  -9.4069     88.3072    172.6862   9.4960684367e+01   2.7533376799e+01    0.2545558    0.2051466  46.50 0.0005270611    1.254    0.202
        16  -9.1771    185.8290    173.3028   7.0883905908e+01   1.0243959555e+01    0.2639261    0.2318631  74.26  0.001379143    1.539    0.350
        17 -11.3340     63.4950    172.0500   1.0170818874e+02   3.1234549924e+01    0.5025489    0.3040724 -34.25  0.002184287    2.163    0.538
        18 -11.3145     68.4377    167.2133   9.9584389456e+01   3.1808368555e+01    0.3730596     0.300698 -13.46  0.001362557    1.536    0.349
        19 -12.4763    100.4023    170.4934   9.1261779957e+01   2.6154290711e+01     3.274928    0.8097261  48.18  0.005999518    9.972    0.900
        20 -11.6801     77.8543    158.5941   9.5434125089e+01   3.2680594324e+01    0.5886416     0.400759  62.03 0.0004082045    1.776    0.437
        21 -12.7504     65.2424    154.2382   9.8361426615e+01   3.5575898651e+01    0.5300368    0.4077636 -20.44 0.0009096402    1.585    0.369
        22  -9.7799     74.5844    207.8720   1.0369623922e+02   2.0974855736e+01    0.3168311    0.2264135 -88.40 0.0008342617    1.530    0.347
        23  -9.6526     45.6819    166.6149   1.0589193567e+02   3.4791167367e+01    0.2542198    0.2089556  78.93 0.0004121092    1.212    0.175
        24  -8.4915    101.8219    163.7589   8.9603401420e+01   2.7588428886e+01    0.2071968     0.176016  78.51 0.0005331631    1.345    0.257
        25 -10.5127     47.8380    171.3890   1.0593108564e+02   3.3327282507e+01     0.419316    0.2906147 -27.16  0.001750418    1.905    0.475
        26 -16.6849     14.2769    241.9676   1.1996654855e+02   2.0463334549e+01     6.910818     2.656168  20.52   0.02891744    4.186    0.761
        27  -8.3150     54.3027    161.6571   1.0274586127e+02   3.5057757399e+01    0.1503945    0.1037404  70.83 0.0003989738    1.680    0.405
        28 -11.4841     85.1893    152.3519   9.2130131630e+01   3.3161852134e+01    0.6460167    0.4626679 -15.36  0.001841534    1.871    0.465
        29 -10.5183    133.5981    143.9806   7.6758011266e+01   2.6570839526e+01     1.170446     0.299205 -53.86  0.002673455    5.699    0.825
        30  -8.6418    174.9677    149.4702   6.8084820178e+01   1.7176978123e+01     0.196903    0.1343572  69.45 0.0005500704    2.329    0.571
        31 -10.3288     54.7277    147.7999   1.0041846427e+02   3.8588656314e+01    0.4184642    0.1653776 -57.47  0.001600359    2.198    0.545
        32 -11.0716     23.1896    147.2264   1.0981395776e+02   4.1986006162e+01    0.4538286    0.2566194  67.68  0.001615062    2.174    0.540
        33  -8.5955     34.7644    144.9527   1.0603973393e+02   4.1517960128e+01    0.3084612     0.139439 -70.16  0.001279885    2.047    0.511
        34  -9.6602     31.8161    143.4403   1.0671740348e+02   4.2189880812e+01    0.3931164    0.2293601 -44.11  0.001884166    1.741    0.426
        35  -8.4410     89.6817    142.2710   8.8750235014e+01   3.4998553945e+01    0.1520839    0.1189664  69.22 0.0002086993    1.562    0.360
        36 -10.1226    100.1862    138.5050   8.4805570002e+01   3.4154538873e+01    0.5774998    0.3558474 -22.24  0.002175726    2.454    0.592
        37 -11.6448     87.1989    137.7761   8.8535904190e+01   3.6535844301e+01    0.3129112     0.270287 -37.83 0.0004041197    1.148    0.129
        38  -9.8369    105.7866    130.5854   8.1321043922e+01   3.5083568247e+01    0.3784667    0.3480537 -54.57  0.001323918    1.089    0.082
        39  -9.5789    109.9948    129.4880   7.9829660943e+01   3.4563114388e+01    0.3496473    0.2592129   3.56 0.0009802063    1.765    0.433
        40 -14.2690     36.7523    195.8461   1.1160357856e+02   2.8477503640e+01     2.493976     1.217903  74.65  0.008217518    2.596    0.615
        41  -9.9905    135.5629    129.2209   7.2722637917e+01   2.9575547685e+01     0.489986    0.1522179 -47.90  0.001452988    3.207    0.688
        42 -10.5020    240.1602    169.6764   5.9933255566e+01   2.0288674152e+00    0.2613289    0.1188056  36.91   0.00120695    2.563    0.610
        43  -9.8850     97.1299    125.0320   8.2574994302e+01   3.7996812717e+01    0.3318979    0.2622178  -5.31  0.001559538    1.520    0.342
        44  -8.8271    116.1610    123.8251   7.6661768065e+01   3.4715407566e+01    0.2207817    0.1853769  -9.46 0.0005842182    1.347    0.258
        45  -8.5515    163.2448    120.9759   6.3960840914e+01   2.5557760089e+01    0.1997155    0.1259098 -43.32 0.0002531185    1.524    0.344
        46 -13.7727     46.4844    186.8873   1.0820646154e+02   2.9588642304e+01     2.044359     1.227375  50.25   0.01017923    1.663    0.399
        47  -9.1506    106.9031    118.3063   7.7950963332e+01   3.7795068173e+01    0.2075934    0.1934721  17.17 0.0002797509    1.091    0.084
        48  -9.9511    231.2443    113.8763   4.9874221502e+01   1.3230062508e+01    0.2494913    0.2361983 -37.83 0.0008686161    1.122    0.109
        49  -8.1415     80.6763    115.3677   8.5408332577e+01   4.3139072602e+01    0.1562364    0.1206179  79.50 0.0007036502    1.800    0.444
        50  -8.8060    110.5059    167.0481   8.7866728180e+01   2.5299642267e+01    0.2314918    0.1509528 -57.66  0.001015355    1.566    0.361
        51  -8.3410    114.6431    109.6892   7.3418935684e+01   3.8244271783e+01    0.1627812     0.122493  -2.51 0.0002022403    1.735    0.423
        52  -9.9384     28.5698    107.8815   1.0188121806e+02   5.1498513007e+01    0.4075601    0.1592215  11.10  0.001491523    3.613    0.723
        53 -10.4571    247.8146    107.1715   4.6210538478e+01   1.1421144221e+01    0.1729594     0.141777 -23.57 0.0005040523    1.348    0.258
        54  -9.0033    205.4529    110.1277   5.3096600665e+01   1.8844178366e+01    0.2195662    0.1943677  39.84 0.0006144564    1.277    0.217
        55  -9.7155    240.4857    102.4861   4.6200555398e+01   1.3476746171e+01    0.1301297    0.1095041 -45.64 0.0008101068    1.035    0.034
        56  -9.4724    249.3115     99.9539   4.4563607123e+01   1.2330298298e+01    0.2217888   0.06859986 -52.40 0.0007043146    4.362    0.771
        57  -9.1985     32.7858    210.2259   1.1386053870e+02   2.5502556443e+01    0.1605102    0.1412376 -58.73 0.0003507943    1.299    0.230
        58  -9.6019     31.5220     95.9402   9.8308358108e+01   5.4130706177e+01    0.3823422    0.1805544  43.20  0.001606782    2.753    0.637
        59  -9.5337     52.9643     91.0074   8.8893381213e+01   5.2921299871e+01    0.2367133     0.153414 -25.78 0.0005400494    1.671    0.402
        60  -9.9469     17.9943     90.2951   1.0234347287e+02   5.6573328191e+01    0.1784406    0.1571395 -26.88 0.0004286586    1.124    0.110
        61  -9.0266    160.4505     83.5162   5.4851667792e+01   3.3446215884e+01    0.1436227     0.141379 -71.97 0.0001160005    1.026    0.026
        62  -8.7442     71.8273     83.0386   7.9600859813e+01   5.1936073954e+01    0.2048438    0.1967757  77.37 0.0005283309    1.282    0.220
        63  -8.6680     88.9821     64.4867   6.7668740105e+01   5.2475243264e+01    0.2100401    0.1354823  44.98 0.0007535128    1.544    0.352
        64  -8.9266     48.1291     62.4638   8.2258875743e+01   5.9603162873e+01    0.1944855    0.1622974 -28.51 0.0005026426    1.099    0.090
        65 -10.1964    111.0320    203.9932   9.4188480391e+01   1.6470128637e+01    0.2871107    0.2058486  24.23 0.0005496797    1.448    0.309
        66 -12.3872    195.6599     49.6699   4.0341527262e+01   3.0728563850e+01    0.6817634    0.5186291  53.85   0.00101907    1.438    0.305
        67  -9.3052    123.2064    200.1202   9.0572627229e+01   1.5378519844e+01    0.2599461    0.2039593 -82.52   0.00064689    1.618    0.382
        68  -8.7128     81.2153    183.2922   9.8601063050e+01   2.5953944917e+01    0.2620181    0.1831888   7.94   0.00102856    1.903    0.474
        69  -8.2729     42.6815     40.3455   7.6541856165e+01   6.4286941833e+01    0.1126494     0.105461  77.15 0.0006092376    1.725    0.420
        70 -10.0187      2.2642     24.5361   9.1046759870e+01   7.1078557249e+01    0.2988644   0.05874908 -47.33  0.001200082    3.498    0.714
        71 -10.5257     13.5127     60.0824   9.6982618337e+01   6.3600817675e+01    0.2594459    0.1989441 -48.71 0.0005950987    1.190    0.159
        72  -8.6784    189.4929     14.9893   3.2877982037e+01   3.6275487626e+01    0.1682707     0.115051 -37.30  0.000561843    1.552    0.356
        73 -10.7964    194.4991    197.9934   7.3972806889e+01   4.0042482995e+00    0.3860413    0.2437577 -59.08  0.001753555    2.375    0.579
        74 -10.3481    190.8715    190.9971   7.3376594176e+01   5.9090453992e+00    0.6315556    0.3376795 -63.67  0.001986401    4.960    0.798
        75 -15.1839     10.2085    209.1903   1.1882518829e+02   2.7937482154e+01     2.059771      1.23739 -81.14  0.005136041    1.454    0.312
