#   1 NUMBER                 Running object number                                     
#   2 MAG_AUTO               Kron-like elliptical aperture magnitude                    [mag]
#   3 X_IMAGE                Object position along x                                    [pixel]
#   4 Y_IMAGE                Object position along y                                    [pixel]
#   5 X_WORLD                Barycenter position along world x axis                     [deg]
#   6 Y_WORLD                Barycenter position along world y axis                     [deg]
#   7 A_WORLD                Profile RMS along major axis (world units)                 [deg]
#   8 B_WORLD                Profile RMS along minor axis (world units)                 [deg]
#   9 THETA_WORLD            Position angle (CCW/world-x)                               [deg]
#  10 FWHM_WORLD             FWHM assuming a gaussian core                              [deg]
#  11 ELONGATION             A_IMAGE/B_IMAGE                                           
#  12 ELLIPTICITY            1 - B_IMAGE/A_IMAGE                                       
         1 -12.2799    163.9664     48.2017   7.8855723858e+01   3.8399507037e+01     1.312709    0.2814794 -30.82  0.003456903    4.840    0.793
         2 -12.7545    177.1008     31.9543   7.1560460597e+01   3.7168702683e+01     1.073949    0.8273628  15.58  0.004925549    1.656    0.396
         3 -11.2975     83.6281     20.3174   8.8292063557e+01   6.1059987060e+01    0.5285824    0.4357556  10.99   0.00321094    1.112    0.100
         4 -12.3771    244.3438     11.0174   5.8612393635e+01   2.2883614947e+01    0.5752693    0.4575453 -82.58  0.002808134    1.121    0.108
         5 -12.2011    245.3281      2.7560   5.6688527807e+01   2.3550697191e+01     0.970587    0.4711485  69.09  0.004332098    1.983    0.496
         6 -11.1943     96.7668      8.0959   7.9032447945e+01   5.9675699043e+01    0.4978057    0.3411935  80.91  0.002534996    2.087    0.521
         7 -10.7630     86.5621      7.6859   8.1689769708e+01   6.1885758087e+01    0.4070751    0.3020378  48.94  0.002048549    1.282    0.220
         8  -9.8609    196.2706      1.4317   6.0383133233e+01   3.5515165964e+01    0.2744421    0.1083127  68.03  0.001151647    2.175    0.540
         9 -12.7706    110.1350    208.5207   1.2853832389e+02   1.7703366316e+01    0.7696244     0.501363  35.52   0.00422162    1.571    0.364
        10 -14.5270    244.9524    164.6997   9.3974814076e+01   4.6221049769e-01     3.504529     1.229117 -25.69   0.01180501    3.951    0.747
        11 -14.5261    221.8812    195.9741   1.0419063837e+02  -4.7106181261e-02     2.735045     1.483667  -7.70   0.01128107    3.152    0.683
        12 -13.0735    230.9186    177.1152   9.8927128076e+01   1.1254773499e+00    0.9076619    0.5170867 -29.91  0.004205926    1.751    0.429
        13 -13.9424    246.2815    244.9743   1.0829567263e+02  -9.8883751398e+00    0.9644697    0.7739293 -24.72  0.007270161    1.546    0.353
        14 -14.1350    230.3102    246.5679   1.1120836641e+02  -7.7905186583e+00    0.9672536    0.6479678  23.29  0.004097512    1.167    0.143
        15 -15.2563    247.5449    213.6571   1.0289756095e+02  -6.5507365698e+00      2.91184    0.7842964 -32.95    0.0116309    3.850    0.740
        16  -9.3568    184.0475    250.5016   1.1984217707e+02  -1.2157899919e+00    0.1837783    0.1643863 -24.85  0.001168287    1.398    0.285
        17 -11.7439    176.8695    248.7993   1.2090171913e+02   1.4059883038e-01    0.5577462      0.30761  42.86  0.003254321    1.437    0.304
        18 -12.0756    180.6318    242.0695   1.1930841159e+02   4.3757166131e-01    0.9962435    0.5764087  22.63  0.005361738    1.996    0.499
        19 -16.4824    100.2595    235.6424   1.3354103564e+02   1.4311425482e+01     5.270622     1.668628  46.83   0.02344719    2.455    0.593
        20  -9.1953     74.5128    205.9691   1.3557077169e+02   2.3638901712e+01    0.1640089    0.1122109 -71.83 0.0006483789    1.482    0.325
        21  -9.9108    196.0762    194.9145   1.0884893056e+02   4.7329085686e+00     0.341986    0.2482556  11.84  0.001755147    1.545    0.353
        22  -8.8626      7.7907    194.8348   1.4791284915e+02   3.3633064074e+01    0.2857097   0.05187337  40.95  0.001279159    3.546    0.718
        23  -9.2439     83.8061    193.9144   1.3229114418e+02   2.4757867618e+01    0.1832385    0.1724159  75.80  0.001218149    1.217    0.178
        24 -12.8065    128.0132    200.0311   1.2364313017e+02   1.6307429209e+01    0.5408626    0.3952466  68.47  0.002055112    1.452    0.311
        25 -10.4202      9.7601    188.5522   1.4717269531e+02   3.4737555283e+01    0.2475694     0.199197  19.34   0.00147355    1.873    0.466
        26 -10.6751      4.9229    186.8273   1.4801615888e+02   3.5519124360e+01    0.2797754    0.1875293  53.55  0.001260882    1.361    0.265
        27  -9.1952     99.5086    180.5167   1.2705000975e+02   2.5137893396e+01    0.1369065    0.1195007  69.57  0.000152091    1.001    0.001
        28 -10.5266     92.6552    174.3105   1.2772393655e+02   2.7594549146e+01    0.6771805    0.2792629 -42.92  0.002314441    4.199    0.762
        29 -12.3030    114.4080    170.1661   1.2199426028e+02   2.4823380772e+01    0.8075848    0.3833689  59.37  0.003024446    2.793    0.642
        30 -12.2853    114.9878    174.0049   1.2249590813e+02   2.3893935773e+01     1.462336    0.3261168  46.41  0.004223403    4.330    0.769
        31  -9.2897     84.7884    173.7910   1.2947886161e+02   2.8937538174e+01    0.1941045    0.1390654  70.16 0.0008160733    1.360    0.265
        32 -11.2418    125.6081    171.6176   1.1964155695e+02   2.2476339598e+01    0.3078447     0.208184  59.63  0.001502126    1.524    0.344
        33 -11.3444    123.2523    165.1815   1.1905121761e+02   2.4289319616e+01    0.6371465    0.3083288  36.00  0.002451682    2.225    0.551
        34  -9.5660     99.0547    163.0260   1.2446139471e+02   2.9057151689e+01    0.2086088    0.1904722  86.21 0.0004048196    1.041    0.040
        35  -8.8666     13.8105    160.4077   1.4438561261e+02   4.0394446165e+01     0.130185    0.1152447  12.87  0.000943263    1.632    0.387
        36 -11.2048     88.4295    157.8770   1.2622350662e+02   3.1957944241e+01    0.3322111    0.2621054 -33.70 0.0007875275    1.689    0.408
        37 -11.6155    103.1364    155.6378   1.2220454994e+02   3.0029887846e+01    0.5848378     0.297115 -48.83  0.002499788    2.105    0.525
        38 -11.4741    134.2037    145.0687   1.1248142149e+02   2.6539984130e+01    0.8439243    0.2191956 -51.61  0.002362771    4.239    0.764
        39 -10.1747     69.4397    144.2085   1.2886362236e+02   3.7968148896e+01     0.505994     0.256504  66.71  0.002003042    2.868    0.651
        40 -10.6847    101.7237    140.7307   1.1978785798e+02   3.3695727908e+01    0.2708304     0.261782 -76.78 0.0005444596    1.088    0.081
        41 -12.0121    101.4492    129.4570   1.1755517955e+02   3.6361178398e+01     1.199191    0.4505928  48.42  0.004162571    2.908    0.656
        42 -11.2687    106.4549    127.0394   1.1567857462e+02   3.6012614199e+01    0.4182901    0.2539208 -40.75  0.001298917    1.845    0.458
        43 -11.9180    249.6822    123.6271   8.4306061040e+01   5.8327695076e+00    0.6661161    0.2569602 -37.93  0.002412962    2.317    0.568
        44  -9.8052    112.5100    119.5029   1.1230990896e+02   3.6595337265e+01     0.150062    0.1441844 -81.89 0.0001141559    1.006    0.005
        45 -11.8124    249.3493    113.4184   8.2033977734e+01   7.4867889878e+00    0.5813371    0.2786539 -33.23  0.002554841    1.891    0.471
        46  -9.8900     87.4868     99.5046   1.1457526023e+02   4.5715144161e+01    0.2802674    0.2134822  49.35  0.001438244    1.411    0.291
        47 -11.8970    243.3494     59.8693   7.0182098047e+01   1.6893022880e+01    0.7681222    0.4995233 -87.04  0.003540164    1.858    0.462
        48 -12.0124    214.7849    235.7100   1.1222875924e+02  -4.1903348818e+00    0.5843436    0.4869169   8.72  0.002643509    1.140    0.123
        49 -13.6345    111.1275    196.5064   1.2674205279e+02   1.9891809681e+01      1.11975    0.8478973 -49.91  0.006450595    1.563    0.360
        50 -10.9521    208.4162    236.8795   1.1353770891e+02  -3.3360420829e+00    0.3934731    0.2562692   8.78  0.001830013    1.747    0.427
        51 -11.4401    180.9642     25.0207   6.8907924865e+01   3.6996449338e+01    0.5768337    0.3991592  43.83    0.0016873    1.567    0.362
        52 -11.7832    243.5164     21.4940   6.1078711845e+01   2.1874739392e+01    0.5069316    0.2864399  76.18  0.002618913    1.748    0.428
        53  99.0000     10.9884    235.7373   1.4935207953e+02   2.5543217904e+01    0.4450812    0.2899345  55.71  0.002463496    1.234    0.190
        54 -10.8327     77.6976     18.5794   8.9475670883e+01   6.2420988950e+01    0.6114933    0.2290989  40.01  0.002512621    2.622    0.619
        55 -10.0216      3.5184     20.7171   1.2395299407e+02   7.1393104552e+01    0.3344697    0.1899141 -16.17  0.002116373    1.798    0.444
        56 -10.0264     67.8738    235.9066   1.3954112053e+02   1.8871805104e+01    0.2042613    0.1366129  56.76 0.0008996692    1.142    0.124
        57 -11.7999    121.2392    195.5608   1.2443456357e+02   1.8356464947e+01    0.4150849    0.2398192  51.06  0.001464643    1.566    0.361
        58 -10.5968     24.6032    225.3262   1.4654304706e+02   2.6031265548e+01    0.1300877   0.09603786  80.13 0.0009809809    1.123    0.110
        59 -19.2647     38.7260    137.4933   1.3595787758e+02   4.3279487431e+01     19.32073     1.561631 -67.81   0.04132873    9.542    0.895
