#   1 NUMBER                 Running object number                                     
#   2 MAG_AUTO               Kron-like elliptical aperture magnitude                    [mag]
#   3 X_IMAGE                Object position along x                                    [pixel]
#   4 Y_IMAGE                Object position along y                                    [pixel]
#   5 X_WORLD                Barycenter position along world x axis                     [deg]
#   6 Y_WORLD                Barycenter position along world y axis                     [deg]
#   7 A_WORLD                Profile RMS along major axis (world units)                 [deg]
#   8 B_WORLD                Profile RMS along minor axis (world units)                 [deg]
#   9 THETA_WORLD            Position angle (CCW/world-x)                               [deg]
#  10 FWHM_WORLD             FWHM assuming a gaussian core                              [deg]
#  11 ELONGATION             A_IMAGE/B_IMAGE                                           
#  12 ELLIPTICITY            1 - B_IMAGE/A_IMAGE                                       
         1 -11.5878    249.1603     24.5097   3.4726201286e+02   2.4427142027e+01    0.5061934    0.2859819 -25.10  0.002845915    2.181    0.542
         2 -13.4981    223.0756     47.3758   3.5348740353e+02   2.6136828674e+01    0.7453758    0.6875678 -28.17  0.001736475    1.429    0.300
         3  -9.5712    227.1211      9.6303   3.4538644690e+02   2.9838581097e+01    0.1938946    0.1321226 -42.28 0.0007783563    1.270    0.213
         4  -9.2278      2.3898      1.8144   3.8212714053e+01   7.9510043924e+01    0.1639497    0.1000616 -34.36 0.0006639683    1.629    0.386
         5  -9.1739    108.4391    239.9390   5.0528669902e+01   9.9671214231e+00    0.1667304    0.1234541 -57.23  0.001034115    1.621    0.383
         6  -9.3445     74.6430    249.9245   5.9104867095e+01   1.1926680158e+01    0.2059445    0.0989171 -53.85  0.001064283    2.449    0.592
         7  -9.9242     58.9299    231.4202   6.1298573778e+01   1.7231753717e+01    0.4364884    0.1827416 -58.38  0.001777356    2.651    0.623
         8 -10.2006     52.6904    245.5914   6.3811323109e+01   1.5060472441e+01    0.4717261     0.120954 -65.58  0.001889542    4.078    0.755
         9 -10.8902     54.1239    236.8131   6.2862954875e+01   1.6647481118e+01    0.3806517    0.2252986 -68.24  0.001270205    1.950    0.487
        10 -11.7025     54.7457    229.9352   6.2200944755e+01   1.7991355159e+01    0.2744313    0.2218927 -61.46  0.000502633    1.442    0.306
        11 -12.9545     53.6216    217.6544   6.1505108358e+01   2.0744503186e+01     1.487448    0.6110028 -61.80  0.006583152    2.589    0.614
        12 -15.7167     16.2920    158.7190   6.7489813321e+01   3.9152269800e+01     11.20606     3.994742  83.65   0.02807475    3.556    0.719
        13 -10.2009     47.1773    229.1616   6.3995334585e+01   1.8955185756e+01    0.2191832    0.1719477  71.77  0.001010297    1.318    0.241
        14 -10.0270     43.6927    229.7456   6.4888247476e+01   1.9192768300e+01    0.2273963    0.1627722  33.06 0.0002899986    1.172    0.147
        15 -11.4965    119.4260    229.9681   4.6923688694e+01   1.0476657094e+01    0.3934902    0.2881222  55.53  0.002305655    1.743    0.426
        16  -8.9697     72.1117    224.6507   5.7490479081e+01   1.7154922810e+01    0.1796535    0.1454439  24.70 0.0004365091    1.117    0.104
        17  -9.7663    174.9488    222.7572   3.4424211360e+01   5.1708636142e+00    0.1651954    0.1348793   0.89 0.0006038278    1.041    0.040
        18 -11.8774     87.2630    222.9739   5.3619191884e+01   1.5711496639e+01     1.041677    0.3629628  38.42  0.004285231    2.418    0.586
        19  -9.6482    164.2995    222.6452   3.6469419864e+01   6.4073024024e+00    0.1074204     0.095049  58.86 0.0005429452    1.701    0.412
        20  -8.5499    131.6048    211.4967   4.1762337053e+01   1.2393648068e+01    0.1274503    0.1134293   3.35  8.52425e-05    1.024    0.023
        21  -9.6538     95.5390    209.1889   4.9998271135e+01   1.7543744711e+01    0.2651972    0.1902069  76.32  0.001376843    1.875    0.467
        22 -10.3382     72.9961    208.1918   5.5616853913e+01   2.0595181213e+01    0.3592051    0.2156134 -74.87  0.001169348    1.959    0.490
        23  -9.4716    210.7367    198.8159   2.4397243303e+01   4.8250678208e+00    0.1785357    0.1334034   0.77 0.0005462376    1.239    0.193
        24 -12.4737     18.2261    250.0447   7.1908273319e+01   1.7505520776e+01     1.380734    0.4973155  12.63  0.005266982    4.079    0.755
        25 -11.5950     67.2136    190.0138   5.5145291100e+01   2.5526993445e+01    0.5819491    0.3129335  80.72  0.001512264    2.805    0.643
        26  -9.0860     72.7970    190.2281   5.3623385911e+01   2.4762585111e+01    0.2095171    0.1709915  50.01 0.0004066896    1.169    0.145
        27  -8.7478    237.1715    188.2111   1.8647920933e+01   3.5013542844e+00     0.138422    0.1091148 -35.85 0.0004342351    1.317    0.241
        28  -9.7245     94.1802    183.1248   4.6838932113e+01   2.3524543390e+01    0.3122601    0.2008409  72.22  0.001307152    2.254    0.556
        29  -9.2980     70.9444    183.5055   5.3307719867e+01   2.6625078524e+01    0.2055925    0.1845256 -78.82  0.001158476    1.169    0.145
        30  -9.6553     64.9024    184.1030   5.5099350740e+01   2.7258068496e+01    0.2054585    0.1881197  47.66 0.0002768953    1.007    0.006
        31  -9.0111     83.0273    180.0486   4.9447133021e+01   2.5828073525e+01    0.2165712    0.1606201  64.46 0.0003784821    1.514    0.340
        32 -10.5734    105.0088    172.6604   4.2312735082e+01   2.4358815728e+01    0.4602482    0.2988726  86.30  0.001911959    2.511    0.602
        33 -10.8037     89.4985    171.0822   4.6301273365e+01   2.7068126898e+01    0.4219561    0.1865236 -52.88  0.001649439    2.272    0.560
        34 -10.2052    176.4845    169.0214   2.5328933831e+01   1.4151996011e+01    0.2024951    0.1166067 -43.22 0.0007214964    1.594    0.373
        35 -10.4422    180.5377    167.9802   2.4373465085e+01   1.3752594713e+01    0.2652589    0.1687513 -46.53 0.0007727306    1.514    0.340
        36 -10.4113    177.4989    164.1052   2.4226703758e+01   1.4899586417e+01      0.38561    0.2375329  27.49  0.002016013    1.824    0.452
        37  -9.3671    110.4683    167.0774   3.9920471426e+01   2.4804620821e+01    0.2315188    0.1974069  61.11 0.0007613332    1.294    0.227
        38 -11.8170     81.7297    144.6173   4.4110861207e+01   3.4905869740e+01     1.463208    0.9204709  -0.64  0.005530339    2.674    0.626
        39 -12.4360     54.3956    117.0119   4.8206187178e+01   4.6423053977e+01     1.796119     0.658403 -76.24  0.004382371    5.522    0.819
        40 -13.8162     72.3769    148.1375   4.7684027931e+01   3.5431146760e+01     2.434322     1.214347  72.36  0.002138263    4.530    0.779
        41 -13.3648     60.3847    144.8569   5.1056679761e+01   3.8029532699e+01    0.9224355    0.6780777  -6.68  0.001171967    1.782    0.439
        42 -11.1737     38.3595    162.0797   6.0625321635e+01   3.6109365133e+01    0.4451886    0.2018524  25.02  0.001773107    2.158    0.537
        43 -10.3696     71.3499    159.8979   4.9903384820e+01   3.2516070044e+01    0.3938826    0.2893939  60.73  0.001892197    1.447    0.309
        44 -14.8472     41.1381    173.3010   6.0931017828e+01   3.2837703727e+01     8.937784    0.1614674  38.15   0.02216421    5.472    0.817
        45 -14.2239     12.3026    245.3069   7.3067299185e+01   1.8956989374e+01     1.349345    0.9745688 -56.29  0.008756608    1.786    0.440
        46 -10.8114     41.1622    153.3774   5.8704722238e+01   3.8146441484e+01    0.2767011    0.2377963  63.72 0.0002540464    1.107    0.096
        47 -14.8831      5.7227    229.5860   7.4061380076e+01   2.2754927426e+01     1.376362    0.6683903 -77.80  0.007244194    2.199    0.545
        48 -15.9025      5.4117    215.2748   7.3645998593e+01   2.5923782046e+01     2.394028     1.593222  48.46   0.01420423    1.216    0.178
        49 -10.4820    133.6681    146.6891   3.0164591058e+01   2.5540015556e+01    0.7058657    0.2128607 -55.04  0.002044387    4.163    0.760
        50 -10.2338     47.0951    146.8480   5.5848771251e+01   3.9225165057e+01     0.247676    0.1934034  57.55   0.00123152    1.262    0.208
        51 -10.9491     37.3261    142.9682   5.8717267837e+01   4.1431239243e+01    0.5381693     0.293703  67.08  0.001670877    2.166    0.538
        52 -10.4537    108.8735    145.2796   3.6267927929e+01   3.0201386997e+01    0.2829191    0.2622209 -49.47 0.0006057068    1.077    0.072
        53 -14.5920     10.1452    206.2684   7.2074281943e+01   2.7607630037e+01    0.9669308    0.6374629  15.49  0.002902537    1.620    0.383
        54 -11.6295     47.3222    138.5453   5.4565905589e+01   4.1472095020e+01     0.367182    0.3035305 -80.19  0.001875744    1.191    0.160
        55  -9.5425    102.7016    238.8326   5.1698025075e+01   1.0828335759e+01    0.1925349    0.1491816 -50.41 0.0004591109    1.495    0.331
        56 -10.8092     73.5288    135.4780   4.5029667087e+01   3.8585967518e+01    0.3767163    0.2504921  86.92  0.001568577    1.958    0.489
        57  -9.7453    163.6465    237.3479   3.8630285362e+01   4.1528941472e+00    0.1980838    0.1296528 -36.45 0.0004237134    1.530    0.346
        58  -9.8760     96.5322    134.4750   3.7582122959e+01   3.4993202752e+01     0.273448     0.270492  57.01 0.0008491397    1.029    0.028
        59  -9.7521     99.3620    132.3243   3.6285282126e+01   3.5022102348e+01    0.3199954    0.2464542  13.39  0.001489933    1.601    0.375
        60 -11.7321     84.4606    131.6843   4.0722363678e+01   3.7785980154e+01    0.3019172    0.2853633 -68.57 0.0005316791    1.050    0.048
        61 -10.9303     44.0755    131.0792   5.4587615095e+01   4.3933913368e+01    0.3490587    0.3088199 -70.73  0.001584369    1.104    0.095
        62  -9.9922    105.7550    130.4197   3.4015330355e+01   3.4325828531e+01    0.3417098    0.2950443  52.03  0.001018682    1.175    0.149
        63  -9.2490    108.4847    126.0754   3.2267252877e+01   3.4858626700e+01    0.3005724    0.2357027  -0.11 0.0009581366    1.718    0.418
        64  -9.3338    135.6124    129.0366   2.5907670676e+01   2.9045015872e+01    0.4107812    0.1299911 -57.31 0.0009544262    6.244    0.840
        65  -9.2609     74.0047    129.6473   4.3729549880e+01   4.0045192003e+01     0.259549    0.2113191 -83.29 0.0004728704    1.305    0.234
        66  -9.6608     28.5983    130.2927   6.0268296213e+01   4.5878323200e+01    0.2779751    0.1510551  44.16 0.0006360927    1.807    0.447
        67 -10.4982     24.9148    128.1086   6.1395853991e+01   4.6847299428e+01    0.3489491    0.3045249 -86.94  0.001598196    1.082    0.076
        68 -10.8124     66.9568    127.0977   4.5635118228e+01   4.1833932881e+01     0.465482    0.3503768  68.26  0.002164157    1.482    0.325
        69  -8.3672    149.3960    126.2661   2.2158957233e+01   2.7032083432e+01    0.1437717    0.1123539   2.61 0.0006977984    1.722    0.419
        70  -8.4575    120.4962    126.4947   2.9099455289e+01   3.2483797776e+01    0.1495884    0.1453456 -60.74 0.0001578828    1.008    0.008
        71 -10.6207     95.0438    121.0504   3.5071278777e+01   3.8587394773e+01    0.3071305    0.2708913   0.87 0.0004739728    1.339    0.253
        72  -9.1211    115.2511    121.0068   2.9220320466e+01   3.4754357505e+01    0.2042953    0.1277279 -50.75 0.0008826351    1.563    0.360
        73  -9.2606     86.8542    120.8526   3.7604791786e+01   4.0127969115e+01    0.2414909    0.1811295  73.90 0.0006896677    1.605    0.377
        74  -9.0354     41.1831    121.4026   5.4106671560e+01   4.6966556089e+01    0.2147707     0.131326  40.01 0.0005811928    1.606    0.377
        75  -8.9152     76.4910    120.4939   4.0962083579e+01   4.2026835647e+01    0.1564468    0.1489037  78.53  9.17436e-05    1.030    0.029
        76 -10.7554     27.2141    118.2987   5.9166261672e+01   4.9370776860e+01    0.3492162    0.2526723  68.00            0    1.447    0.309
        77  -9.2937    105.5453    115.9897   3.0735496245e+01   3.7815606875e+01    0.2146945    0.2039273  50.51  0.000235238    1.070    0.065
        78 -10.7631    243.6674    114.2757   4.8445731261e+00   1.3456085650e+01    0.2032561    0.1410361 -49.76  0.000669151    1.276    0.216
        79 -11.6839     23.5169    104.3174   5.8586991929e+01   5.3617624620e+01    0.5583541    0.3567146  72.54  0.001800415    1.791    0.442
        80  -8.3338    212.3091    106.6523   7.1098506862e+00   1.9356407010e+01     0.128868   0.08371188 -61.04 0.0007044437    1.707    0.414
        81  -8.9750     33.2961    106.3125   5.4678778812e+01   5.2058272962e+01    0.1552653    0.1081902 -36.36 0.0003241313    1.598    0.374
        82 -12.5777     59.4319    159.5667   5.3571560172e+01   3.4236088057e+01    0.8504021    0.5348104 -67.02  0.003150502    1.603    0.376
        83 -12.2951    108.5697    229.1274   4.9280378811e+01   1.1935901235e+01     1.002193    0.3701457  27.70  0.004297286    2.334    0.571
        84  -9.9301     26.8631     97.7491   5.5947319579e+01   5.5094367044e+01    0.3372247    0.2201576  44.50  0.001070626    1.584    0.368
        85 -10.4083     54.6269     96.2621   4.3487510007e+01   5.1909710100e+01     0.269616    0.1887565 -51.04 0.0006115878    1.417    0.294
        86 -11.2167     63.9585    156.8078   5.1741317522e+01   3.4354920260e+01    0.3418268    0.2455688 -37.47  0.000836287    1.624    0.384
        87 -13.0579    128.5162    229.5961   4.4869648309e+01   9.4559363706e+00    0.8581679    0.5319856  27.95  0.004904659    1.402    0.286
        88  -9.4462     41.9555     88.6625   4.7087944667e+01   5.5731112960e+01    0.2082876    0.1886145  40.15 0.0005120366    1.118    0.106
        89  -8.5992    163.4797     88.5157   1.0365005110e+01   3.1545788006e+01    0.1403494    0.1256674 -57.57 7.338181e-05    1.019    0.019
        90 -10.3421    239.9821     83.4826   3.5934020478e+02   1.8408487205e+01    0.1459516    0.1136327  72.15 0.0007478692    1.618    0.382
        91  -9.1409     39.5616     82.5112   4.6639140236e+01   5.7644252646e+01    0.2781408    0.1166453  40.59 0.0007434858    2.406    0.584
        92 -12.3026    200.2535     62.4641   3.5893602142e+02   2.8326824595e+01    0.6106752    0.4970898  16.98  0.001200312    1.966    0.491
        93 -13.1283    211.1177     55.5739   3.5628705876e+02   2.7233295644e+01     0.871995    0.6836638 -47.50  0.003121648    1.109    0.098
        94  -9.3046     60.6082     54.9844   2.7951060427e+01   6.0553536573e+01    0.2681873    0.1960803  69.76  0.001137802    1.739    0.425
        95 -11.6192     98.5652    226.3822   5.1291407727e+01   1.3668268821e+01    0.5644481    0.4449029  23.56  0.003470924    1.102    0.093
        96 -11.0180     17.9388     45.6549   4.7526334427e+01   6.9182276618e+01    0.4432211    0.1864209  34.24  0.001315287    2.328    0.570
        97 -10.0781      2.6251     39.1602   5.6282273204e+01   7.1986641747e+01    0.2140852    0.1711291  25.29 0.0006484248    1.311    0.237
        98  -9.6051     72.7066    232.8971   5.8103315763e+01   1.5404963161e+01    0.2367193    0.1512662  35.00 0.0006207183    1.297    0.229
        99 -11.1373    249.6110     28.8188   3.4805565114e+02   2.3865808013e+01    0.3894582    0.1744252 -35.68  0.002006282    1.806    0.446
       100 -12.0254     43.5260    242.3888   6.5737005592e+01   1.6620706705e+01    0.3159621    0.2439858  60.93 0.0007969129    1.255    0.203
       101  -9.1113      2.2947     31.3374   5.3948395867e+01   7.3764735605e+01    0.1387459   0.08122101 -32.90  0.000410069    1.649    0.394
       102 -13.0659     18.7843    236.9158   7.1254512510e+01   2.0089052515e+01    0.6741034    0.3883828  75.53 0.0005985159    1.770    0.435
       103  -9.9368      2.4187     22.7265   5.0400994459e+01   7.5590556827e+01    0.2216869    0.1226946 -66.26  0.001047014    2.048    0.512
       104  -9.5242     60.6182     21.3266   1.2820111416e+01   6.6280787409e+01    0.2457641    0.1935216  60.66   0.00068635    1.203    0.169
       105  -8.7051    189.6287     14.7055   3.4861906684e+02   3.6603400869e+01    0.1093635   0.08870791  48.70 0.0007026903    1.730    0.422
       106  -8.8362     67.4261    241.5260   6.0084338165e+01   1.4290302960e+01    0.1239623    0.1040087  31.26  0.000132025    1.030    0.029
