#   1 NUMBER                 Running object number                                     
#   2 MAG_AUTO               Kron-like elliptical aperture magnitude                    [mag]
#   3 X_IMAGE                Object position along x                                    [pixel]
#   4 Y_IMAGE                Object position along y                                    [pixel]
#   5 X_WORLD                Barycenter position along world x axis                     [deg]
#   6 Y_WORLD                Barycenter position along world y axis                     [deg]
#   7 A_WORLD                Profile RMS along major axis (world units)                 [deg]
#   8 B_WORLD                Profile RMS along minor axis (world units)                 [deg]
#   9 THETA_WORLD            Position angle (CCW/world-x)                               [deg]
#  10 FWHM_WORLD             FWHM assuming a gaussian core                              [deg]
#  11 ELONGATION             A_IMAGE/B_IMAGE                                           
#  12 ELLIPTICITY            1 - B_IMAGE/A_IMAGE                                       
         1 -15.8922    241.7323     91.2237   2.9550036484e+01   1.6402314838e+01     2.118695    0.9243612 -39.22   0.01114549    1.711    0.415
         2 -10.8917     53.7844     51.0640   5.9874085625e+01   6.3404252433e+01    0.7106015    0.1880246 -54.52  0.001916014    4.565    0.781
         3 -12.2904      4.8646     39.1709   8.6913771190e+01   7.2357805452e+01    0.6431589    0.1876934 -75.82  0.002147007    3.648    0.726
         4 -10.9957     40.9609     13.9811   4.6845152847e+01   7.2975574605e+01    0.1969919    0.1850032  20.05 0.0003042031    1.013    0.012
         5 -10.3275     92.6617    230.3407   8.1766185911e+01   1.4760777500e+01     0.128232    0.0765503  52.00 0.0007050259    1.765    0.433
         6 -10.3280    161.7738    225.0085   6.6745358108e+01   7.3961045698e+00    0.2334218    0.1444332 -15.83   0.00139024    1.795    0.443
         7 -10.5563     84.5114    226.5150   8.3239406158e+01   1.6401349911e+01    0.1245081   0.09998395  37.17 0.0002643728    1.040    0.038
         8  -9.8557     99.1905    225.1381   7.9804462356e+01   1.4914518859e+01    0.1684975     0.123707  46.19 0.0005618709    1.307    0.235
         9 -10.7050     59.7806    222.9670   8.8654837880e+01   1.9878959998e+01    0.2098972    0.1112863  59.90  0.001079987    1.991    0.498
        10 -10.6739    126.1528    220.6334   7.3402934381e+01   1.2400877514e+01    0.1766976    0.1673968  65.66 0.0006651802    1.325    0.245
        11 -10.2535    143.6201    216.7957   6.9252642995e+01   1.0862355152e+01    0.1476164    0.1170253 -59.12 0.0009497027    1.663    0.399
        12  -9.8908    112.3205    216.6552   7.5946419625e+01   1.4823161229e+01     0.126578   0.08629699  54.97 0.0007049681    1.729    0.422
        13 -11.0243     19.2608    215.6471   9.7869686701e+01   2.5435172336e+01    0.2490719    0.1972369  23.89   0.00111676    1.309    0.236
        14 -10.5307     76.5001    212.0087   8.3769814543e+01   2.0135852293e+01    0.1775504    0.1271327 -71.51  0.001043155    1.620    0.383
        15 -10.1752    116.7904    210.2073   7.4167618553e+01   1.5421528387e+01    0.2098041    0.1191291  59.56 0.0009507075    2.787    0.641
        16  -9.7150     71.3122    208.6301   8.4714239907e+01   2.1441383546e+01    0.1401195    0.0815013  56.56 0.0007035504    1.773    0.436
        17 -10.1251     99.3107    205.6710   7.7648404152e+01   1.8547679566e+01    0.1326594   0.08913929  56.28 0.0002539489    1.666    0.400
        18 -11.1389    186.2440    204.1517   5.9187100532e+01   7.5334358481e+00     0.201445    0.1481201  49.95  0.001246408    2.063    0.515
        19 -11.6842    165.4927    202.5132   6.2827453162e+01   1.0384877936e+01    0.3416324     0.288833  86.83  0.002139158    2.051    0.513
        20 -11.4069    178.0199    197.1594   5.9603395773e+01   9.6133509702e+00    0.2054663    0.1803202 -34.00  0.001374582    1.309    0.236
        21 -10.3413    149.0006    197.9902   6.5475082228e+01   1.3314983215e+01    0.1979991    0.1420949 -79.30  0.001018679    2.585    0.613
        22 -10.6681    124.9782    197.1910   7.0591624245e+01   1.6744771541e+01    0.2723405    0.1973201  28.79  0.001576459    1.236    0.191
        23  -9.9998     88.3028    197.6556   7.9383804934e+01   2.1600591286e+01    0.1385607   0.09079677  58.55 0.0004679739    1.684    0.406
        24 -11.9595    163.6094    194.4707   6.1954961359e+01   1.1938491600e+01    0.3448748    0.2518171  57.59  0.001949755    2.104    0.525
        25 -10.3226    172.3375    195.6546   6.0440044896e+01   1.0587243115e+01    0.1113653   0.09757341  67.34 0.0007048555    1.776    0.437
        26 -10.2294     66.4893    194.0080   8.4540496079e+01   2.5144562785e+01    0.1918071    0.1006911  72.46 0.0007791867    2.584    0.613
        27 -10.1817    186.3261    193.6725   5.7517705113e+01   9.0841094903e+00    0.1039349   0.09710072  73.04 0.0005593448    1.699    0.411
        28  -9.9759     43.5193    193.0061   9.0495337454e+01   2.8011121215e+01    0.1971395   0.08933656  68.86 0.0008102291    2.608    0.617
        29 -10.6283    172.5723    190.8213   5.9619078203e+01   1.1331936282e+01    0.1599378    0.1147434 -50.91 0.0007504594    1.696    0.410
        30 -10.1179    139.0130    189.2102   6.6273844026e+01   1.6270614881e+01    0.1762986    0.1493548 -83.80 0.0008116239    1.634    0.388
        31 -10.8109      7.5972    188.7454   9.9825391963e+01   3.2380862883e+01    0.1851865    0.1007588  74.82 0.0009575636    1.668    0.400
        32 -10.0934    129.3868    188.1879   6.8272417316e+01   1.7839056580e+01    0.1741368    0.1279993 -67.01 0.0008277101    1.739    0.425
        33 -10.1288    165.4983    186.4991   6.0292879842e+01   1.3012991114e+01    0.1248009    0.1098838   0.14 -0.0001748157    1.024    0.024
        34 -10.2464    109.4801    185.9682   7.2647448091e+01   2.1137803454e+01     0.181282     0.118188  84.83   0.00080996    2.535    0.605
        35 -10.1857     54.6713    186.3416   8.6949157045e+01   2.8296198405e+01    0.1510013   0.08502048  56.89 0.0007051367    1.742    0.426
        36 -11.1597     94.7527    183.1733   7.5948691877e+01   2.3819410860e+01    0.3559747    0.2553376 -75.24  0.001883867    1.636    0.389
        37 -10.5661    120.3698    184.1950   6.9764417110e+01   1.9927952341e+01     0.180615    0.1299766 -68.32 0.0009529917    1.726    0.421
        38 -10.4781    174.4040    183.2471   5.8011088267e+01   1.2319239924e+01    0.1655466    0.1143461 -48.89 0.0008197606    1.657    0.396
        39 -12.1131      1.9919    180.5517   1.0107347245e+02   3.4746579905e+01    0.4608524    0.2753763 -52.84  0.002412883    2.103    0.524
        40 -10.5104    147.9677    179.9778   6.2836365949e+01   1.6680947403e+01    0.1980109    0.1628583  68.96  0.001131937    1.705    0.414
        41 -11.6118     77.5810    175.1928   7.9460164371e+01   2.8001250098e+01    0.4047961    0.2250071  67.40   0.00168584    2.427    0.588
        42 -10.0176     59.7844    176.2021   8.4531271390e+01   3.0075954456e+01    0.2587166    0.1123173  58.80 0.0009571262    2.822    0.646
        43  -9.8375     44.3053    181.6751   8.9389715885e+01   3.0572718565e+01    0.1484988    0.0849375  57.04 0.0003361938    1.645    0.392
        44 -10.5701    177.2511    170.5603   5.5249216606e+01   1.4032469326e+01    0.2824339    0.1948966 -51.54  0.001581148    1.701    0.412
        45  -9.7477    134.6728    171.3280   6.4334655274e+01   2.0357616906e+01    0.1350341    0.1065797  69.38 0.0007050558    1.703    0.413
        46 -11.4699    121.8440    167.8799   6.6793715682e+01   2.3071744522e+01    0.5684693     0.313482 -64.20  0.002458026    2.335    0.572
        47  -9.8531    168.4809    168.9799   5.6664883299e+01   1.5605266077e+01    0.1724121    0.1148365 -66.60 0.0008102626    2.562    0.610
        48 -11.2508    139.2584    164.2941   6.2040527258e+01   2.1041261972e+01    0.4452161    0.2669488 -66.61  0.001939206    2.502    0.600
        49 -10.8937     79.5215    163.0357   7.7275106219e+01   3.0622501575e+01    0.4712726    0.2472153  84.72   0.00164484    3.422    0.708
        50 -10.6034    146.3310    162.6943   6.0156148595e+01   2.0222936316e+01     0.244321    0.2096274  72.96 0.0007867781    1.516    0.340
        51 -10.6538    144.1021    159.5175   6.0061499066e+01   2.1210399497e+01    0.2254834    0.1908823 -66.60 0.0004274345    1.405    0.288
        52  -9.8737     37.6737    163.3503   8.9740789233e+01   3.5825712306e+01    0.1592266   0.08716053  58.33   0.00070486    1.758    0.431
        53 -10.7649    206.0052    162.0360   4.8611005525e+01   1.1299690121e+01    0.1762093    0.1492086 -62.30 0.0009627593    1.725    0.420
        54 -10.5646    177.6324    159.9146   5.3204517134e+01   1.5796896970e+01    0.3133326    0.1774247 -51.30   0.00152697    2.041    0.510
        55 -10.8152     92.8994    159.2342   7.2920291144e+01   2.9543188983e+01    0.4294318    0.2507967 -71.65  0.001862756    2.045    0.511
        56 -10.2675      8.3355    159.0011   9.8435488170e+01   3.9623823200e+01    0.2415021   0.06481442  70.07 0.0007052096    4.413    0.773
        57 -11.0781    197.2902    157.4183   4.9197023220e+01   1.3263754830e+01    0.2140344    0.1426842 -51.50  0.001103828    1.804    0.446
        58 -11.2049    188.7732    156.7902   5.0560208388e+01   1.4630952477e+01    0.2829093     0.190776 -44.95  0.001598982    1.494    0.331
        59 -10.0159    128.3964    158.2485   6.3490462454e+01   2.4054103397e+01    0.1965361    0.1356695 -63.01 0.0009521808    1.692    0.409
        60 -10.3217    105.5009    157.6174   6.9211402193e+01   2.7936259234e+01    0.2946654    0.1982057  79.37  0.001284239    2.197    0.545
        61 -10.6708    167.9620    156.9968   5.4524074804e+01   1.7827366995e+01    0.1994284    0.1698244 -88.50  0.001138484    1.708    0.414
        62 -11.4502    205.1383    154.4161   4.7320181557e+01   1.2599247261e+01    0.2160674    0.1287946 -39.50   0.00109052    1.505    0.336
        63 -10.6948     49.4478    154.2974   8.5173179900e+01   3.6826097411e+01    0.3782245    0.1976993  68.77  0.001522878    2.264    0.558
        64 -10.6450     81.4619    153.8207   7.5329231529e+01   3.2592890985e+01    0.3001646    0.2036969  80.66  0.001193472    1.822    0.451
        65 -10.4649    133.1488    152.4902   6.1258829539e+01   2.4474608062e+01    0.2990379    0.2219817  80.85  0.001419384    2.020    0.505
        66 -12.4654    188.9945    148.5313   4.8908081702e+01   1.5979135029e+01    0.5241398    0.2627173 -49.78  0.002409731    2.263    0.558
        67  -9.8542    162.4988    149.9865   5.4250137908e+01   2.0012601044e+01    0.1889996    0.1183157 -65.61 0.0008105266    2.586    0.613
        68  -9.9342     98.4015    150.1886   6.9849976439e+01   3.0822537777e+01    0.2125434    0.1416654 -74.46 0.0009533939    1.789    0.441
        69 -11.4408    200.0263    147.8567   4.6887323409e+01   1.4392616710e+01    0.2402797    0.1634844 -35.63  0.001402922    1.281    0.219
        70 -10.9297     39.2515    146.7763   8.7613904457e+01   3.9989132269e+01    0.4449748    0.2110569  73.29  0.001669438    2.588    0.614
        71 -11.4130    148.7716    143.1531   5.5782720410e+01   2.3693995688e+01    0.7038874    0.3150552 -53.98   0.00270779    2.612    0.617
        72 -11.0350    106.8989    144.3876   6.6416400184e+01   3.0776341032e+01    0.5354283    0.3290916  83.61  0.001957007    3.066    0.674
        73 -11.1806     67.9631    152.8455   7.9232753676e+01   3.4791901892e+01    0.4440731    0.2916106  74.72  0.001711012    1.764    0.433
        74 -11.2638     55.5671    143.8637   8.1888947167e+01   3.8801208777e+01    0.6809798     0.332751 -81.52  0.002610309    2.397    0.583
        75 -10.3757     12.8605    145.0633   9.6238867396e+01   4.2935533118e+01    0.2593125    0.1199509  63.47  0.001087848    2.057    0.514
        76 -10.3561    165.5762    143.2840   5.2259173178e+01   2.0751125887e+01    0.2663886     0.124974 -47.22  0.001134344    2.108    0.526
        77 -11.1238    124.7812    142.1385   6.1255301824e+01   2.8164210372e+01    0.5421423    0.3133478 -76.71  0.001871146    3.529    0.717
        78 -10.7288     87.8916    143.2631   7.1649180075e+01   3.4213856578e+01    0.3405969    0.2193028 -83.07  0.001453273    1.981    0.495
        79 -10.5309    182.1886    141.0450   4.8611603427e+01   1.8360251807e+01    0.2163128    0.1480006 -61.32  0.001085247    2.006    0.502
        80 -11.0767      2.3206    140.1344   9.9506565475e+01   4.5000837206e+01    0.3746271   0.09490304  83.15  0.001093618    4.358    0.771
        81 -12.3897    189.0310    136.1353   4.6372696653e+01   1.8077230737e+01    0.5243488    0.2536499 -49.58  0.002323346    2.274    0.560
        82 -10.4539     68.5710    137.8762   7.6734550777e+01   3.8579150285e+01    0.3583673    0.1512613 -76.30  0.001144067    3.299    0.697
        83 -11.2267     22.7273    135.8094   9.2161800659e+01   4.4618009475e+01    0.7638732     0.281088  88.34  0.002586276    3.125    0.680
        84 -10.6260    172.4947    137.5194   4.9688439719e+01   2.0630134315e+01    0.2526512    0.1192612 -51.12  0.001037529    2.386    0.581
        85 -10.5181    162.5535    135.2978   5.1182404354e+01   2.2791301783e+01    0.2731686    0.1276996 -47.46  0.001135977    2.100    0.524
        86 -11.2685     38.8739    134.6764   8.6349860868e+01   4.3304954104e+01     0.358421    0.1902998 -76.47   0.00152141    1.835    0.455
        87 -10.9576    179.5424    132.8314   4.7363882919e+01   2.0259093019e+01    0.3356485    0.1195152 -43.34  0.001288522    2.573    0.611
        88 -10.3059    112.6998    132.7279   6.2458104970e+01   3.2482598353e+01    0.3016431    0.1883252 -77.93  0.001172686    2.454    0.592
        89 -11.1687    131.7965    129.3975   5.6773230921e+01   2.9677037959e+01    0.6436777    0.2694859 -55.72  0.002239131    2.820    0.645
        90 -11.8231     83.2217    129.2882   7.0451149878e+01   3.8512727055e+01    0.9025322    0.3068992 -62.44  0.002808099    3.240    0.691
        91 -10.6964    142.9227    130.4745   5.4371445036e+01   2.7351947376e+01    0.3493192    0.2026331 -49.98  0.001552766    1.707    0.414
        92 -11.8062    192.6774    129.4196   4.4330166136e+01   1.8609686570e+01    0.3071711    0.1965011 -43.77  0.001273091    1.435    0.303
        93 -11.3448    168.7178    128.2729   4.8412454423e+01   2.3010395260e+01    0.3808465    0.1761649 -47.13  0.001591386    2.105    0.525
        94 -10.9649    152.8377    127.5246   5.1500833898e+01   2.6092000243e+01    0.4981568    0.1863071 -48.85  0.001777784    2.718    0.632
        95 -12.1289     99.0696    124.7868   6.4621402900e+01   3.6874920217e+01    0.9673862     0.420236 -57.41  0.003483839    2.374    0.579
        96 -10.8304     72.7738    127.6944   7.3544869581e+01   4.0619093273e+01    0.4905852    0.2134592 -70.65   0.00166223    2.784    0.641
        97 -11.4474     12.3204    128.1604   9.5277138816e+01   4.7572947045e+01    0.5323802     0.195903  78.83  0.001832534    3.034    0.670
        98 -11.1815    117.4778    123.8275   5.9187020526e+01   3.3653279762e+01    0.5919319    0.3354155 -64.08   0.00232942    2.190    0.543
        99 -11.8555    180.3680    122.5137   4.4949040124e+01   2.1952291312e+01    0.6388193    0.2162963 -34.89  0.002222744    3.152    0.683
       100 -11.6062     58.6069    121.6275   7.7332717634e+01   4.4372344418e+01    0.9200426    0.3569364 -78.41  0.002587072    4.170    0.760
       101 -12.0535     43.0286    120.2709   8.2856415222e+01   4.6799661089e+01     1.061044    0.4337398  89.89  0.003080919    4.072    0.754
       102 -11.6714    188.9124    122.9637   4.3562954358e+01   2.0355425930e+01    0.3384142    0.1728205 -45.23   0.00157545    1.819    0.450
       103 -11.5457     29.1233    120.7209   8.8222954669e+01   4.8199099982e+01    0.8082341    0.2619178 -79.91  0.002555936    3.313    0.698
       104 -10.5045    172.5509    120.2657   4.5870996971e+01   2.3791072265e+01    0.2748696    0.1230781 -44.73  0.001134331    2.065    0.516
       105 -10.5673    158.3855    119.9493   4.8585025937e+01   2.6533918095e+01     0.384398    0.1634623 -45.32  0.001498566    2.210    0.547
       106 -11.9785    141.5836    116.7957   5.1498138642e+01   3.0466600943e+01    0.8229844    0.2989841 -50.41  0.002761102    2.894    0.654
       107 -10.9093     70.9594    118.3093   7.2313536460e+01   4.3390284330e+01    0.4727437    0.2254731 -66.85  0.001743598    2.230    0.552
       108 -10.8346    130.6284    117.7507   5.4350050566e+01   3.2445884392e+01    0.3851237    0.2485273 -81.47  0.001460283    2.731    0.634
       109 -11.6442      2.4993    114.2190   9.8067774716e+01   5.2072483824e+01    0.8373029    0.2369743  88.80  0.002640122    3.581    0.721
       110 -12.0318    186.0041    115.0390   4.2276644241e+01   2.2243415586e+01    0.3418402    0.1750019 -44.90  0.001484553    1.782    0.439
       111 -11.5325    108.7949    112.0109   5.8773356490e+01   3.8105090674e+01    0.8146992     0.340227 -57.08  0.002742857    2.687    0.628
       112 -10.2416     22.6195    113.9737   8.9974785696e+01   5.0700335044e+01    0.3409158    0.1301306 -75.90  0.001242919    2.415    0.586
       113 -11.6865     92.2844    109.4930   6.3159354149e+01   4.1924115317e+01    0.9598535    0.2938722 -55.78  0.002826835    3.365    0.703
       114 -11.4045     78.3644    110.4420   6.8021793161e+01   4.4218832198e+01    0.7778927    0.3592352 -71.61  0.002468121    3.170    0.685
       115 -11.2749    122.1200    110.7159   5.4783695973e+01   3.5719260043e+01    0.4861932    0.2142858 -46.87  0.001788606    2.202    0.546
       116 -12.0940     14.2593    109.1966   9.2875630636e+01   5.2721051365e+01    0.6577978     0.305047 -88.26  0.002647931    2.100    0.524
       117 -11.3194    174.6110    109.8757   4.3061005000e+01   2.5297524663e+01    0.3946512    0.1566467 -37.05  0.001515323    2.382    0.580
       118 -11.5717    159.3115    109.9230   4.5991311397e+01   2.8298761631e+01    0.4320203    0.1852703 -38.56  0.001660184    2.254    0.556
       119 -11.3676     66.3767    108.9275   7.1962870761e+01   4.6627851313e+01    0.6297932    0.2914535 -68.76  0.002231698    2.422    0.587
       120 -10.2654     16.9862    244.7101   9.9351755992e+01   1.9957261060e+01    0.1643425    0.1109644  39.99 0.0004941351    1.095    0.086
       121 -11.1315    159.6404     99.0927   4.3201286603e+01   3.0301730849e+01    0.3593608    0.1276638 -41.22  0.001265819    2.568    0.611
       122 -12.1669    108.2894     96.4172   5.4803684359e+01   4.1850836339e+01    0.8668276    0.4512251 -59.71  0.003204576    2.243    0.554
       123 -11.1540     81.8491     98.4930   6.3847817280e+01   4.6658041894e+01     0.545193    0.2230711 -60.54  0.001786022    2.722    0.633
       124 -11.2404     95.2113     94.5410   5.8276068877e+01   4.5012618353e+01    0.6887603    0.2608901 -45.84  0.002256441    2.694    0.629
       125 -12.2917     63.3750     92.9569   6.9313544275e+01   5.1367512072e+01     1.026367    0.3888071 -61.92  0.003375158    2.725    0.633
       126 -11.4780    176.8487     92.2985   3.8346534790e+01   2.7977171118e+01    0.2819452    0.1571694 -30.02  0.001249282    1.881    0.468
       127 -10.9606    164.5712     92.7406   4.0615082525e+01   3.0448095643e+01    0.2880949     0.133204 -35.92   0.00114277    2.101    0.524
       128 -11.9680    193.0257    114.0467   4.0894721027e+01   2.1144324239e+01    0.3410426    0.1697412 -44.78  0.001577957    1.821    0.451
       129 -12.5665      5.1023     88.4826   9.4876491317e+01   5.9117145120e+01    0.7633114    0.2698722 -66.76  0.002918059    2.360    0.576
       130 -11.9841    124.7145     87.6712   4.7824498732e+01   4.0191631315e+01    0.8094953    0.3656707 -38.09  0.002907199    2.385    0.581
       131 -11.4993     34.7764     86.7031   8.0295955190e+01   5.7122138629e+01    0.9377827    0.2760624 -64.98  0.003015413    2.975    0.664
       132 -12.1571     44.8276    101.1367   7.8798227849e+01   5.1893923037e+01    0.9360113     0.462774  72.89  0.003024715    3.359    0.702
       133 -10.8058    150.9982     87.5338   4.1834814513e+01   3.4348266860e+01     0.276059    0.1541641 -33.96  0.001154523    1.863    0.463
       134 -11.8619     86.5424     84.1784   5.8129563754e+01   4.9268359680e+01    0.7838296    0.3530965 -52.46  0.002831464    2.195    0.544
       135 -12.2025     48.1434     81.5244   7.2828723146e+01   5.6780320165e+01    0.9037933     0.379964 -64.05  0.003243485    2.367    0.578
       136 -11.5378    104.3997     81.0255   5.1384920979e+01   4.6171964913e+01    0.7521873    0.2810819 -49.41  0.002467534    2.679    0.627
       137 -11.2257    158.5136     81.5085   3.8708653734e+01   3.3798752946e+01    0.3158696    0.1347666 -38.56  0.001209383    2.161    0.537
       138 -10.2398    170.6787     81.6669   3.6611932955e+01   3.1112579866e+01     0.139781    0.1125337   4.42 0.0007049736    1.701    0.412
       139 -11.8740     24.0450     79.3386   8.4055740002e+01   6.0281029204e+01    0.5629321    0.2614325 -79.42   0.00216862    2.267    0.559
       140 -12.3087     25.2782     73.2988   8.2140636624e+01   6.1814366639e+01    0.8832901    0.3637488 -30.18  0.002573167    4.672    0.786
       141 -11.3323     43.3258     93.8511   7.7938103843e+01   5.4101404487e+01    0.4379336     0.249432 -43.76  0.001805324    1.954    0.488
       142 -10.8804    150.1926     78.7329   3.9511097424e+01   3.6172382753e+01    0.3498062    0.1906726 -39.09  0.001490667    1.723    0.420
       143 -10.5656     74.2079     78.5752   6.0906774722e+01   5.3079923415e+01    0.5806116    0.1774161 -57.49  0.001579363    3.984    0.749
       144 -11.4961    138.8635     89.7358   4.5041426077e+01   3.6608039702e+01    0.5045738    0.2156214 -40.34  0.001848959    2.269    0.559
       145 -10.6845    119.1953     78.5236   4.6472280694e+01   4.3351997901e+01    0.3155883    0.2147097 -45.33  0.001424646    1.418    0.295
       146 -13.0808     21.8644     98.8706   8.8362414063e+01   5.5022190524e+01     1.274217     0.510735  89.00   0.00425145    3.098    0.677
       147 -11.8339    150.0469    100.2983   4.5466227989e+01   3.2083033223e+01    0.7314675    0.1989677 -44.33  0.002219368    3.411    0.707
       148 -10.6830    167.5941     76.2015   3.5645878313e+01   3.2721325779e+01    0.2059806    0.1313207 -28.42  0.000952218    1.683    0.406
       149 -11.7050    139.9066    102.5064   4.8279826537e+01   3.3782378728e+01    0.6422705    0.2176731 -44.12  0.002127584    2.788    0.641
       150 -11.8694    201.1384    102.4196   3.7004562664e+01   2.1600108061e+01    0.2400218     0.134127 -40.80  0.001206534    1.505    0.335
       151 -11.2995    140.5755     81.6991   4.2356967036e+01   3.7803564506e+01    0.2984652    0.1431144 -37.40  0.001144176    2.086    0.521
       152 -11.5636    128.1846     72.6293   4.2394875515e+01   4.2433629777e+01    0.6304234    0.2553101 -36.81  0.002177712    2.594    0.614
       153 -11.9319     62.6661     69.7154   6.2739693140e+01   5.7412584416e+01     1.077279    0.1702601 -50.19  0.002480033    5.648    0.823
       154 -11.2484      9.9340     74.5937   9.0676590530e+01   6.2695065052e+01    0.2471543    0.1738328 -61.29 0.0004064164    1.294    0.227
       155 -10.8357    174.6355     76.8076   3.4669795881e+01   3.1084706099e+01    0.2172888    0.1124181 -45.04 0.0009552354    1.709    0.415
       156 -11.2070    166.5985    101.9493   4.2595617998e+01   2.8335164413e+01    0.4355741    0.1323697 -37.26  0.001392141    3.287    0.696
       157 -11.3301     82.0902     69.1294   5.4785420512e+01   5.3701023059e+01    0.8711541     0.253186 -46.31  0.002561418    3.412    0.707
       158 -11.9426      6.9027    100.2533   9.5169646808e+01   5.5721970523e+01    0.6744174    0.1478226 -74.19  0.002067624    3.595    0.722
       159 -10.5390     42.5466     71.2183   7.2637323069e+01   6.0297309213e+01    0.3889654    0.1341499 -59.02  0.001317239    2.649    0.622
       160 -12.3096    189.6495    106.6064   3.9728799987e+01   2.3017768191e+01    0.4766213     0.137609 -41.94  0.001678247    2.968    0.663
       161 -10.8317    105.6000     69.5495   4.7273555155e+01   4.8356893854e+01    0.4529785    0.1472689 -43.00  0.001405342    3.016    0.668
       162 -11.1562     94.8822     68.2242   5.0085330269e+01   5.1093420428e+01    0.7741436    0.2055593 -46.74  0.002166238    3.738    0.732
       163 -11.1127      5.6237     70.0236   9.2397030407e+01   6.4194514511e+01    0.3371569     0.122333 -77.53  0.001258549    2.486    0.598
       164 -11.8726    128.7370    100.1561   5.0324840940e+01   3.6655715177e+01    0.5435351    0.2866856 -44.49  0.002196225    1.826    0.452
       165 -10.5096    163.3835     69.8095   3.4560930259e+01   3.4745294656e+01     0.210473    0.1324646 -27.34 0.0009538988    1.758    0.431
       166 -11.5048     51.1954     66.4048   6.6876314630e+01   6.0212131865e+01    0.8406338    0.2473328 -58.63  0.002493088    3.552    0.718
       167 -12.1917     17.2106     65.6173   8.4945174835e+01   6.4620471266e+01    0.8861218     0.091153 -61.42  0.002416386    4.479    0.777
       168  -9.9153    170.6568     69.6787   3.3351539365e+01   3.3135117899e+01     0.138589    0.1122444  13.57 0.0007050108    1.726    0.421
       169 -10.7316    146.8832     65.9037   3.6341893148e+01   3.9239535900e+01    0.3920464    0.1746159 -29.40  0.001389096    2.739    0.635
       170 -11.2880    203.5127     65.4793   2.7849207606e+01   2.6841465834e+01     0.238542    0.1196349 -23.98  0.001037854    2.348    0.574
       171 -11.1200    140.5334     73.2371   3.9845741950e+01   3.9415474574e+01    0.3769058    0.1456541 -36.68  0.001301348    2.601    0.616
       172 -10.9938    138.4956     64.4528   3.7540543296e+01   4.1494576277e+01    0.3223851    0.1421653 -37.63  0.001213791    2.176    0.540
       173 -11.3101     37.3235     61.7285   7.2464803164e+01   6.3462081625e+01     0.584605     0.221286 -52.91  0.002136818    2.404    0.584
       174 -10.7842    110.0614     61.6170   4.3266882841e+01   4.8888580703e+01     0.500708    0.2154849 -38.52  0.001795848    2.367    0.578
       175 -11.2917    175.7774    100.1582   4.0495033041e+01   2.6811909898e+01    0.3379924    0.1755299 -33.26  0.001468092    1.901    0.474
       176 -10.6039     99.9998     57.6548   4.4667405519e+01   5.2064136720e+01    0.5807034    0.1911619 -44.45  0.001847417    2.971    0.663
       177 -11.2196     73.2950     55.8298   5.3156452111e+01   5.8494104243e+01    0.8154732    0.2466119 -42.41  0.002433854    3.530    0.717
       178 -11.0495     25.0981     57.0091   7.8050304433e+01   6.6151562239e+01    0.4412676    0.1547655 -46.56  0.001538164    2.879    0.653
       179 -12.1001      7.0000     55.5266   8.9134222081e+01   6.8020584431e+01    0.4092036    0.1933842 -79.00  0.001746034    2.050    0.512
       180 -11.7470      8.2403     50.7541   8.7292945564e+01   6.9198928661e+01    0.4538152    0.1476377 -56.01  0.001734083    2.480    0.597
       181 -12.0860     45.1453     49.9310   6.3886196316e+01   6.5162110212e+01    0.6134789    0.2531377 -45.70 0.0007178303    2.445    0.591
       182 -10.5976     63.3219     48.8121   5.4434272512e+01   6.2053503700e+01    0.4586505    0.2133306 -35.89   0.00164299    2.693    0.629
       183 -10.7959    162.6730    244.3409   6.9023501406e+01   4.5828579976e+00    0.1011444   0.07815118  44.49 0.0007051404    1.735    0.424
       184 -10.9759     30.6790     50.1988   7.2390007008e+01   6.7214199340e+01    0.3596874     0.176353 -67.71  0.001435774    2.273    0.560
       185 -10.9298     92.0092     47.8507   4.3255285464e+01   5.5828984906e+01    0.6889005     0.167147 -41.35  0.001942852    3.945    0.746
       186 -10.4468     20.9351     48.4861   7.8053927113e+01   6.8750561577e+01    0.4511513    0.2200828 -13.91  0.001542928    3.764    0.734
       187 -10.4411     82.6274     42.8834   4.4218939119e+01   5.8963926526e+01    0.6639813     0.237208 -29.82  0.001769232    4.999    0.800
       188 -10.7528    121.4936     64.0015   4.1172322747e+01   4.5678249139e+01    0.4224697    0.1471424 -39.13   0.00138232    2.805    0.643
       189 -11.1487     16.8949     42.2635   7.8777724967e+01   7.0689077072e+01    0.5340564   0.09900846 -55.77  0.001669549    3.689    0.729
       190 -10.2612    113.2600     42.5087   3.5362421188e+01   5.1485325564e+01    0.3172306    0.1890507  -5.74  0.001081746    3.555    0.719
       191 -10.4539     57.7625     40.8623   5.3389935348e+01   6.4810353961e+01    0.4077933    0.1673816 -53.92  0.001393766    3.033    0.670
       192 -10.8953    155.4635    240.9728   6.9967890575e+01   5.8278505509e+00    0.1265738    0.1011795  86.71 0.0008092135    2.535    0.605
       193 -11.0512     69.0104     38.5283   4.7314401616e+01   6.2875972851e+01    0.4444807    0.1871935 -31.11  0.001467906    3.325    0.699
       194 -10.5861     36.7796     38.6737   6.3813242130e+01   6.9040782834e+01    0.4171018     0.147959 -46.67   0.00150126    2.748    0.636
       195  -9.7031    106.3200     37.3533   3.4960512548e+01   5.4061035569e+01     0.151862    0.1159437  24.90 0.0006974682    1.749    0.428
       196 -11.3441     27.6672     29.4775   6.5364362568e+01   7.2388472663e+01    0.4722673    0.1583522 -41.21  0.001587464    3.503    0.715
       197 -10.1983    105.5569     51.2525   4.0667533425e+01   5.1918152815e+01    0.3068607    0.1395751 -42.72  0.001154793    2.135    0.532
       198 -10.2040     61.0000     28.9699   4.5856773655e+01   6.6337825141e+01    0.2366556   0.08125374 -38.49 0.0008076426    2.979    0.664
       199 -10.2903    123.4990     40.9871   3.2561539753e+01   4.9123535706e+01    0.2011187     0.134925   0.73 0.0008103474    2.550    0.608
       200 -10.8290     12.9835     21.2987   7.3029891533e+01   7.5955813121e+01    0.2288009    0.1871939  79.57 0.0009912008    1.589    0.371
