#   1 NUMBER                 Running object number                                     
#   2 MAG_AUTO               Kron-like elliptical aperture magnitude                    [mag]
#   3 X_IMAGE                Object position along x                                    [pixel]
#   4 Y_IMAGE                Object position along y                                    [pixel]
#   5 X_WORLD                Barycenter position along world x axis                     [deg]
#   6 Y_WORLD                Barycenter position along world y axis                     [deg]
#   7 A_WORLD                Profile RMS along major axis (world units)                 [deg]
#   8 B_WORLD                Profile RMS along minor axis (world units)                 [deg]
#   9 THETA_WORLD            Position angle (CCW/world-x)                               [deg]
#  10 FWHM_WORLD             FWHM assuming a gaussian core                              [deg]
#  11 ELONGATION             A_IMAGE/B_IMAGE                                           
#  12 ELLIPTICITY            1 - B_IMAGE/A_IMAGE                                       
         1 -10.0435      9.3241     19.7928   1.1286448030e+02   6.9272339936e+01    0.3424232    0.1832725   5.85  0.000546474    1.914    0.478
         2 -10.0302     24.3594     16.6498   1.0481368159e+02   6.8350460126e+01    0.2951798    0.2173957  22.53 0.0006820585    1.436    0.303
         3  -9.9267     31.6062     10.9362   9.9250401303e+01   6.8261670351e+01    0.3477629    0.1793546 -15.12  0.001153465    1.988    0.497
         4  -9.8292     63.9746     14.2720   8.8436425266e+01   6.3337634043e+01    0.3498124    0.2117275  19.39 0.0009701293    1.611    0.379
         5  -9.1278     74.4087     13.9584   8.4966734030e+01   6.1605823441e+01    0.2974811    0.1952441  14.05  0.001438437    1.510    0.338
         6  -8.7749     80.1612     12.7081   8.2759740195e+01   6.0698233376e+01    0.2278353    0.2258706  86.67 0.0009810624    1.394    0.282
         7  -9.3528    134.6544     13.2995   7.0321372899e+01   4.9293133598e+01    0.4127903    0.2590745  17.14  0.002123012    2.140    0.533
         8  -8.5098     88.6136     13.3371   8.0628875628e+01   5.9053776252e+01    0.3180819    0.1443113  33.74  0.001335442    2.240    0.553
         9  -8.2362    105.9684     10.8155   7.5381868074e+01   5.5804516135e+01    0.1992248    0.1388808  36.13 0.0005904228    1.282    0.220
        10 -10.6266     20.1413      8.8348   1.0334634446e+02   6.9773376161e+01    0.2740368    0.1590905  12.43 0.0004152418    1.585    0.369
        11  -8.2489      2.2313      7.9720   1.1146690278e+02   7.1456230384e+01    0.2106781    0.1490085 -41.10  0.001601885    1.607    0.378
        12  -8.2259    128.3791      7.7738   6.9754530714e+01   5.1208554788e+01    0.1632733    0.1165269   3.72 0.0006487326    1.714    0.416
        13  -8.2249     39.4241      8.2938   9.4878945423e+01   6.7585614635e+01     0.226632    0.1053671  26.81  0.000845445    2.061    0.515
        14  -8.7148     76.5394      6.6905   8.1448770414e+01   6.1914100732e+01    0.2360447    0.1210078  46.22  0.001308279    1.659    0.397
        15  -7.8941     84.7605      6.2052   7.8960978549e+01   6.0435269706e+01    0.1738403    0.1139717  27.35 0.0007153159    1.383    0.277
        16  -8.8603     68.5324      4.5574   8.2984260325e+01   6.3513462333e+01    0.3093615    0.1489389 -10.34  0.001387013    2.452    0.592
        17  -9.1303     56.4868      4.6298   8.6940621818e+01   6.5489502250e+01    0.2975215    0.1633133  21.92  0.001728797    1.753    0.429
        18  -9.8773     49.0169      4.7150   8.9629539679e+01   6.6617215887e+01    0.2327068    0.1619375  13.70 0.0004119923    1.182    0.154
        19  -8.7944    111.1107      4.5724   7.2101390084e+01   5.5251416931e+01     0.223304    0.1484803  36.28 0.0002924551    1.383    0.277
        20  -7.7933     13.1578      5.2619   1.0499220576e+02   7.0889487707e+01    0.1857387   0.08673245  -7.35 0.0009550605    2.815    0.645
        21  -8.7683    125.2004      4.0597   6.9166256786e+01   5.2227559978e+01    0.1961714    0.1418054  38.02 0.0007155931    1.317    0.240
        22  -8.5041    104.2778      3.1315   7.3071117858e+01   5.6803283519e+01    0.2997763    0.1506758  -6.16  0.001480194    2.611    0.617
        23  -7.4850    153.5494      3.4699   6.4373939308e+01   4.5811335933e+01    0.1267432    0.1048537  62.75 -6.328383e-05    1.054    0.051
        24  -7.8043    182.1865      2.1563   6.0374412137e+01   3.9232081366e+01    0.1793301    0.1426841  60.91 0.0004466206    1.224    0.183
        25  -7.9293    143.1413      2.1345   6.5548746148e+01   4.8328945044e+01    0.1832916    0.1427212  49.59  0.000303279    1.181    0.153
        26  -8.7704     97.4020     11.9747   7.7842284505e+01   5.7454555602e+01     0.238269    0.1463674  43.21 0.0005713781    1.372    0.271
        27  -7.7007      3.0395      1.1768   1.0808345104e+02   7.2266046183e+01    0.1189313   0.06412905  17.80 0.0003184958    1.743    0.426
        28  -7.9949    204.9763    230.7928   1.0917683927e+02  -5.1111351968e+00    0.2127798    0.1330158  14.66 0.0006417763    1.936    0.484
        29  -9.3395    210.6463    245.7835   1.1061537345e+02  -8.3254098495e+00    0.2538882    0.2338363 -47.68 0.0009510023    1.433    0.302
        30  -8.9862    211.7883    250.3786   1.1114906287e+02  -9.1667685224e+00    0.2909363    0.1486602  40.08  0.001515849    1.769    0.435
        31  -9.3663    206.8291    248.1084   1.1171660303e+02  -8.0679927155e+00    0.3525594    0.2537429 -75.63  0.001762875    3.097    0.677
        32  -9.8685    200.5555    249.1414   1.1307436598e+02  -7.2292581579e+00    0.3712716    0.2258185  25.31  0.001181455    1.583    0.368
        33  -7.9878    123.0998    250.4984   1.2833745029e+02   5.3671531871e+00     0.198673    0.1085472  42.09 0.0009219832    1.571    0.364
        34  -7.4068    124.0271    230.2261   1.2550301986e+02   9.0435536190e+00    0.1823304   0.09993558  41.86 0.0008715131    1.640    0.390
        35  -8.0750    195.1640    229.1035   1.1081019262e+02  -3.1841929519e+00    0.2078633    0.1629595   9.93  0.001104773    1.320    0.242
        36  -8.6507    247.4718    225.9445   1.0038066287e+02  -1.1014944469e+01    0.3661047    0.2719337   3.42  0.002308949    1.225    0.184
        37  -8.7794    237.5091    227.0210   1.0237022364e+02  -9.6970689784e+00     0.301311    0.1652996 -41.60 0.0008667791    1.968    0.492
        38  -7.7092    175.0324    228.4367   1.1473609850e+02   4.2452303416e-01    0.1851529    0.1097145  19.20 0.0003773395    2.348    0.574
        39  -7.5544    158.6493    228.7038   1.1813021253e+02   3.2745157225e+00    0.1353743    0.1031989   9.19 0.0007033858    1.683    0.406
        40  -7.7683    230.0214    226.9883   1.0374212731e+02  -8.5463421997e+00    0.2028372    0.1369973  -2.08  0.001055171    1.625    0.384
        41  -8.4814    186.3703    226.8178   1.1217292524e+02  -1.2797468097e+00    0.2795404    0.1681151  16.43  0.001250162    2.312    0.567
        42  -7.7920    223.6302    224.7205   1.0453026717e+02  -7.1913984899e+00    0.2015612    0.1339602  -0.69 0.0009755422    1.761    0.432
        43  -7.2818     70.6073    225.6918   1.3580807543e+02   1.8459214395e+01    0.1157543    0.1013755 -23.07 0.0007009115    1.826    0.452
        44  -7.4628    206.8055    222.3442   1.0733506759e+02  -4.0389310016e+00    0.1883577    0.1104494  28.37 0.0004827176    1.711    0.416
        45  -8.3727    216.5622    220.4057   1.0509465543e+02  -5.3548681796e+00    0.2607242    0.1687795   1.30 0.0006831871    1.990    0.497
        46  -7.5373     51.6287    221.6886   1.3913983326e+02   2.1909103389e+01    0.1119951    0.0956355 -39.89 0.0007034313    1.775    0.437
        47  -8.3672    182.5705    219.6899   1.1171374555e+02   6.4931570912e-01    0.2933666    0.1833907  19.10  0.001065207    2.043    0.510
        48  -8.1373    130.5909    220.3221   1.2270135585e+02   9.8887678042e+00     0.224748    0.1652982  23.23 0.0007898938    1.684    0.406
        49  -7.9880     41.0396    220.5117   1.4107719509e+02   2.3496850010e+01    0.1751118    0.1086786  44.08  0.001037389    1.604    0.377
        50  -8.2185    240.3206    218.5448   1.0031361957e+02  -8.8518204847e+00    0.2129721    0.1766717  43.27 0.0006995562    1.467    0.318
        51  -8.3559    227.1855    218.2406   1.0268165119e+02  -6.7423031601e+00    0.2211794     0.159146 -18.71  0.001031227    1.379    0.275
        52  -8.5808    193.4085    215.8910   1.0883762295e+02  -6.0532315720e-01     0.384759    0.2453796  -4.71  0.001694073    2.467    0.595
        53  -7.6057    173.2249    218.6572   1.1345769267e+02   2.5215138360e+00    0.1986877    0.1189169  32.75 0.0006913359    1.658    0.397
        54  -7.6941    203.7739    216.3573   1.0685041441e+02  -2.5087154146e+00    0.1907284    0.1156542  29.63 0.0003970632    1.643    0.391
        55  -7.4652    179.0361    215.2234   1.1165570310e+02   2.1033695588e+00    0.1853318    0.1063533  39.55 0.0003718384    1.618    0.382
        56  -9.2161    161.5904    214.5872   1.1519547916e+02   5.4210193783e+00    0.2362513     0.219227  62.99 0.0005349327    1.112    0.101
        57  -8.0644    122.1522    213.2783   1.2344626748e+02   1.2837627900e+01    0.2140017    0.1690291  28.11 0.0006758329    1.459    0.314
        58  -9.0472    249.3025    211.9155   9.7469161091e+01  -9.2039127481e+00    0.3209917    0.1706159  34.43  0.001661226    1.892    0.471
        59  -8.1838    232.9210    211.6436   1.0038369982e+02  -6.6128383752e+00    0.2151133    0.1608023 -18.08 0.0005008745    1.276    0.216
        60  -7.7281    186.4720    210.4263   1.0925930822e+02   1.6355859522e+00      0.13891    0.1265438  20.88 0.0008051935    1.028    0.027
        61  -7.9660    162.9119    208.0590   1.1378025753e+02   6.4595607545e+00    0.2228492    0.1703934   6.74 0.0008501135    1.703    0.413
        62  -8.0449    215.9333    205.3616   1.0241146962e+02  -2.7252665216e+00    0.2441748    0.1746591  -4.92  0.001266042    1.619    0.382
        63  -8.9381    124.0233    205.9674   1.2190479292e+02   1.4071276806e+01    0.2018657    0.1831788  63.85  0.001164328    1.010    0.009
        64  -8.3455    228.0087    200.9913   9.9263827428e+01  -4.0470062771e+00    0.3555506    0.1959386 -10.76  0.001363489    3.243    0.692
        65  -7.9195    117.4133    205.2499   1.2325280427e+02   1.5400486273e+01    0.2515886    0.1717614  31.26  0.001230155    1.664    0.399
        66  -7.6239    247.4915    204.5140   9.6386672358e+01  -7.7800789778e+00    0.1301531     0.109181  -7.64 0.0008103424    1.025    0.024
        67  -8.3551    237.2903    203.7039   9.8068151479e+01  -6.0340617744e+00    0.2444346    0.1626636  25.84 0.0005947209    1.526    0.345
        68  -7.3310    205.6840    204.7079   1.0429969757e+02  -8.0341988689e-01    0.1397168    0.1025095   3.31 0.0003583147    1.598    0.374
        69  -7.6760     86.1786    204.6128   1.3004028585e+02   2.0741835328e+01    0.1770854    0.1287362  31.17  0.000834051    1.647    0.393
        70  -8.2548    250.4256    199.2180   9.4850230978e+01  -7.3957137959e+00    0.2533954    0.1114563 -33.23  0.001135023    2.152    0.535
        71  -8.0870    196.3192    200.4102   1.0536301354e+02   1.6858546948e+00    0.2629355    0.1298542  36.74 0.0008837795    2.020    0.505
        72  -7.7968    184.9566    199.9987   1.0762975999e+02   3.8878851846e+00    0.2299556    0.1712532   2.41  0.000855877    1.709    0.415
        73  -8.7270    243.9259    197.2970   9.5626792304e+01  -6.0582741102e+00    0.3742409    0.1546443 -27.97  0.001442431    2.978    0.664
        74  -7.4282    100.3117    198.3370   1.2601528716e+02   1.9882989873e+01     0.134656    0.1121274 -24.85 0.0007045321    1.687    0.407
        75  -8.2196    166.3078    197.1864   1.1107057353e+02   8.0076712729e+00    0.2535374    0.1910577  28.00 0.0008230191    1.406    0.289
        76  -7.7684    193.3053    193.7410   1.0468528533e+02   3.5138026579e+00    0.2313613    0.1601393   1.51  0.001039159    2.037    0.509
        77  -7.7941      1.7979    194.3780   1.4649751939e+02   3.3300511179e+01    0.1255775    0.1128424  22.37 0.0006262694    1.662    0.398
        78  -7.5091    150.4660    193.0299   1.1378630124e+02   1.1937381849e+01    0.2139309    0.1450936 -49.63 0.0008378203    1.533    0.348
        79  -7.3538    133.4807    192.4763   1.1751979642e+02   1.5297474804e+01    0.1452662    0.1385126  64.00 0.0001108345    1.034    0.033
        80  -7.6078     89.8368    192.3537   1.2750043136e+02   2.2973380899e+01    0.1905687    0.1321298  29.74 0.0006190229    1.748    0.428
        81  -7.4332    222.3299    199.2981   1.0000946976e+02  -2.7849020488e+00     0.139929   0.09962385   1.81 0.0003480017    1.640    0.390
        82  -8.1474     64.6826    189.5408   1.3281949955e+02   2.7386594224e+01    0.2377377    0.1355078  30.67  0.001136617    2.151    0.535
        83  -7.5731    130.0509    183.0372   1.1660726105e+02   1.8070900939e+01    0.1816852    0.1694616  63.00 0.0009920923    1.031    0.031
        84  -7.9598    224.6505    189.2773   9.7585064750e+01  -1.4316740437e+00    0.1970335    0.1192394 -30.08 0.0004308806    1.666    0.400
        85  -7.6216    161.6634    189.7330   1.1067486603e+02   1.0459968305e+01    0.1458649    0.1160547   6.95 0.0003739722    1.592    0.372
        86  -7.2034    183.6721    180.3034   1.0400789670e+02   8.0584035153e+00     0.147424    0.1189697  84.13 0.0006048752    1.647    0.393
        87  -7.5940    156.9812    180.5007   1.0991874997e+02   1.3371134986e+01    0.2115781     0.133478  18.32 0.0008097602    2.493    0.599
        88  -7.4148     96.5643    178.4707   1.2374604908e+02   2.5146286233e+01    0.1449869    0.1312452  89.98   0.00011921    1.007    0.007
        89  -7.5985     69.0070    178.4693   1.3031241514e+02   2.9406127550e+01     0.172645     0.125213  -4.48 0.0008086837    2.485    0.598
        90  -8.0574    148.0869    175.1844   1.1089338613e+02   1.6329876261e+01    0.3105887    0.1906424 -25.38  0.001172933    2.613    0.617
        91  -7.6717     47.1984    175.6203   1.3502753859e+02   3.2942461631e+01     0.160963    0.1298698  19.75 0.0009468795    1.684    0.406
        92  -7.7132    183.6779    171.6594   1.0220453880e+02   9.8422198992e+00    0.1558228    0.1188837  -2.73 0.0007050572    1.722    0.419
        93  -8.2426    177.5309    166.9706   1.0253376359e+02   1.2095662431e+01     0.408261    0.2459252  -6.99   0.00120751    4.512    0.778
        94  -7.5633    168.6952    163.6680   1.0377674170e+02   1.4651526524e+01    0.1558869    0.1231049  -5.33 0.0005382627    1.660    0.397
        95  -7.4745    245.6818    156.6451   8.7052884927e+01   6.5740630266e-01    0.1429195    0.1027754  -7.10 2.519058e-06    1.749    0.428
        96  -7.6026    175.3475    151.7432   9.9651038111e+01   1.5832334564e+01    0.2063202    0.1421078 -35.77 0.0009055413    1.526    0.345
        97  -7.6198    168.5269    151.9753   1.0122535111e+02   1.7251046615e+01    0.2172075    0.1362445 -22.39 0.0008081342    2.406    0.584
        98  -7.2691    157.6781    152.6870   1.0387314545e+02   1.9417892878e+01    0.1574623      0.12627  -2.86 0.0003883755    1.655    0.396
        99  -8.0299    133.4087    147.7080   1.0860655749e+02   2.5642827121e+01    0.2200223    0.1451655 -41.08 0.0009432651    1.592    0.372
       100 -10.3285    221.8775    146.2437   8.8993911432e+01   7.1442888118e+00    0.2698627    0.2588072  21.50 0.0004685564    1.112    0.101
       101  -9.4099     66.9644    144.6154   1.2536985836e+02   3.7920793805e+01    0.4783642    0.3183969  70.81    0.0022939    1.871    0.466
       102  -7.9215     14.0109    139.9909   1.3855780140e+02   4.4697213771e+01    0.2047788    0.1176465 -46.59  0.001133609    1.789    0.441
       103  -7.5474     40.6741    139.6806   1.3157179680e+02   4.2318605846e+01     0.135145   0.08941805 -40.73 0.0007046282    1.679    0.404
       104  -7.5096    139.7540    138.0058   1.0480214965e+02   2.6580726717e+01    0.2079557    0.1318137 -48.66 0.0007252159    1.548    0.354
       105  -7.3430    108.6209    136.7051   1.1252985472e+02   3.3098392205e+01    0.1550573    0.1214861 -10.11 0.0007021774    1.751    0.429
       106  -8.4558      6.0216    133.9768   1.3984169193e+02   4.6678705083e+01    0.2513154    0.1392455 -29.23   0.00132128    2.591    0.614
       107  -7.6007    187.3269    133.3275   9.2786037591e+01   1.7128422950e+01    0.1577992    0.1247472   1.64 0.0007050339    1.701    0.412
       108  -8.3151     22.4883    131.0113   1.3512549610e+02   4.6109245809e+01    0.2236796    0.1011519 -38.57 0.0009752366    2.854    0.650
       109  -7.4442     41.4909    129.5086   1.2966927031e+02   4.4664677795e+01    0.1343767     0.111877 -60.47 0.0008101621    1.044    0.042
       110  -8.5147    240.6315    127.9630   8.1720772752e+01   6.8395558716e+00     0.221607    0.1948954  30.80 0.0005342402    1.325    0.245
       111  -7.5623    132.3513    125.2747   1.0359038252e+02   3.1059030087e+01    0.1560532    0.1256876   2.73  0.000315798    1.638    0.389
       112  -7.6295     83.9755    122.3223   1.1608693226e+02   4.0780201442e+01    0.2194903    0.1237331   9.02 0.0007022814    4.147    0.759
       113  -9.5227     12.8701    120.6538   1.3623369463e+02   4.9262298681e+01    0.4400674    0.1287828 -50.70  0.001844492    2.766    0.638
       114  -7.5665    118.6554    119.6778   1.0578219028e+02   3.5146257337e+01    0.1585412    0.1232353  -7.54 0.0007050096    1.732    0.423
       115  -7.6888    100.9539    118.5093   1.1035592324e+02   3.8786947627e+01    0.2232288    0.1503998  37.44 0.0006984556    1.582    0.368
       116  -7.7284    142.3945    111.8091   9.7618998177e+01   3.1871819628e+01    0.2208828    0.1468167 -33.41 0.0006250442    1.658    0.397
       117  -9.0139      2.6627    109.4558   1.3746717300e+02   5.2459417271e+01    0.3417427    0.1874798 -32.59  0.001929937    2.105    0.525
       118  -8.4037    133.8039    107.2032   9.8561186519e+01   3.4745705614e+01    0.4700067    0.1984712 -39.36  0.001619028    2.513    0.602
       119  -8.0335    123.3872    107.3817   1.0132932807e+02   3.6920095216e+01    0.3375878    0.2233158  10.31  0.001283678    2.613    0.617
       120  -9.2989     13.6260    106.0674   1.3372100941e+02   5.2519577558e+01    0.2941169    0.1595766 -49.02  0.001074828    1.531    0.347
       121  -8.7437     17.5006    103.4707   1.3209904692e+02   5.2825146263e+01    0.2309427    0.1507632 -25.55 0.0006717303    1.779    0.438
       122  -7.7867    109.5081    106.0268   1.0475871272e+02   4.0001870622e+01    0.2169175    0.1262641 -26.19 0.0006586245    2.482    0.597
       123  -7.5811    195.4752    105.0022   8.4262496918e+01   2.0991176702e+01    0.1884825    0.1361722  -9.49 -7.330855e-05    2.096    0.523
       124  -7.8226     66.6728    104.6744   1.1709097205e+02   4.7425791192e+01    0.1452555   0.09989334 -25.76 0.0005386915    1.697    0.411
       125  -8.0025      2.3218    102.3249   1.3648621644e+02   5.4059410567e+01    0.1258537   0.06615413 -44.68 0.0007047174    1.682    0.406
       126  -7.8396    130.0238     97.0310   9.6761717891e+01   3.7698825900e+01    0.2440771    0.1886778   5.34 0.0006356782    1.717    0.418
       127  -9.4723      9.0814     96.3909   1.3343802660e+02   5.4960125138e+01    0.3299077    0.1654237   1.20    0.0016966    2.888    0.654
       128  -9.1347     19.7220     93.6308   1.2954364073e+02   5.4834150726e+01    0.5197408   0.08782832 -46.30  0.001672165    4.565    0.781
       129  -8.4094     44.1026     92.1765   1.2127144170e+02   5.2947876211e+01    0.3402745    0.1954146 -15.54  0.001556696    2.578    0.612
       130  -7.7053     96.5479     90.4056   1.0419325122e+02   4.5757889528e+01    0.4565189    0.2529178   8.27  0.001227493    6.002    0.833
       131  -8.4883     67.1022     86.1409   1.1216745357e+02   5.1390254335e+01    0.4193518    0.1587653  25.85  0.001448793    3.873    0.742
       132  -7.8502    126.2298     84.0961   9.4065241988e+01   4.1087798461e+01    0.4318795    0.2329727  17.93  0.001105566    6.022    0.834
       133  -9.3889     35.5120     82.1416   1.2171357925e+02   5.5952959673e+01    0.5892642    0.2571561 -30.63  0.002438548    3.013    0.668
       134  -7.5774     21.6954     83.7053   1.2680009294e+02   5.6814402272e+01    0.1262794   0.07424387 -35.80 0.0002069965    1.580    0.367
       135  -7.4545    180.2546     82.3388   8.1391541958e+01   2.8833999758e+01    0.1433486    0.1199981   5.57 0.0003141858    1.574    0.365
       136  -8.3774     87.9716     79.0030   1.0345888915e+02   4.9558506826e+01    0.3176971    0.1902883  14.08  0.001308783    2.568    0.611
       137  -9.7904      8.1102     77.3197   1.3006586270e+02   5.9072954433e+01    0.3988331    0.1940676 -34.37  0.002008185    1.973    0.493
       138  -8.0281    184.1746     77.9493   7.9506329197e+01   2.8664110077e+01    0.2314096    0.1894729 -74.23 0.0005337006    1.276    0.216
       139  -8.6517     48.5950     76.9887   1.1584886872e+02   5.5633125204e+01    0.3122234     0.235592 -15.67  0.001604327    1.359    0.264
       140  -7.5186    105.5055     76.4948   9.7467929191e+01   4.6804146470e+01    0.1452872    0.1333074  -0.85 0.0008096244    1.072    0.067
       141  -9.7376     24.1999     73.2737   1.2346821595e+02   5.8771143081e+01    0.8154898    0.3070201 -30.21  0.003125307    3.849    0.740
       142  -8.3239     23.4638     69.4648   1.2276759954e+02   5.9592428417e+01    0.1865626    0.1633616 -41.77 0.0004818377    1.137    0.121
       143  -8.1449     74.7601     74.7993   1.0638742565e+02   5.2532973393e+01    0.2584333     0.172048   6.68  0.000961785    1.944    0.486
       144  -8.9711    236.3270     71.9020   6.9933899439e+01   1.7572460715e+01    0.2494664    0.1916888  64.34 0.0007380801    1.371    0.271
       145  -7.8538    128.0113     70.7449   8.9641649685e+01   4.3138207035e+01    0.2571144    0.1566811   2.63 0.0008827015    3.512    0.715
       146  -7.1632     61.2703     71.6606   1.0994548063e+02   5.5094506481e+01    0.1208732    0.1040503 -76.84 0.0002331933    1.604    0.376
       147  -7.9735     80.5409     68.2112   1.0247669480e+02   5.2843846317e+01    0.1919945    0.1648819 -29.96 0.0003228794    1.102    0.093
       148  -8.7035     83.7779     63.9577   1.0008237506e+02   5.3060375370e+01    0.3545347    0.2278994  14.13  0.001692682    1.976    0.494
       149  -8.2123     61.6831     67.1814   1.0843766471e+02   5.5886425834e+01    0.3061221    0.1441602 -37.39 0.0008222915    2.009    0.502
       150  -9.3963     65.2407     61.2887   1.0534413904e+02   5.6456956999e+01    0.4185192    0.2723298  -7.53  0.002135795    1.883    0.469
       151  -8.5940     43.5326     67.7866   1.1502430370e+02   5.8015373075e+01    0.2844431    0.1624189  -0.95  0.001364855    2.467    0.595
       152  -9.4799     17.5072     62.4958   1.2315216075e+02   6.1411455910e+01    0.4662972    0.1879344 -40.52   0.00168637    2.029    0.507
       153  -8.4965     51.8002     61.2197   1.1005334530e+02   5.8277089267e+01    0.2473656    0.1726665 -18.55  0.001428562    1.413    0.292
       154  -7.3565    122.4649     61.5308   8.8219013218e+01   4.5900646681e+01    0.1443574    0.1309909  20.46 0.0001276209    1.094    0.086
       155  -9.0796     33.4857     60.4639   1.1656444580e+02   6.0440147227e+01    0.3225954    0.1874826  28.78  0.001845564    1.923    0.480
       156 -10.6123     39.0883     57.1563   1.1345306496e+02   6.0478924153e+01    0.2859707    0.2013147 -18.51 0.0002942311    1.334    0.251
       157  -7.7877    110.8660     58.7289   9.0387583896e+01   4.8810033152e+01    0.2348651    0.1427532  12.27 0.0009352824    2.724    0.633
       158  -9.6455      2.5127     54.9069   1.2692026990e+02   6.3810230286e+01    0.6312726    0.1675712 -39.79   0.00279628    2.992    0.666
       159  -9.4367      8.4987     48.9738   1.2295152184e+02   6.4550740539e+01    0.3201079      0.13648 -41.47 0.0006356987    1.769    0.435
       160  -9.3908     11.6622     46.7001   1.2100785231e+02   6.4747926234e+01    0.2445896    0.1673128 -27.30 0.0006734043    1.195    0.163
       161  -8.2050     99.0237     54.5331   9.2340672279e+01   5.1843421698e+01    0.2640423    0.1835558 -17.55   0.00135987    1.582    0.368
       162  -9.1727     74.7610     50.6538   9.8552554445e+01   5.6782375157e+01     0.381531     0.241424  -1.49 0.0004999842    2.053    0.513
       163  -8.3727    118.3849     51.1603   8.5967124372e+01   4.8389373086e+01    0.2901914    0.2232402  68.96  0.001083692    1.543    0.352
       164  -7.6970     81.6730     51.7389   9.6678535387e+01   5.5455682775e+01     0.196291    0.1084544  52.28 0.0008960796    2.300    0.565
       165 -10.3156     45.2785     49.0479   1.0847546608e+02   6.1196920974e+01    0.2610393    0.1953407   1.61  0.000586406    1.280    0.219
       166  -7.8848     91.3528     48.8191   9.2673773060e+01   5.4174847340e+01    0.1868232    0.1180618 -22.09 0.0007027966    1.699    0.411
       167  -7.4825    106.8087     48.3918   8.8103408101e+01   5.1223611367e+01    0.1844496    0.1166746  37.54 0.0002876696    1.528    0.345
       168  -9.8156     24.4233     47.2818   1.1602603009e+02   6.3648422153e+01     0.450688    0.2223285   4.06  0.002258324    2.718    0.632
       169  -9.0768     31.3852     44.2416   1.1224166527e+02   6.3516197975e+01    0.2712775    0.1704413   7.61 0.0009675894    1.672    0.402
       170  -9.0222      2.0521     45.6686   1.2463816043e+02   6.5530335281e+01    0.2129548    0.1690059 -44.42 0.0009186821    1.173    0.148
       171  -9.3839     42.6844     41.9318   1.0699512254e+02   6.2665960454e+01    0.4001431    0.2122464 -41.00  0.002213985    1.730    0.422
       172  -8.4303     93.8142     42.5798   8.9783931681e+01   5.4617059178e+01    0.4136834    0.1304398  38.88  0.001439811    3.469    0.712
       173  -8.8142     37.5711     42.5294   1.0920097313e+02   6.3151628350e+01      0.24661    0.1376756  34.45  0.001220274    2.015    0.504
       174  -9.8144     17.5435     38.8282   1.1608773641e+02   6.5661409692e+01    0.5281247    0.2095609 -26.66  0.002413232    2.993    0.666
       175  -8.1177    122.9956     40.9140   8.1526718115e+01   4.8816126897e+01     0.231248    0.1505912  25.07  0.000854551    1.837    0.456
       176  -9.7799     83.8141     39.8058   9.1811965568e+01   5.6848968827e+01    0.3991268    0.2219195  27.22  0.001935656    1.976    0.494
       177  -9.0436      3.8939     40.4107   1.2234491088e+02   6.6349374089e+01    0.2552341    0.1255218 -52.48  0.001434436    1.724    0.420
       178  -9.0201    106.1753     37.0503   8.4438545987e+01   5.2908000887e+01    0.3765116    0.1994703  27.57  0.001398559    2.416    0.586
       179  -8.5495     92.3284     37.2618   8.8345116533e+01   5.5622537542e+01    0.2712322    0.1736424  32.83 0.0008356372    1.489    0.329
       180  -9.5839     96.0466     33.3086   8.5880741803e+01   5.5413271040e+01    0.2867488    0.2141066   7.84 0.0002750472    1.404    0.288
       181  -9.4292     54.8070     36.6251   1.0047364382e+02   6.1916938380e+01    0.2782848    0.1937802  10.71 0.0007881868    1.386    0.278
       182  -9.2763     38.3799     35.2184   1.0624823969e+02   6.4206266169e+01    0.3387746    0.1993403   4.58  0.001308767    1.911    0.477
       183  -8.2788     70.3629     36.1271   9.4810897319e+01   5.9647194205e+01    0.2927577    0.1215171  31.06  0.001239559    2.738    0.635
       184  -8.1914     76.6331     33.8235   9.1894731467e+01   5.8913061417e+01    0.2593588    0.1561805 -32.33  0.001421382    1.678    0.404
       185  -7.3333    143.9463     34.2388   7.4930204493e+01   4.4883122566e+01    0.1724913    0.1055338  60.93 0.0002981658    1.496    0.332
       186  -9.2255      6.9815     33.8219   1.1894142818e+02   6.7265677082e+01    0.2856791    0.1624378   1.84  0.001307765    1.839    0.456
       187  -8.4714    104.9826     31.9521   8.2995747801e+01   5.3788765863e+01    0.1601917    0.1426834  24.47 0.0006291533    1.024    0.024
       188  -8.1362     82.0677     32.1427   8.9562341868e+01   5.8178651441e+01    0.1929923    0.1458524  17.89 0.0002995913    1.232    0.188
       189  -9.2042    127.8228     30.2375   7.7002905376e+01   4.9065296011e+01    0.2243677    0.1926267  33.43 0.0002322638    1.127    0.113
       190  -7.8882     88.2142     31.3120   8.7407514805e+01   5.7158576731e+01    0.2664166   0.09281284  42.30  0.001083246    2.630    0.620
       191  -9.0714      1.5617     29.9231   1.2004080526e+02   6.8246832159e+01    0.2472372    0.1012104 -47.04  0.001329525    1.874    0.466
       192  -8.3334    112.7594     29.7375   8.0285823016e+01   5.2424653201e+01    0.3260399    0.1337253  42.18  0.001367385    2.332    0.571
       193  -9.5479     71.5061     26.3607   9.0735565553e+01   6.0725445678e+01    0.3612064    0.2319101  30.40  0.001923489    1.414    0.293
       194  -7.7868    124.1269     26.8167   7.6704543346e+01   5.0281497558e+01    0.1797091    0.1401941  29.63 0.0004266191    1.290    0.225
       195  -8.4469     61.7355     26.9892   9.4291431637e+01   6.2215163045e+01    0.1884429    0.1387891   6.02 0.0004705372    1.227    0.185
       196  -8.9720     57.4090     25.1363   9.5099652182e+01   6.3102038982e+01    0.2646447    0.1852622  34.54 0.0008310698    1.398    0.285
       197  -8.9826     48.1014     25.9342   9.8870814203e+01   6.4313551488e+01    0.3603471    0.1449059  30.27   0.00149393    2.554    0.608
       198  -8.6471    228.9028     23.9130   6.0373484322e+01   2.6109687068e+01    0.2749854    0.1796723 -34.99  0.001034623    1.708    0.414
       199  -7.2261    109.4527     24.4838   7.9297135796e+01   5.3717485516e+01    0.2772943     0.122874  71.45 0.0008102665    5.866    0.830
       200  -9.4469     83.4201     22.0766   8.5393400190e+01   5.9129101078e+01    0.5056508    0.2062673  39.62  0.001490241    2.240    0.554
       201  -8.2619     27.2315     22.6364   1.0601171982e+02   6.7244721705e+01    0.3408996    0.1333377 -20.45  0.001265611    4.719    0.788
       202  -8.8354     63.8079     22.8076   9.1926675597e+01   6.2406361068e+01     0.150483    0.1417926  13.38 0.0007991028    1.335    0.251
       203  -8.5954     92.2318     20.7225   8.2388087166e+01   5.7610036607e+01    0.2430772    0.2074571  33.47  0.001251595    1.060    0.056
       204  -9.8064    192.2900    245.2328   1.1403931891e+02  -5.3016389525e+00    0.5078001    0.2722427 -23.21   0.00196566    2.838    0.648
       205  -7.6319    117.0634     20.2277   7.6091895412e+01   5.2538703243e+01    0.1646614    0.0935792  54.33 0.0003505346    1.529    0.346
       206  -7.9171     45.5200     20.4891   9.7666207591e+01   6.5357224097e+01    0.1178552   0.09120174   0.53 4.652441e-05    1.023    0.022
       207  -8.3346    234.2053    246.8221   1.0642088972e+02  -1.2017462871e+01    0.1684841    0.1181307   8.73 0.0004857476    1.322    0.244
       208  -8.6601    218.7114    245.9850   1.0913370873e+02  -9.6005729091e+00    0.3157188    0.1387577 -31.29  0.001472082    2.617    0.618
       209  -7.9169    127.7880     16.9002   7.2755643677e+01   5.0501594941e+01    0.1902381     0.152419  39.80 0.0003946253    1.164    0.141
       210  -7.8200    103.9362     17.2136   7.8106908522e+01   5.5623613914e+01    0.2270337    0.1133373  34.78   0.00108206    2.047    0.512
       211  -7.8388     73.9804    247.5150   1.3735468047e+02   1.3546609133e+01    0.1812879    0.1034873  44.83 0.0008090609    1.557    0.358
       212  -8.8019     50.5605     15.0174   9.3480820493e+01   6.5309973978e+01    0.2722577    0.1516947  25.58 0.0009937338    1.665    0.400
       213  -8.2314     18.4736    247.6970   1.4708899260e+02   2.0593000069e+01    0.1785197    0.0857427  41.86 0.0009992206    2.011    0.503
       214  -8.6770    243.1617    244.3768   1.0439302369e+02  -1.2962244335e+01    0.2386692    0.1751805 -38.48  0.001538924    1.613    0.380
       215  -8.3287    146.7246     14.0478   6.8442445145e+01   4.6438162943e+01    0.1852289    0.1523685  41.08 0.0004444665    1.231    0.187
       216  -9.6310    156.6250    245.0974   1.2102141773e+02   7.0203983729e-01    0.3049133    0.1972798  16.69  0.001499754    2.184    0.542
       217  -8.9097    224.7800    243.2706   1.0755050656e+02  -1.0134257431e+01      0.23728    0.2045309 -76.57  0.001050985    2.020    0.505
       218  -8.7428    176.0319    243.9888   1.1701923434e+02  -2.4005589518e+00    0.2061597    0.1495966   7.34 0.0007769273    1.716    0.417
       219  -8.0819    233.7238    243.3846   1.0592647120e+02  -1.1476998864e+01    0.1697055   0.09749208  25.02 0.0004237015    1.623    0.384
       220  -7.9753     95.8206    243.4327   1.3279726691e+02   1.1065564894e+01     0.166817    0.1129774  34.65 0.0006054005    1.636    0.389
       221  -8.8885    151.4059    249.4904   1.2267444192e+02   8.3208395626e-01    0.2746966    0.1095617  40.99 0.0007924818    2.127    0.530
       222  -7.8440     26.0118    241.2530   1.4541046330e+02   2.1002428006e+01      0.13747   0.08327691  47.11 0.0006014201    1.554    0.357
       223  -8.0441    214.2554    239.7626   1.0892928284e+02  -8.0009076388e+00    0.1933659   0.09588157 -27.15 0.0008920447    2.472    0.595
       224  -8.8668    170.6270    239.6629   1.1742095877e+02  -7.5956536622e-01    0.2668188    0.1988213   5.30  0.001353054    1.702    0.413
       225 -10.2744    248.6956    236.1148   1.0197660282e+02  -1.2619992632e+01     0.376261    0.2323762 -36.70  0.001666384    1.684    0.406
       226  -7.9577    121.5344    239.4689   1.2724982082e+02   7.6716383278e+00    0.1308178       0.1127  55.71 0.0008086722    1.030    0.029
       227  -8.8934    242.2448    236.8861   1.0326252221e+02  -1.1810270816e+01     0.311941    0.2099504 -20.41  0.001587772    1.413    0.292
       228  -8.1781     79.2787    238.4657   1.3545520277e+02   1.4560535553e+01    0.2260625    0.1140769  38.13  0.001127906    2.000    0.500
       229  -8.3725    195.1846    236.4185   1.1204109048e+02  -4.3857185278e+00     0.246105    0.1861259   6.74 0.0008923634    1.430    0.301
       230  -7.4543    148.4480    237.5334   1.2155704889e+02   3.4431256602e+00    0.1319547    0.1163255  41.62 4.850257e-05    1.047    0.045
       231  -8.0855    232.0888    236.2813   1.0500251632e+02  -1.0233320532e+01    0.1717916    0.1414916  14.80 0.0004780177    1.058    0.055
       232  -9.7043    188.7968    234.4789   1.1297618696e+02  -2.9933665500e+00    0.3025687    0.2572134  54.11  0.001197237    1.326    0.246
       233  -7.5660    184.2967    235.6482   1.1406046044e+02  -2.4216659026e+00    0.1255021    0.1022782  73.77 0.0007034426    1.687    0.407
       234  -8.2943    162.3362    234.0582   1.1821721756e+02   1.6527818878e+00    0.2478694    0.1700444  26.85 0.0006785685    1.534    0.348
       235  -7.6990    138.4987    234.5426   1.2314467628e+02   5.7192594006e+00    0.1327894    0.1178502  42.77 0.0008077484    1.084    0.078
