#   1 NUMBER                 Running object number                                     
#   2 MAG_AUTO               Kron-like elliptical aperture magnitude                    [mag]
#   3 X_IMAGE                Object position along x                                    [pixel]
#   4 Y_IMAGE                Object position along y                                    [pixel]
#   5 X_WORLD                Barycenter position along world x axis                     [deg]
#   6 Y_WORLD                Barycenter position along world y axis                     [deg]
#   7 A_WORLD                Profile RMS along major axis (world units)                 [deg]
#   8 B_WORLD                Profile RMS along minor axis (world units)                 [deg]
#   9 THETA_WORLD            Position angle (CCW/world-x)                               [deg]
#  10 FWHM_WORLD             FWHM assuming a gaussian core                              [deg]
#  11 ELONGATION             A_IMAGE/B_IMAGE                                           
#  12 ELLIPTICITY            1 - B_IMAGE/A_IMAGE                                       
         1 -14.0899    209.1763     20.4680   5.3700502885e+01   3.0037013081e+01     2.308857     1.309979  26.39  0.009333725    2.487    0.598
         2  -9.9733      2.0000      3.4783   1.0726225842e+02   7.4447173775e+01    0.2483219   0.04833152 -56.49 0.0009342715    3.931    0.746
         3 -13.0511    105.0634    242.6603   1.1969531715e+02   1.5426504424e+01     0.599991    0.4925095  87.11  0.005000603    1.346    0.257
         4 -12.4922    163.0291    249.5205   1.1120501160e+02   6.2959058706e+00    0.7091129    0.1565105  41.49  0.002980375    3.498    0.714
         5 -12.3559    139.8304    249.5482   1.1482650884e+02   9.6551374187e+00     0.697844    0.1650898  43.69  0.003161453    3.041    0.671
         6 -13.1920    125.7739    247.9432   1.1687969866e+02   1.1852623945e+01    0.6770968    0.4909471  44.99  0.005340337    1.159    0.137
         7 -11.0157     86.8828    249.9043   1.2308014103e+02   1.6825689541e+01    0.2012281    0.1325987  47.31  0.001079574    1.252    0.201
         8 -11.9002     89.8593    245.6750   1.2232022866e+02   1.7029539337e+01    0.2347046    0.1795435  53.29 0.0009510562    1.181    0.154
         9  -9.5346     62.9712    250.5129   1.2674432768e+02   1.9679240981e+01    0.1449109   0.06926177  46.71 0.0003997267    1.539    0.350
        10 -13.4643     22.8052    194.1721   1.3009693485e+02   3.3201004900e+01    0.9443552       0.5644 -57.59  0.004743599    2.285    0.562
        11 -14.5632     34.4585    247.0970   1.3079792397e+02   2.3363610058e+01     7.474101     2.057641  33.35   0.02538038    9.401    0.894
        12 -13.9297     15.0004    240.0553   1.3336166527e+02   2.6383222675e+01     1.557849    0.7270479  72.96   0.01175581    1.611    0.379
        13 -14.8082     94.9560    231.0070   1.2036620358e+02   1.8468794871e+01     3.109238    0.7213408  44.36   0.01085293    3.074    0.675
        14 -10.9437    224.1812    197.8429   9.4352529434e+01   2.5610293879e+00    0.2496575    0.2148697 -55.12  0.001045042    1.773    0.436
        15  -9.9848    193.2552    195.2665   9.9094291897e+01   8.1120913955e+00    0.5518903    0.2843965 -62.80  0.001578027    9.523    0.895
        16 -11.6604     61.2577    190.8939   1.2289304011e+02   2.9535727825e+01    0.2907691    0.2223232 -52.81  0.001170352    1.837    0.456
        17 -11.6961     67.0621    183.9068   1.2116649141e+02   3.0096696429e+01    0.2311547    0.1993325 -70.76 0.0004725726    1.395    0.283
        18 -10.9716     77.0059    172.5257   1.1802841664e+02   3.0947912924e+01    0.2077222    0.1748305  75.37 0.0003922507    1.065    0.061
        19 -13.2881     63.9500    169.6882   1.2038390398e+02   3.3222646197e+01    0.4138115    0.2517477 -50.07  0.001537651    2.198    0.545
        20 -12.0626     84.3635    164.2840   1.1552993858e+02   3.1531394763e+01    0.6480868    0.4250006  61.78  0.003853662    1.393    0.282
        21 -13.0416     67.5722    144.5247   1.1666861328e+02   3.7900704293e+01      1.05958    0.5559046  84.22  0.004265942    2.474    0.596
        22 -12.3362     57.2696    130.4486   1.1720407200e+02   4.2237715683e+01     1.551219    0.4867867 -77.32  0.004151496    7.050    0.858
        23  -9.8177     97.9688    148.9590   1.1043591624e+02   3.2565819853e+01    0.2226521    0.1777662  54.54 0.0007465187    1.182    0.154
        24  -9.2578    100.7857    145.0126   1.0917813058e+02   3.2923881272e+01    0.3384546    0.2379755 -10.92   0.00150428    3.242    0.692
        25 -12.0802     86.1921    147.7648   1.1289296162e+02   3.4615808172e+01    0.2454872    0.2192855 -66.95 0.0004511087    1.229    0.187
        26  -9.4939    109.3589    135.1213   1.0550640660e+02   3.3536153287e+01    0.2602241    0.2122254   5.16  0.001130937    1.845    0.458
        27 -10.5673     96.6234    131.9054   1.0791666935e+02   3.6338661865e+01    0.2392014    0.2226093 -34.73 0.0006473983    1.340    0.254
        28  -9.2784    106.8007    122.3604   1.0365749056e+02   3.6660546712e+01    0.1763051    0.1621961  55.59 0.0003904469    1.129    0.115
        29 -12.9476      5.4190    246.5983   1.3493961125e+02   2.6315631878e+01    0.9969317    0.3631841  54.64  0.007283752    1.710    0.415
        30 -10.5145    167.9743    113.0327   8.7592026487e+01   2.6201781897e+01    0.3625669    0.2816018 -81.29  0.001395996    1.714    0.417
        31 -11.2572     33.3341    156.8782   1.2552852779e+02   3.9303695464e+01    0.2306626    0.1521709  68.37  0.001554825    1.265    0.210
        32  -9.4218    204.5055    111.0093   8.0030773183e+01   1.8358317816e+01     0.335421    0.1608562  36.53  0.001278048    2.470    0.595
        33 -12.8839     33.8556    222.3792   1.2973097538e+02   2.7240714481e+01    0.3794564    0.2230185  82.94  0.001100734    1.408    0.290
        34 -14.8687     41.5194    212.9635   1.2796072605e+02   2.7967117255e+01      1.73151     1.248113  51.58  0.008248642    1.301    0.231
        35  -8.9803    158.6725     78.6743   8.0262003391e+01   3.4600878146e+01    0.1588615    0.1201325  14.23 0.0006690308    1.698    0.411
        36 -12.4480    193.3523     38.1348   6.1224588004e+01   3.2069852622e+01     1.004801    0.6511265 -65.57  0.004348752    1.913    0.477
        37 -15.7513      9.8841    207.3728   1.3290811718e+02   3.2119688269e+01     8.609128     1.234714 -78.87   0.03001314    6.096    0.836
        38 -11.1208    151.0191    228.9718   1.1087537604e+02   1.0594812686e+01    0.2447454    0.1240233  44.66  0.001471536    1.508    0.337
        39 -10.3439    189.9576     15.5066   5.4443557149e+01   3.5651333082e+01      0.22836    0.1983153 -25.80 0.0007187767    1.155    0.134
