#   1 NUMBER                 Running object number                                     
#   2 MAG_AUTO               Kron-like elliptical aperture magnitude                    [mag]
#   3 X_IMAGE                Object position along x                                    [pixel]
#   4 Y_IMAGE                Object position along y                                    [pixel]
#   5 X_WORLD                Barycenter position along world x axis                     [deg]
#   6 Y_WORLD                Barycenter position along world y axis                     [deg]
#   7 A_WORLD                Profile RMS along major axis (world units)                 [deg]
#   8 B_WORLD                Profile RMS along minor axis (world units)                 [deg]
#   9 THETA_WORLD            Position angle (CCW/world-x)                               [deg]
#  10 FWHM_WORLD             FWHM assuming a gaussian core                              [deg]
#  11 ELONGATION             A_IMAGE/B_IMAGE                                           
#  12 ELLIPTICITY            1 - B_IMAGE/A_IMAGE                                       
         1 -15.6939    198.8715    101.9599   1.8763633807e+01   2.0967811519e+01     3.110367     2.750901  59.40   0.01131555    1.268    0.211
         2 -13.7556    135.8638    126.8294   3.7907395786e+01   2.9438332817e+01     1.695048    0.4944042 -46.78  0.005086401    3.517    0.716
         3 -18.0353    249.2065     83.1551   7.9891408262e+00   1.4351578707e+01     11.26132     3.098105 -35.99   0.04674732    2.677    0.626
         4 -13.7762     60.0460     28.6034   3.0144352592e+01   6.6438216828e+01      1.62776    0.4954012 -35.22  0.005231259    3.726    0.732
         5 -13.4922     63.1077      7.1990   1.6410607873e+01   6.8744652916e+01      1.12189    0.7156523 -12.03  0.005599421    1.811    0.448
         6 -11.4511    250.4079     13.7568   3.5306525376e+02   2.2385199566e+01    0.2065283    0.1326439 -15.89    0.0012517    1.947    0.486
         7 -13.3288      5.3551      4.3164   5.5276094191e+01   7.9091107789e+01     0.737431    0.4873241   3.72  0.004391782    1.469    0.319
         8 -11.5460    205.9395      5.0323   3.5338959664e+02   3.2404262794e+01    0.4534295     0.159191 -29.45  0.001999441    2.503    0.601
         9 -11.2921    219.3890    211.1898   3.6924015939e+01   1.3096011259e+00    0.1928407    0.1525921  21.32 0.0004615866    1.324    0.245
        10 -12.1402    241.1557    249.8181   3.9136663882e+01  -5.3488743638e+00    0.2891032   0.08702232  34.99  0.001444993    3.420    0.708
        11 -10.8960    187.4802    210.4844   4.2536762320e+01   5.5062998284e+00     0.121691   0.09802128  10.30 5.703085e-05    1.043    0.041
        12 -12.8369     44.5647    206.2300   7.4667839283e+01   2.5861740980e+01    0.3051635    0.2138123 -85.68  0.001827193    1.529    0.346
        13 -11.6977    240.5718    206.8477   3.2802143108e+01  -6.5661766592e-01    0.2183786    0.1742387  27.95  0.001177258    1.584    0.369
        14 -11.4440    237.7780    202.8709   3.2590007530e+01   1.3661166303e-01    0.1614435    0.1330428 -12.05  0.000508802    1.295    0.228
        15 -12.4213    203.3416    200.3817   3.7965145749e+01   4.7867102706e+00      0.28351    0.2046941  31.24  0.001829225    1.392    0.282
        16 -12.5281    192.4368    194.7128   3.9026365689e+01   7.1084367067e+00    0.7652323    0.4240133 -59.25  0.002847083    5.352    0.813
        17 -11.9341     88.4641    246.6830   6.7661522155e+01   1.3019070981e+01    0.3845933    0.2114669  64.14  0.002067901    2.436    0.589
        18 -16.6208    242.8587    100.0250   1.2271822954e+01   1.3148697319e+01     5.939894      1.72347  42.22   0.01495043    5.724    0.825
        19 -12.5013    177.0208    169.5218   3.7538137301e+01   1.3488786024e+01    0.3911266    0.2812738 -29.76  0.001736327    1.373    0.272
        20 -12.3818    191.1637    153.8758   3.1679475035e+01   1.3754008213e+01    0.5540497    0.4431115  -8.56  0.003245656    1.201    0.168
        21 -12.4601    133.1607    143.4981   4.2323995664e+01   2.6395994839e+01     1.915893    0.4638203 -54.91  0.003711845    9.497    0.895
        22 -12.8992    142.5241    132.3173   3.7512273004e+01   2.6921868651e+01    0.4872351    0.3748516 -41.01  0.002414928    1.323    0.244
        23 -13.1698    141.2584    119.9724   3.4899501073e+01   2.9766517763e+01    0.6294102     0.443211 -75.74  0.002656546    2.129    0.530
        24 -12.1595     85.9960    240.9974   6.7720084989e+01   1.4272060483e+01    0.4154202     0.236304  61.26  0.002301219    2.092    0.522
        25 -12.4230    134.8378    113.0153   3.4776683412e+01   3.2613301151e+01    0.6454518    0.2859256 -48.58  0.002318331    2.355    0.575
        26 -11.7783    134.9012    104.1175   3.2421764576e+01   3.4484331202e+01    0.5218155     0.340891 -35.41  0.001156915    1.642    0.391
        27 -11.4908    172.1750    150.2984   3.4720792737e+01   1.7714102245e+01    0.2270429      0.16918  17.65  0.001092351    1.421    0.296
        28 -13.3202     66.5258    144.3307   6.1933878269e+01   3.7717890684e+01    0.9858453    0.7116618  35.03  0.004880006    1.322    0.244
        29 -10.8477    218.9860    141.9509   2.4397410032e+01   1.1019543136e+01    0.1875711    0.1588243 -20.47 -0.002661949    1.042    0.040
        30 -13.1571    142.6795    141.8393   3.9590569074e+01   2.4911182327e+01     1.250724    0.4566025 -55.29  0.003702309    4.196    0.762
        31 -12.1158    147.3301    136.4752   3.7288008172e+01   2.5103582214e+01    0.2814509    0.2662195 -27.48 0.0007939401    1.066    0.062
        32 -12.1283      1.7624    133.7054   8.2418315929e+01   4.7045529576e+01    0.6178774    0.1720485 -84.02  0.002191779    3.252    0.692
        33 -13.8613     61.6972    124.9539   6.0357831027e+01   4.3440250677e+01     2.089041     1.185269  44.10  0.008965523    1.710    0.415
        34 -13.9197     39.1836    126.8054   6.8709480182e+01   4.5786079688e+01    0.8403321    0.7148348 -69.41  0.002599704    1.155    0.134
        35 -13.2472     31.3257    128.0941   7.1694619850e+01   4.6251572693e+01    0.5205151    0.3591821  21.54  0.001362676    1.552    0.356
        36 -11.5525    213.3966    129.5178   2.2684626055e+01   1.3854091679e+01    0.2345491    0.1917141 -27.87 0.0006577426    1.077    0.071
        37 -12.5449    152.3634    126.4367   3.3795056204e+01   2.6121568122e+01    0.5463685    0.2458944  32.92  0.001883427    2.895    0.655
        38 -11.8039    232.1833    246.1982   4.0040626420e+01  -4.0969992485e+00    0.1327845    0.1041095   9.41  0.001089557    1.357    0.263
        39 -13.5619     46.9047    127.7127   6.6066805440e+01   4.4658136666e+01    0.6728693    0.4899918 -68.45  0.001721676    1.338    0.252
        40 -13.2516    178.3618    105.0047   2.3076535271e+01   2.4705526687e+01    0.5866606    0.5148243  -3.35  0.002502267    1.238    0.192
        41 -11.8474    149.9864    109.3421   3.0123851526e+01   3.0058958671e+01    0.3280197    0.2743673  39.22 0.0005398031    1.217    0.178
        42 -10.5027    143.3031    110.3323   3.1966913176e+01   3.1327444255e+01    0.1562558    0.1225867   0.75 0.0005060823    1.656    0.396
        43 -11.9994    126.8561    106.0069   3.5050415222e+01   3.5869316824e+01    0.5978481    0.2787134 -55.27  0.002045632    2.645    0.622
        44 -12.7272    160.3186    107.5929   2.7364592372e+01   2.8131923215e+01    0.5651684     0.282207  46.62   0.00227034    2.042    0.510
        45 -10.5570    112.5245    105.4936   3.8988839092e+01   3.9099347249e+01    0.1572489    0.1540891  58.90 0.0008101422    1.005    0.005
        46 -12.8031    159.7177    100.5880   2.5668172793e+01   2.9597086779e+01    0.3476509    0.2837512 -36.92  0.000664036    1.204    0.169
        47 -11.7283    143.7995    100.7992   2.9318426518e+01   3.3157814086e+01    0.3369723    0.3012553 -81.35  0.001097928    1.232    0.188
        48 -13.6828    177.8205     95.2172   2.0687878824e+01   2.6539564817e+01    0.4744379    0.3821221 -21.32  0.002245485    1.319    0.242
        49 -16.1879    233.2315     96.3359   1.2631151736e+01   1.5315501690e+01     1.858154     1.451263 -51.11   0.01170234    1.286    0.222
        50 -11.7740     41.4036    188.2098   7.4186145559e+01   3.0168610874e+01    0.1872025    0.1130664  81.25 0.0009595589    1.724    0.420
        51 -12.1787    231.3409    183.7153   3.0354003658e+01   3.3320098559e+00    0.1877161    0.1751575  -4.71 0.0009278567    1.455    0.313
        52 -11.8753    220.7190     73.5234   8.9364507936e+00   2.0891351460e+01    0.2606016    0.1578052 -34.77  0.001379678    1.419    0.295
        53 -10.9570    193.2654     69.8916   1.1562524020e+01   2.7217418962e+01    0.2646337    0.2016243  53.21  0.001431231    1.440    0.306
        54 -12.4564    141.7303    126.3802   3.6327152385e+01   2.8325290286e+01     0.431814    0.3116051 -61.26  0.001169568    1.648    0.393
        55 -11.2844    206.3403     65.1250   8.6150401602e+00   2.5049321229e+01    0.2704408    0.2002737 -38.97 0.0006698597    1.192    0.161
        56 -13.8432    192.3755    164.6730   3.3590080073e+01   1.1781541257e+01     0.910446    0.5114768 -47.40  0.002167838    2.100    0.524
        57 -11.3440    207.9537     59.5389   7.0204331973e+00   2.5485943019e+01    0.2471688    0.1789924 -31.47 0.0005161614    1.306    0.234
        58 -12.5800    160.2038     50.8109   1.1188095351e+01   3.8011304320e+01    0.3516638    0.2616698  66.01  0.001769765    1.332    0.249
        59 -12.5214    152.1917     48.6085   1.1856898943e+01   4.0387430937e+01    0.4642445    0.1821257 -41.00  0.001702692    2.404    0.584
        60 -10.8926    185.8902     48.6994   6.8423032980e+00   3.1986582854e+01    0.2198798    0.1816078 -26.75 0.0004353648    1.287    0.223
        61 -12.5219    199.3958    164.1080   3.2175593464e+01   1.0746336184e+01    0.3515877    0.3344757  15.50 0.0006263366    1.263    0.208
        62 -10.5859    193.6324     37.6425   2.9143192185e+00   3.1614655155e+01    0.2581196    0.1978108  -2.32  0.001013132    1.761    0.432
        63 -11.0874    167.7212     41.1699   7.0884708429e+00   3.7470948425e+01    0.2419592    0.1983332  -1.11 0.0007051115    1.566    0.362
        64 -13.6701     43.6415    243.3273   7.7065716918e+01   1.8740362038e+01    0.3694313    0.3190594  44.70  0.001947266    1.184    0.156
        65 -12.3074     81.6838    229.9842   6.7734214367e+01   1.6742174037e+01    0.5534306    0.2806599  74.99   0.00244916    3.421    0.708
        66  -9.8488    180.4161     37.4583   4.3493810891e+00   3.4801883371e+01    0.1370502    0.1255413 -64.40 0.0001713226    1.052    0.050
        67 -10.6723    190.5983     41.8249   4.3829532770e+00   3.1791862485e+01    0.2696722    0.2080635  52.92 0.0007343389    1.476    0.323
        68 -11.3572    191.5155     32.9767   1.8690727480e+00   3.2691154202e+01    0.4454883    0.2433639  -7.83  0.001786341    3.155    0.683
        69 -10.8294    193.3178     28.4478   4.6163036762e-01   3.2808496888e+01    0.3072079    0.2004856 -11.27  0.001057637    2.039    0.510
        70 -11.8948    184.9411    169.9324   3.6031357316e+01   1.2125554651e+01    0.3550739    0.1870143 -53.55  0.001513647    2.912    0.657
        71 -11.6176    154.5215     15.4701   6.7288512860e-01   4.3979272748e+01    0.2406626    0.1410146  -5.49  0.001039447    2.475    0.596
        72 -10.4286    193.7258    224.8562   4.3552851515e+01   2.7338859490e+00    0.1933734    0.1327941  44.09 0.0008795056    1.974    0.493
        73 -10.4647    234.2145    217.3902   3.5471053422e+01  -1.1655227174e+00    0.1399767   0.08907267  32.34 0.0006193926    1.700    0.412
