#   1 NUMBER                 Running object number                                     
#   2 MAG_AUTO               Kron-like elliptical aperture magnitude                    [mag]
#   3 X_IMAGE                Object position along x                                    [pixel]
#   4 Y_IMAGE                Object position along y                                    [pixel]
#   5 X_WORLD                Barycenter position along world x axis                     [deg]
#   6 Y_WORLD                Barycenter position along world y axis                     [deg]
#   7 A_WORLD                Profile RMS along major axis (world units)                 [deg]
#   8 B_WORLD                Profile RMS along minor axis (world units)                 [deg]
#   9 THETA_WORLD            Position angle (CCW/world-x)                               [deg]
#  10 FWHM_WORLD             FWHM assuming a gaussian core                              [deg]
#  11 ELONGATION             A_IMAGE/B_IMAGE                                           
#  12 ELLIPTICITY            1 - B_IMAGE/A_IMAGE                                       
         1 -14.3656      5.2284     76.0203   1.1796937565e+02   5.9310509461e+01      3.00438      1.73198  68.67   0.01643679    2.413    0.586
         2 -15.5263      9.2366     26.7360   1.0430567535e+02   6.9289684235e+01     3.415079     1.511686 -58.24   0.01826978    2.075    0.518
         3 -14.5238     24.3172     49.4859   1.0471555125e+02   6.3792358970e+01     3.108362      1.48883 -25.36   0.01480353    2.621    0.618
         4 -15.0531     96.0926     70.3861   8.4974406560e+01   4.9924231130e+01     2.564828      1.64564 -34.86   0.01202672    1.542    0.351
         5 -15.9179     60.9087     71.4940   9.7102720452e+01   5.5318858641e+01     3.951446     2.215239  19.55   0.01825492    2.347    0.574
         6 -14.7705     70.5152     55.9756   8.8737739290e+01   5.7136493005e+01     2.714116      1.99419  86.72    0.0126793    2.660    0.624
         7 -13.3284     30.8671     10.2363   8.6564698729e+01   7.0183088014e+01     1.772744    0.5174211 -39.72   0.00769213    2.959    0.662
         8 -14.5889     79.3897     70.3364   9.0381037516e+01   5.2849936259e+01      2.84675     1.511993 -24.53   0.01072838    2.961    0.662
         9 -12.7695    138.0708      4.3383   5.0218580849e+01   5.0058190298e+01     1.413403    0.3118552  60.63  0.004672591    3.320    0.699
        10 -13.0884     80.4956     31.9073   7.5997700236e+01   5.9643538237e+01     0.777899    0.6339989  43.67  0.001806588    1.344    0.256
        11 -11.9100     73.1847      1.5598   6.4712661187e+01   6.4787668780e+01    0.2748239    0.1498292  49.71 0.0005307583    1.767    0.434
        12 -13.4148     83.4075     22.6036   7.1062896167e+01   6.0422031517e+01    0.8319074    0.5588688  46.69 0.0005107585    1.517    0.341
        13 -13.7712    123.8043     10.2120   5.5133951518e+01   5.3009148308e+01     1.721703    0.6418285  51.21 0.0003912761    2.254    0.556
        14 -14.2084     86.2313     11.9820   6.5464318596e+01   6.1165178889e+01     2.179384    0.5639785  52.52  0.007407959    3.618    0.724
        15 -14.5341     85.1926      3.7288   6.2011277193e+01   6.2229640176e+01     3.369743    0.6637179  57.23  0.009697055    5.694    0.824
        16 -12.7009    185.9606     11.9589   4.5645770370e+01   3.7072071440e+01     0.619642    0.5242921  45.13  0.002837762    1.272    0.214
        17 -12.1511    192.8959      6.0060   4.3144891573e+01   3.5902476426e+01    0.5668545    0.3725726 -42.73  0.002987505    1.524    0.344
        18 -11.3818    188.5494      5.2304   4.3411549789e+01   3.7086524786e+01    0.3355446    0.2624054   3.92  0.001192328    1.632    0.387
        19 -11.8486     64.7509     17.7930   7.5496800018e+01   6.4394161452e+01    0.4465075    0.3083589  21.26  0.001479097    1.396    0.284
        20 -11.2956    169.3347     10.3454   4.7348862208e+01   4.1527558172e+01    0.3513201    0.2105987  71.20  0.001688201    1.545    0.353
        21 -11.6116    149.4543      8.4679   4.9741373656e+01   4.6814274676e+01     0.615833    0.3158088  71.79  0.002708432    1.927    0.481
        22 -11.7561    175.2014     14.0247   4.7665915156e+01   3.9633482747e+01    0.3597215    0.3022543  21.94  0.001611539    1.389    0.280
        23 -10.6082     49.2287      4.3441   7.5123452852e+01   6.8553047350e+01    0.2241603     0.192242  17.63 0.0008395818    1.236    0.191
        24 -12.6807     75.8240     13.3975   6.9471393284e+01   6.3009380967e+01    0.4296435    0.3449508  -1.33 0.0009599006    1.116    0.104
        25  -9.1799    211.7165      1.6445   4.0103365212e+01   3.1620192962e+01    0.1282785   0.09638776  38.44 0.0005991713    1.666    0.400
        26  -9.9924    123.9798    205.9960   1.0673909360e+02   1.5252597440e+01    0.1808231    0.1556077  55.16  0.001128871    1.014    0.014
        27  -9.3298    246.4661    183.4964   7.8862757282e+01  -2.8845942309e+00    0.1300159    0.1077006   2.52 0.0008096961    1.007    0.007
        28 -10.8200     34.2034    177.1197   1.2238314369e+02   3.3971234922e+01    0.2511957    0.1698565   2.86  0.001349149    2.972    0.664
        29 -10.3083    100.9797    175.9882   1.0741352789e+02   2.5204349784e+01    0.1905876    0.1688166  73.54  0.001140137    1.005    0.005
        30 -11.0031    203.1581    172.7210   8.4646957656e+01   6.5924531743e+00    0.2707391    0.1627743 -27.33  0.001258911    1.843    0.457
        31 -11.1225    114.3717     97.2464   8.7565661391e+01   4.0687721759e+01       0.3501    0.2743998 -53.12   0.00103394    1.266    0.210
        32 -10.0722      2.3267    171.6569   1.2856799248e+02   3.8096254023e+01    0.1220528   0.06095461  68.61 0.0007050977    1.740    0.425
        33 -10.9389    189.1844     94.9054   6.8989096697e+01   2.3934343893e+01    0.5157613    0.3319253  74.01  0.002081777    2.124    0.529
        34 -12.7122    141.9145     95.6354   7.9774159213e+01   3.5093076983e+01    0.9033766    0.6969988  67.01  0.003034651    1.498    0.333
        35 -11.7567    199.7997    154.1136   8.1385170617e+01   1.0516218589e+01    0.4301859    0.3203215 -18.73  0.002147957    1.465    0.317
        36 -11.8830    118.0223     90.6442   8.4676289797e+01   4.1371158766e+01    0.3872305    0.2432214  41.17  0.001652577    1.655    0.396
        37 -10.6414    249.1237     86.0890   5.6846539326e+01   1.1584261119e+01    0.3191654    0.2624952  80.65  0.001798703    1.418    0.295
        38 -12.5886    128.1834     81.7954   7.9261913342e+01   4.1017984539e+01     0.451564    0.4128429  -8.15  0.001638825    1.148    0.129
        39 -12.5618    116.7006     67.8211   7.7989495995e+01   4.6268746599e+01     1.183401    0.6139262 -18.53  0.003712498    3.797    0.737
        40 -12.9206    126.0353     72.8961   7.7061390302e+01   4.3247276076e+01    0.7312512    0.3893646  60.58   0.00273382    2.460    0.593
        41 -13.0120    121.3932     81.2190   8.0932627436e+01   4.2621383971e+01    0.6495783    0.5276601  27.89  0.001796949    1.333    0.250
        42 -10.9136    112.9434     81.9909   8.3551119906e+01   4.4240444882e+01    0.3353162    0.2811268  34.28 0.0008417671    1.242    0.195
        43 -12.9485    115.7864     78.0291   8.1519760748e+01   4.4461362245e+01    0.5571513    0.4454513 -54.16  0.002774857    1.323    0.244
        44 -11.6277    119.9890     73.0062   7.8751260368e+01   4.4559958355e+01    0.3584582     0.287281  33.70 0.0009382694    1.297    0.229
        45 -11.5096    151.9113     73.2759   7.0704089102e+01   3.7086843187e+01    0.5793799     0.392333 -22.73  0.002509105    1.702    0.413
        46 -10.1742    148.6659     80.8346   7.3775542340e+01   3.6460610171e+01    0.3069196    0.2311002 -12.12 0.0007895969    1.644    0.392
        47 -12.8050    144.4228     75.7533   7.3249227609e+01   3.8439614141e+01     0.675272    0.5326098 -53.17  0.001879871    1.353    0.261
        48 -11.4542    233.4712    153.9765   7.5025765009e+01   3.8465610875e+00    0.2538911    0.2035804  60.88  0.001384281    1.620    0.383
        49  -9.2083    207.6738     77.6918   6.0962679060e+01   2.2435092119e+01    0.1522567    0.1174917  19.49 0.0003714825    1.654    0.395
        50 -10.0508    171.0896     72.7990   6.6367790640e+01   3.2400985737e+01    0.3409806    0.2237785  71.64  0.001428673    1.834    0.455
        51 -10.9057    146.6952     65.9021   6.9608863358e+01   3.9683127428e+01    0.3965547    0.2883103 -15.72  0.001522254    1.629    0.386
        52 -11.7030    135.5504     98.0476   8.2075943444e+01   3.6023607112e+01     0.548616    0.4599471  30.90  0.001909329    1.278    0.218
        53 -11.0186    214.4536     61.1369   5.5463611373e+01   2.3411932795e+01    0.4054129    0.2661027 -23.81  0.001342459    1.674    0.403
        54 -10.5883    170.0019     62.9887   6.3640310055e+01   3.4344439966e+01    0.3072733    0.2120356  51.72 0.0003668873    1.429    0.300
        55  -9.2956    166.0572     62.7715   6.4371868273e+01   3.5383383420e+01    0.2141626    0.2043412 -74.33 0.0002648616    1.071    0.067
        56 -12.0001    124.8103     57.3084   7.2227386516e+01   4.6371170483e+01    0.3619732    0.3062434  37.74 0.0006345765    1.171    0.146
        57 -11.1102    226.8182     56.9565   5.2645440324e+01   2.1048657158e+01     0.274637    0.2181715  75.53 0.0004103297    1.308    0.236
        58 -11.8289    174.7157     56.5310   6.0765889674e+01   3.4177728606e+01    0.2703911    0.2583662 -68.77  0.000307853    1.047    0.045
        59 -13.5913     42.2944     47.7774   9.6749409689e+01   6.2443718087e+01    0.7380454     0.578222   8.29   0.00244637    1.375    0.273
        60 -11.9065    133.8356     53.9531   6.8768515080e+01   4.4826392779e+01    0.6046064     0.322811  59.30   0.00184144    2.041    0.510
        61 -10.7857    154.7985     52.8537   6.3592979202e+01   3.9840105681e+01    0.5143567    0.2248277  40.23  0.001750549    2.804    0.643
        62 -11.3870    145.3036     50.6255   6.4936867655e+01   4.2567354753e+01    0.3366091    0.3066997 -39.16 0.0007969785    1.128    0.114
        63 -11.0882    137.4128     48.2250   6.5943031993e+01   4.4880230677e+01    0.3332763    0.2622068 -47.43 0.0009774563    1.369    0.269
        64 -11.0580    139.7400     43.6381   6.3823892976e+01   4.5005724297e+01     0.445589     0.265765  63.93  0.001825396    1.809    0.447
        65 -10.2180    126.9434     48.6697   6.8668015580e+01   4.7309961030e+01     0.238435    0.2021044  -6.62 0.0005103338    1.241    0.194
        66 -10.6166    119.4590     49.0492   7.0764536621e+01   4.8971293745e+01    0.2269489     0.195668  42.85 0.0004889741    1.141    0.124
        67 -10.7727    175.8798     45.6082   5.7229882282e+01   3.5520207788e+01    0.4463879    0.3365553  -5.60  0.002136715    1.642    0.391
        68 -10.3856    181.5978     43.5763   5.5639076497e+01   3.4329084332e+01    0.3660816    0.2134353  57.41 0.0006228036    1.640    0.390
        69 -11.5881    157.6063     43.4632   5.9964820203e+01   4.0539267657e+01    0.3701927    0.2629443  44.80 0.0007959782    1.405    0.288
        70 -11.3014    122.3450     43.9733   6.8173986178e+01   4.9112735365e+01    0.2893318    0.2645225  -7.68 0.0007537275    1.084    0.078
        71 -10.7008    203.5344     43.5148   5.2254636826e+01   2.8707895746e+01    0.2827388    0.2011064  55.60  0.001404032    1.421    0.296
        72 -13.7328     42.5531     42.2978   9.4737794366e+01   6.3469238303e+01     1.036977    0.5765927   6.72  0.004064746    2.519    0.603
        73 -12.1169    216.2695     38.8651   4.9301492618e+01   2.6154355073e+01    0.7439182     0.267315  59.13  0.002812658    2.634    0.620
        74 -10.6116    204.3240     37.5255   5.0491535935e+01   2.9321934422e+01    0.4716657    0.2136845  56.55   0.00192836    2.134    0.531
        75 -10.7981    197.0586     41.0047   5.2482290657e+01   3.0702110934e+01    0.2230243    0.2056047 -75.67 0.0005077362    1.034    0.033
        76 -10.9656     18.9968    154.4921   1.2371015240e+02   4.0457663113e+01    0.1587313    0.1139814  37.30  0.001007079    1.612    0.380
        77 -10.4930     29.7708    153.6094   1.2114058025e+02   3.9663430062e+01    0.1625038   0.09939949  49.53 0.0009475538    1.631    0.387
        78  -9.7322    138.5180    152.4945   9.4459821880e+01   2.3517257218e+01    0.1478611    0.1416822  64.93  0.000233371    1.002    0.002
        79 -11.1968    247.5098    145.9422   7.0879377244e+01   2.4767102721e+00    0.4213689    0.2852649  75.35   0.00187119    2.961    0.662
        80 -11.8392     58.6472    144.5625   1.1296276300e+02   3.8571318719e+01    0.6464862    0.3539914  55.53  0.003144895    1.966    0.491
        81 -12.9029     47.0128    141.9954   1.1556413491e+02   4.0554824429e+01    0.5058737    0.4735243 -42.62  0.002857193    1.328    0.247
        82 -10.0414     90.4846    145.4994   1.0497443814e+02   3.3813497104e+01    0.1417894    0.1289071 -88.67 0.0001975116    1.002    0.002
        83 -10.3721    159.9615     36.4161   5.7215545987e+01   4.0914408986e+01    0.2014145    0.1973098  55.02 0.0003080162    1.030    0.029
        84  -9.7807    240.5179     34.4613   4.5447352187e+01   2.0934256712e+01    0.1341818    0.1189179 -63.33 0.0001060181    1.023    0.022
        85 -11.0061    176.5934     33.3411   5.3359083057e+01   3.7009908978e+01    0.2791453    0.2452358  48.08 0.0005409892    1.157    0.136
        86 -10.2843     97.0659     33.9307   7.1459743576e+01   5.6137835060e+01    0.2200771     0.191376  10.27 0.0007388088    1.070    0.065
        87 -10.4964    151.0902     32.0618   5.7466180984e+01   4.3759112606e+01    0.4514568    0.2316153  58.18  0.001906218    1.805    0.446
        88 -10.2658    104.0247     29.5133   6.7647175507e+01   5.5298785612e+01    0.2163749    0.1303584  48.88  0.001034313    1.599    0.375
        89  -9.3250    216.3357     28.3106   4.6522657548e+01   2.7499882796e+01    0.1385371    0.1036645  36.24 0.0007044196    1.682    0.405
        90  -9.9469    108.8553     27.9508   6.5687246131e+01   5.4451304405e+01    0.2696585    0.1602585  38.04  0.001266195    1.653    0.395
        91 -11.5783    241.7101     22.7626   4.2547332745e+01   2.2121814917e+01    0.4094008    0.2694785 -78.11 0.0008860633    1.519    0.342
        92 -10.9256    153.5219     21.4782   5.3448256938e+01   4.4420181642e+01    0.3210645    0.2544418   2.77 0.0008608025    1.462    0.316
        93 -11.5784    149.7845     21.3923   5.4090519804e+01   4.5384702466e+01     0.416435    0.3133766  48.70  0.001509152    1.249    0.199
        94 -10.4622    139.4414     20.9745   5.5915283612e+01   4.8042071069e+01    0.2873712     0.201561  59.50 0.0007003204    1.325    0.246
        95  -9.3553    215.4404     20.4472   4.4574625008e+01   2.8670036226e+01    0.1370889    0.1210319 -74.74 6.000085e-05    1.013    0.013
        96 -10.7198    208.9153     19.0367   4.4916961133e+01   3.0456373891e+01    0.3622583    0.2243747 -57.35  0.001519166    1.621    0.383
        97 -10.1434    187.0072     18.7455   4.7481866867e+01   3.6067764751e+01    0.2691035    0.2011071 -35.06  0.001430322    1.385    0.278
        98 -11.4621    213.5035    142.2614   7.6064940433e+01   9.7832848418e+00    0.6784486    0.3613347  60.94  0.002600651    2.779    0.640
        99 -11.7099     76.2039    141.2061   1.0791269749e+02   3.6999158282e+01    0.4111443     0.214462 -82.69  0.001608845    2.743    0.635
       100 -11.0563    192.9861    138.2990   7.9184644671e+01   1.4875075509e+01     0.217697    0.1998093  40.65  0.001037705    1.095    0.086
       101 -10.8724     33.8962    135.7721   1.1811096691e+02   4.3386573038e+01    0.2297552    0.1524179  59.92  0.001080299    1.557    0.358
       102 -10.0144    199.7648     11.6310   4.3937393270e+01   3.3581018101e+01    0.1938638     0.119459  85.87 0.0004757904    1.614    0.381
       103 -11.5201     82.4339    133.7141   1.0493493943e+02   3.7850702559e+01    0.2309992    0.1859891  -0.31  0.001202946    1.760    0.432
       104  -9.8246     21.5242    133.5094   1.2100569847e+02   4.5031067298e+01    0.1235965   0.09731892 -83.55 0.0003137042    1.012    0.012
       105 -12.9367    204.3362    124.7438   7.3690082354e+01   1.4896404554e+01    0.7161073      0.47799 -29.48  0.003285489    1.524    0.344
       106 -11.0682    122.2866    127.3913   9.3033041998e+01   3.2329212763e+01    0.3951815    0.3704146  78.30  0.001578103    1.071    0.067
       107 -12.0633    218.9036    120.8135   7.0024865497e+01   1.2391809807e+01    0.3947118    0.1871368  40.58  0.001532765    2.348    0.574
