#   1 NUMBER                 Running object number                                     
#   2 MAG_AUTO               Kron-like elliptical aperture magnitude                    [mag]
#   3 X_IMAGE                Object position along x                                    [pixel]
#   4 Y_IMAGE                Object position along y                                    [pixel]
#   5 X_WORLD                Barycenter position along world x axis                     [deg]
#   6 Y_WORLD                Barycenter position along world y axis                     [deg]
#   7 A_WORLD                Profile RMS along major axis (world units)                 [deg]
#   8 B_WORLD                Profile RMS along minor axis (world units)                 [deg]
#   9 THETA_WORLD            Position angle (CCW/world-x)                               [deg]
#  10 FWHM_WORLD             FWHM assuming a gaussian core                              [deg]
#  11 ELONGATION             A_IMAGE/B_IMAGE                                           
#  12 ELLIPTICITY            1 - B_IMAGE/A_IMAGE                                       
         1 -13.0492    209.0308     43.8562   1.9238077358e+01   2.7601998469e+01    0.8614529    0.7972651  37.39  0.001036711    1.282    0.220
         2 -13.2729    233.8623     20.8935   1.0893302925e+01   2.4705040335e+01    0.9045109    0.7946782 -68.77  0.004022756    1.081    0.075
         3 -11.0210     15.1030     10.9639   6.1825926274e+01   7.1431150848e+01    0.2038526    0.1359484  12.41 0.0008398489    1.473    0.321
         4 -10.7050     51.2439      6.5601   4.2623221523e+01   6.7635687730e+01    0.2128976    0.1092279  45.82  0.001132745    2.125    0.529
         5 -15.8497     55.7885    234.4147   9.1452871242e+01   1.9203281319e+01     3.001334      2.57745 -51.92     0.021551    1.706    0.414
         6  -9.7055    114.4820    249.3182   8.1918622008e+01   8.1665287600e+00    0.2258092     0.163908  48.36  0.001466176    1.099    0.090
         7  -9.5559    101.0555    250.2997   8.4512650479e+01   1.0024390808e+01    0.1645379    0.1364215  46.93  0.001149171    1.184    0.156
         8 -16.1872     38.6567    182.7476   9.0420565510e+01   3.2063101227e+01     9.292466     1.585366  45.85   0.02677585    4.627    0.784
         9 -10.6064    125.7765    213.3738   7.5268461150e+01   1.2839732497e+01    0.2944153    0.1784896 -76.74  0.001392228    2.302    0.566
        10 -10.4232    141.4421    212.2540   7.1816856812e+01   1.0354195975e+01    0.2366043    0.2064526  68.46 0.0006868095    1.184    0.155
        11 -10.5892    192.7750    194.3425   5.8088885560e+01   4.3092657028e+00    0.3874993    0.2445716 -69.49  0.001530075    3.434    0.709
        12 -18.2843      7.9549    233.1626   9.9740157188e+01   2.4844747339e+01     7.095854     1.892242 -77.28   0.01842315    3.202    0.688
        13 -10.5236    108.9538    239.9390   8.1954356022e+01   1.0631767599e+01    0.2619981    0.1804729 -51.24   0.00158968    1.823    0.452
        14 -11.5345    127.8654    191.2852   7.1482268320e+01   1.6933278828e+01    0.3546968    0.2104893 -61.96  0.001652433    1.894    0.472
        15 -10.9605    161.6393    187.1987   6.3291976924e+01   1.1488721745e+01    0.4799703    0.2446859 -57.18  0.001499988    2.522    0.604
        16 -10.4784     77.2344    186.9692   8.2311055308e+01   2.6161242643e+01    0.4566761    0.2353712 -61.59  0.001528696    1.888    0.470
        17 -10.3673     75.4883    181.4569   8.1997522768e+01   2.7661193345e+01    0.3659382    0.2110292  66.61  0.001169721    1.928    0.481
        18 -15.6814      8.7189    207.6273   9.8278945996e+01   2.9775586063e+01    0.8851578    0.6237596  -8.24  0.005258312    3.275    0.695
        19 -11.6389     97.7232    180.8712   7.6750752925e+01   2.4383355940e+01    0.5331445    0.3222046  43.05  0.001732622    1.582    0.368
        20 -10.3557    121.5169    180.9957   7.1227896432e+01   2.0276710555e+01    0.2172839     0.139964 -55.32  0.001038804    1.615    0.381
        21 -11.3084    127.3725    178.0737   6.9365163273e+01   1.9851905830e+01    0.4525307    0.2833614  87.50  0.001799372    2.688    0.628
        22  -9.8802    172.7150    177.9005   5.9114896459e+01   1.1168551055e+01    0.2456997    0.2302979   9.61 0.0007150542    1.064    0.060
        23 -10.2976    114.1431    178.1587   7.2472740650e+01   2.2213088055e+01    0.2001628    0.1594855  73.66 0.0004613879    1.303    0.233
        24  -8.8531     97.2887    176.3170   7.6156125711e+01   2.5488368411e+01    0.1320528    0.1108648 -27.03 0.0002352404    1.593    0.372
        25 -11.3785    180.7791    173.8998   5.6584496662e+01   1.0356461582e+01    0.4926276    0.4275015  18.29  0.002142559    1.159    0.137
        26 -10.4129    179.6042    168.1968   5.5663242951e+01   1.1702595179e+01    0.2703831    0.2467481  47.85    0.0010531    1.120    0.108
        27  -9.7939    199.2649    172.4034   5.2440488985e+01   7.0050183697e+00    0.2505665    0.1751958 -58.23  0.001183861    1.877    0.467
        28 -10.6088    114.5051    172.9928   7.1511728952e+01   2.3308826446e+01    0.2212394    0.1400315 -56.41  0.001037247    1.607    0.378
        29 -11.8446    102.8676    171.1626   7.3994462289e+01   2.5743593937e+01    0.5467933    0.3822758  74.15  0.002666854    1.642    0.391
        30  -9.7138     69.8292    173.1654   8.2221886032e+01   3.0373109187e+01    0.1633675    0.1582685 -59.29 0.0003908688    1.266    0.210
        31 -12.4537     55.5230    146.2626   8.1987377076e+01   3.8657360180e+01     1.301024    0.6455697 -75.98   0.00573481    2.088    0.521
        32 -10.9864     81.9890    151.7472   7.5952230732e+01   3.3693417350e+01    0.3828252    0.2692263 -89.68  0.001164772    1.578    0.366
        33 -14.2644     68.9817    144.6147   7.8169085560e+01   3.7305952351e+01     2.171827     1.246081 -86.79  0.003020046    2.249    0.555
        34 -10.5546    110.4776    167.1681   7.1466718068e+01   2.5349059818e+01     0.301465     0.224362 -78.67  0.001504748    1.467    0.318
        35 -11.1515    247.8673    166.1125   4.2083418859e+01  -8.7380031879e-01    0.3234709    0.2675923 -35.90  0.001143654    1.240    0.194
        36 -10.7489    246.6852    162.3432   4.1498142692e+01  -7.0717895499e-02    0.2675845    0.2102491 -52.91  0.001064161    1.596    0.374
        37 -10.6182    229.8024    166.0048   4.5231847114e+01   2.3427019499e+00    0.1886927    0.1600523  66.94 0.0007376453    1.612    0.380
        38 -10.5446     55.3220    162.8115   8.4341701084e+01   3.4716455735e+01    0.5631101    0.2523441  56.90  0.002374916    2.598    0.615
        39  -9.7944    156.3259    224.3029   7.0561242093e+01   5.6093938429e+00    0.1287169    0.0973158  11.04 0.0003186693    1.641    0.391
        40  -9.6192     39.2841    161.9552   8.8107946949e+01   3.6777848774e+01    0.2968142    0.1595322  36.05  0.001550961    2.001    0.500
        41  -9.4899    244.7717    157.0166   4.0698575637e+01   1.1260320170e+00    0.1840754    0.1020179 -35.07  0.000661231    1.636    0.389
        42  -9.4894     92.5446    155.9062   7.3955986308e+01   3.1035337498e+01     0.217453     0.178253  80.03 0.0003270197    1.236    0.191
        43 -11.2638    133.8532    146.1351   6.1538248399e+01   2.5770259870e+01     1.256454    0.3174622 -54.81  0.002957887    5.706    0.825
        44 -11.7678     88.9263    146.6760   7.3236706120e+01   3.3833462962e+01    0.5907571    0.4384645 -15.83  0.001664388    2.063    0.515
        45 -10.1782     67.5733    249.1156   9.0472692355e+01   1.4955040886e+01    0.2385441    0.1875384 -49.13  0.001644279    1.923    0.480
        46 -12.7041     82.7850    167.1044   7.8231218699e+01   2.9912494340e+01     1.312867    0.8895251  41.33  0.006814957    1.496    0.332
        47 -11.8624     69.8391    163.3453   8.0853923701e+01   3.2681857434e+01    0.4326024    0.3744738 -17.59  0.001568706    1.596    0.373
        48 -11.3889    104.7977    132.1288   6.6038557691e+01   3.4627669309e+01    0.6808913    0.4168555 -31.46  0.002129414    2.255    0.556
        49  -9.7563     38.5280    133.2367   8.4620438844e+01   4.3709628490e+01    0.4558506    0.1313721 -52.56  0.001692739    3.119    0.679
        50 -11.5258     90.4061    133.1969   7.0215279882e+01   3.6851306078e+01    0.2799517    0.2488937 -51.40 0.0004447552    1.120    0.107
        51 -10.4804     43.8085    129.6785   8.2627065669e+01   4.4019199129e+01    0.2143932    0.1686509  80.23  0.000725352    1.292    0.226
        52 -11.1228    136.7102    128.2987   5.6725567977e+01   2.9237713257e+01    0.6182125      0.38601 -68.73  0.002391684    2.252    0.556
        53 -10.8003    111.7837    126.7917   6.2932612917e+01   3.4599156432e+01    0.3266865     0.241839  13.31 0.0007538571    1.857    0.461
        54 -12.0864     73.7410    158.3190   7.9130364232e+01   3.3330690530e+01    0.4586984    0.3605185 -75.82  0.002574756    1.168    0.144
        55  -9.5242    106.9132    123.8934   6.3595298957e+01   3.6195555150e+01    0.2705531    0.2202517  83.40            0    1.437    0.304
        56 -10.3823     98.9613    122.0728   6.5398419703e+01   3.8065647571e+01    0.2944356    0.2537358  -2.41 0.0008064709    1.416    0.294
        57  -9.2906     93.4989    124.9925   6.7602356171e+01   3.8312390371e+01     0.207964    0.1991946  55.92 0.0003480873    1.096    0.087
        58  -9.3266    197.5462    168.4631   5.1966980615e+01   8.0677665155e+00    0.1442941    0.1346273   5.46 4.585303e-05    1.005    0.005
        59  -9.8029     58.1657    119.6699   7.6758177805e+01   4.4790164567e+01    0.4197794    0.1600175  36.15  0.001686693    2.785    0.641
        60 -10.2000     54.4824    117.4969   7.7438402710e+01   4.5762980184e+01    0.2442657    0.2109043 -64.25  0.001460158    1.011    0.011
        61  -9.5852     32.0749    118.7060   8.4261513001e+01   4.7820563121e+01     0.175747    0.1566867 -71.04  0.000829763    1.083    0.076
        62  -9.3823    107.9417    116.5271   6.1543880895e+01   3.7732507435e+01     0.222746    0.1962679 -51.49 0.0003647702    1.091    0.083
        63  -9.7213    205.4234    110.1981   3.6912333570e+01   1.7440747866e+01      0.25826    0.2143312  49.16 0.0005906057    1.261    0.207
        64 -11.5578    116.0835    108.9804   5.7346306897e+01   3.7884203621e+01    0.5087332    0.3366149  62.32  0.002154833    1.924    0.480
        65 -11.4601     33.1953    108.5917   8.2266879762e+01   5.0128147791e+01    0.3367466    0.2987005  46.13  0.002167178    1.315    0.239
        66 -10.1177    134.3657    105.3733   5.1445212621e+01   3.4840960132e+01    0.4026514    0.1436799 -48.77  0.001251835    2.943    0.660
        67 -10.7232     40.1179    103.1733   7.9110117352e+01   5.0753465672e+01    0.3659037    0.2048946  49.40  0.001791168    2.223    0.550
        68 -11.1574     52.4869    107.3142   7.6039349414e+01   4.8439756223e+01    0.4475243     0.235712 -71.49  0.001804573    2.071    0.517
        69 -10.5822     33.8662    100.4097   8.0575702704e+01   5.1997011469e+01    0.2597544    0.1897138 -65.55 0.0007084135    1.167    0.143
        70  -9.4641     90.2249    236.1351   8.5147246317e+01   1.4142575313e+01    0.2842236    0.1507969  73.71  0.001393742    2.388    0.581
        71  -9.2669     60.3076     94.6687   7.0706349611e+01   5.0454049068e+01    0.1360095    0.1057034  83.54 0.0003542576    1.664    0.399
        72 -10.7967     32.1329     86.1425   7.8273054035e+01   5.5446602031e+01    0.2661258    0.2334496  74.89  0.001380267    1.363    0.266
        73  -9.5209    101.2078    245.8376   8.4041568906e+01   1.0771176985e+01    0.1902256    0.1795451 -84.50  0.001050285    1.310    0.237
        74  -8.3978     67.2922     83.2893   6.5421154039e+01   5.2084013304e+01    0.1390741    0.1001262 -23.65 0.0002056233    1.546    0.353
        75  -9.7008     45.6705     73.2924   7.0310984145e+01   5.6971226049e+01    0.1217009    0.1015072  78.73 0.0002879718    1.627    0.385
        76 -10.4687     37.3824     70.5146   7.2639119165e+01   5.8423567520e+01    0.1988674     0.176905  58.03 0.0007806073    1.442    0.306
        77 -10.7037     32.6305     68.4974   7.3901486947e+01   5.9299636445e+01    0.2021358    0.1770668 -69.78 0.0008033867    1.278    0.218
        78 -12.9617    186.6199     60.8109   2.7213998910e+01   3.0641905491e+01     2.041761     1.159248  30.72  0.006962377    2.858    0.650
        79  -9.1682    241.5415    249.5306   5.8523216893e+01  -1.1367672663e+01    0.1158268   0.08626325  12.88 0.0001264909    1.014    0.013
        80 -13.2204    202.8250     49.1662   2.1482271095e+01   2.8369650447e+01     1.003745    0.7636482  26.82  0.004117265    1.767    0.434
        81  -9.0816     42.6895     38.3026   6.0201787936e+01   6.4183005627e+01    0.1070403    0.1004736 -81.20 0.0002890061    1.608    0.378
        82 -10.7705    102.7171    239.8926   8.3144002783e+01   1.1593573322e+01    0.4590898    0.2378342 -46.16  0.001635091    2.803    0.643
        83 -10.1222    124.7691    247.9769   7.9837495536e+01   6.7970818462e+00    0.1994639    0.1619117 -35.40  0.001179364    1.705    0.414
        84  -9.6288     60.4647     21.0087   4.5725780798e+01   6.4406524035e+01    0.1853925    0.1484047  15.94 0.0003827621    1.112    0.101
        85 -10.2106     45.9958     18.5068   5.0505346125e+01   6.6882917458e+01    0.1790991    0.1405071 -12.04 0.0003869286    1.061    0.057
        86 -10.1434    125.0000    243.9593   7.9332340691e+01   7.4307167439e+00    0.1978221    0.1567873 -66.35 0.0009009822    1.497    0.332
