#   1 NUMBER                 Running object number                                     
#   2 MAG_AUTO               Kron-like elliptical aperture magnitude                    [mag]
#   3 X_IMAGE                Object position along x                                    [pixel]
#   4 Y_IMAGE                Object position along y                                    [pixel]
#   5 X_WORLD                Barycenter position along world x axis                     [deg]
#   6 Y_WORLD                Barycenter position along world y axis                     [deg]
#   7 A_WORLD                Profile RMS along major axis (world units)                 [deg]
#   8 B_WORLD                Profile RMS along minor axis (world units)                 [deg]
#   9 THETA_WORLD            Position angle (CCW/world-x)                               [deg]
#  10 FWHM_WORLD             FWHM assuming a gaussian core                              [deg]
#  11 ELONGATION             A_IMAGE/B_IMAGE                                           
#  12 ELLIPTICITY            1 - B_IMAGE/A_IMAGE                                       
         1 -10.8845     19.1828     27.4343   8.1869486891e+01   7.0284835833e+01     1.210789    0.3539117 -51.29  0.004465891    4.022    0.751
         2 -10.5904     60.8497     32.6495   6.3771052391e+01   6.3295119589e+01    0.9974332    0.5765674  14.02  0.004393841    2.452    0.592
         3 -11.1246     78.8469     33.0116   5.7356857870e+01   5.9703679270e+01     1.391391    0.6142242  30.14  0.004935312    3.429    0.708
         4 -10.1244     31.2322     12.3785   6.7455046448e+01   7.1032489964e+01    0.4203671    0.3834206   1.03  0.002386204    1.291    0.225
         5 -10.5235     42.3138     15.8335   6.3748562348e+01   6.8838481261e+01    0.5833979    0.3182334  30.29  0.002558669    1.723    0.420
         6  -9.8574     42.3584     30.7110   7.1022814133e+01   6.6714040389e+01    0.5950347    0.2436125 -37.53  0.002630531    2.414    0.586
         7 -11.2007     28.4851     30.1786   7.7871885869e+01   6.8734972144e+01    0.8510437    0.4847725 -17.11 0.0004918345    2.008    0.502
         8 -11.0238     37.0755     26.3124   7.1559897367e+01   6.8188982863e+01    0.8263311     0.538326 -59.43  0.003720803    2.918    0.657
         9 -10.7839     85.5672     21.9548   5.0636496545e+01   5.9632245659e+01    0.5989322     0.348898  66.85  0.001294362    1.995    0.499
        10 -10.6865    153.7161     22.7526   3.7183651687e+01   4.3369289762e+01    0.3664159    0.2693838  14.26 0.0003450728    1.912    0.477
        11  -9.3000    144.2217     18.7118   3.7324073793e+01   4.6094086006e+01    0.7474322    0.2304002 -22.93  0.002613855    4.138    0.758
        12 -10.7026    149.6960     17.1460   3.6078786909e+01   4.4927935458e+01      0.50738    0.2957443 -85.07   0.00245793    1.944    0.485
        13 -10.7404    145.6444     12.5967   3.5260177197e+01   4.6352942162e+01    0.7760034    0.2340969  64.64  0.003008971    2.690    0.628
        14 -12.2051    161.0550      2.2674   3.0476583208e+01   4.3601041715e+01    0.3991331    0.3007295  68.27 0.0008752085    1.220    0.180
        15 -12.4916    105.0890     20.7594   4.5171436147e+01   5.5306610556e+01    0.3915611    0.2659636  55.37 0.0004000892    1.296    0.228
        16  -9.6662     77.3289     11.6744   4.8563323321e+01   6.2503746034e+01    0.6834883    0.3529702  25.97  0.003102349    2.401    0.584
        17 -10.1142     69.8258     11.4470   5.0758684668e+01   6.4121222737e+01    0.2290781    0.1884341  15.90  0.000156949    1.166    0.142
        18 -10.6427     68.6949     16.8365   5.3646749051e+01   6.3792113147e+01    0.4160705    0.3401176  80.69  0.001646966    1.691    0.409
        19 -11.8792     61.9744     17.1674   5.6188100856e+01   6.5102116921e+01    0.4879622    0.2915539  27.43  0.001287718    1.700    0.412
        20 -10.8529    219.8064     19.2220   2.9471316759e+01   2.8780760372e+01    0.4832654    0.2688213  86.18   0.00274591    1.757    0.431
        21  -9.5824    225.7289     16.2497   2.8405477406e+01   2.7900138279e+01    0.2642877    0.1539758 -36.73  0.001029701    1.613    0.380
        22 -10.5319    230.4733     14.5144   2.7721568646e+01   2.7139874138e+01    0.3283302    0.2153787 -83.38   0.00111761    1.375    0.273
        23 -10.6391    166.1122     18.1431   3.4287546184e+01   4.0891047270e+01    0.3764729    0.2978504  11.85   0.00062309    1.750    0.428
        24 -10.4735      6.1742      9.2365   8.1135067063e+01   7.4572437319e+01    0.4403116    0.2622625   9.49  0.001899041    1.567    0.362
        25 -10.6712     23.6282      6.8923   6.8584456020e+01   7.2836583207e+01     0.503768    0.4432043  23.95  0.002802783    1.373    0.272
        26 -10.8271     16.3314      3.4253   7.0949663629e+01   7.4255707091e+01    0.5176536    0.3243774  15.18  0.003169995    1.429    0.300
        27 -11.1560      8.4325     15.2393   8.2751950699e+01   7.3409255311e+01    0.5877246    0.3463878  -0.82  0.002148879    1.687    0.407
        28 -12.6583     14.4067     11.3695   7.6789750775e+01   7.3388936075e+01    0.3606882    0.3035953 -32.60 0.0002799988    1.411    0.291
        29  -9.8010    199.7511     18.5341   3.0957931892e+01   3.3135241852e+01    0.3598551    0.1613216 -24.91  0.001659548    2.715    0.632
        30 -10.9292    182.0468     18.5508   3.2645763807e+01   3.7121108791e+01    0.3940527    0.2217096  55.10 0.0009707884    1.880    0.468
        31 -10.5729    167.2160      7.9581   3.1395902560e+01   4.1638665908e+01    0.6897113    0.3298599  51.06    0.0033064    2.279    0.561
        32 -11.8499    177.5838      3.1944   2.9165874897e+01   3.9669260431e+01    0.3525956    0.2406506  69.13 0.0003708716    1.360    0.265
        33 -11.0048    175.1541     13.0108   3.1921878419e+01   3.9291598547e+01    0.5059062    0.3979637  87.19  0.002683909    1.116    0.104
        34 -10.9445    182.6801     12.8840   3.1147772368e+01   3.7566868167e+01    0.5907378    0.2656367  79.89  0.002480749    2.154    0.536
        35 -11.1926    132.9949     12.4192   3.7016401995e+01   4.9432669151e+01    0.2751198    0.2330604 -37.82 0.0004337083    1.300    0.231
        36  -9.7354    128.3857     10.8169   3.7205440047e+01   5.0695443206e+01    0.5987552    0.2576555 -20.29  0.002537258    2.818    0.645
        37  -9.6586    116.9628     14.8081   4.0537935874e+01   5.3080322291e+01    0.2569932    0.2075864  -7.80  0.001013337    1.451    0.311
        38  -9.9263    244.1495     13.2717   2.6617141988e+01   2.4630196498e+01    0.3450841     0.251422   9.83  0.002067257    2.800    0.643
        39  -9.8146    210.2835     14.3933   2.9139339511e+01   3.1304165958e+01    0.2873509    0.1718573 -22.63  0.001597621    2.098    0.523
        40  -9.6222    211.8436      9.1272   2.7857463732e+01   3.1525871888e+01    0.2806535    0.1809824 -78.62  0.001207288    1.366    0.268
        41 -10.7980    208.6218      3.4792   2.6839428166e+01   3.2774015115e+01    0.4377988    0.2740178 -65.38    0.0014403    1.359    0.264
        42 -10.9697    154.0260      4.5346   3.1858175233e+01   4.5072122153e+01    0.5531794    0.2395154  51.41  0.002533847    2.365    0.577
        43 -10.8134     97.5958     12.4330   4.3645325262e+01   5.7880098581e+01    0.4889202    0.2218974  50.07 0.0009283358    1.871    0.466
        44  -9.4368     98.1828      6.5055   4.1162811587e+01   5.8263787434e+01    0.2809898    0.1865427  35.19  0.001184415    1.518    0.341
        45  -9.9320    218.3225     11.0649   2.7821933751e+01   2.9971260734e+01    0.3467374      0.17171 -54.69  0.001355085    1.713    0.416
        46 -10.1893    191.7663      8.9813   2.9376301662e+01   3.5903475864e+01    0.4233967    0.2481284 -35.82  0.002420058    1.691    0.409
        47 -10.7515    195.4918      3.4671   2.7775424387e+01   3.5614020259e+01    0.4571417    0.2602326  69.79  0.002307792    1.641    0.391
        48  -8.5069     51.3492     11.9104   5.7728153055e+01   6.7717453174e+01    0.2326951    0.1554406  12.22 0.0005871864    1.541    0.351
        49  -8.7732     56.1160     10.6411   5.5184110440e+01   6.6956293873e+01    0.2535758    0.2067176   9.02  0.001159159    1.142    0.124
        50  -9.4364     52.6170      7.8165   5.5093370886e+01   6.7915798642e+01    0.2873563    0.2158111 -51.40  0.001412272    1.988    0.497
        51  -8.7815    159.4935     11.1672   3.3119641470e+01   4.3163162342e+01    0.1745527    0.1234109 -33.36  0.001009072    1.523    0.344
        52  -9.2972    119.9170      9.4371   3.8121934740e+01   5.2861335767e+01    0.2284648    0.1918449  -1.17 0.0007217402    1.408    0.290
        53  -8.5029     88.0893      6.9987   4.3656208572e+01   6.0540715504e+01    0.3889619    0.3079867 -32.43  0.002398398    1.451    0.311
        54  -9.2158     92.7531      7.6226   4.2813786572e+01   5.9424577486e+01    0.2425956    0.1928296  82.00 0.0006416347    1.386    0.279
        55 -12.2704     91.8311      2.7432   4.1014654146e+01   6.0032135219e+01    0.3006208    0.2351473 -54.26  0.001827081    1.563    0.360
        56  -8.1965    224.2988      8.6671   2.6915017268e+01   2.8999713569e+01    0.1258279   0.06528567 -60.71 0.0006808852    1.648    0.393
        57 -11.8118     74.0285      4.4867   4.6239944166e+01   6.3864058022e+01    0.5236332    0.4233339  19.27   0.00183407    1.212    0.175
        58  -9.0442     79.4202      4.2148   4.4639065217e+01   6.2710311379e+01    0.2245479    0.1904718  41.14 0.0006130877    1.021    0.021
        59  -9.2657    202.0679      6.8097   2.8052561277e+01   3.3851447663e+01    0.2150391    0.1435639  62.69  0.001155861    1.590    0.371
        60 -10.5875    106.7362      5.6764   3.9126974246e+01   5.6324635565e+01    0.4680223    0.3953703  -0.06  0.002450719    1.362    0.266
        61  -9.4596     62.9652      6.5596   5.0669392024e+01   6.6003000804e+01    0.3317379    0.2051783  66.77  0.001739724    1.989    0.497
        62  -9.2563    234.2851      2.6381   2.5095337167e+01   2.7635487797e+01    0.1788541    0.1097523 -74.56   0.00050292    1.371    0.270
        63  -9.4114     38.5460      4.7965   5.9522071746e+01   7.0762519813e+01    0.2678849    0.2247906  66.37   0.00172165    1.833    0.454
        64  -9.7916    248.2836      4.7077   2.4750379298e+01   2.4767473508e+01    0.1926861     0.139474 -89.59 0.0009009103    1.310    0.237
        65 -10.9173    250.0203      1.5595   2.4074819272e+01   2.4770931417e+01    0.1824575    0.1442208 -69.75 0.0003755803    1.116    0.104
        66 -10.4876    218.2101      3.2348   2.6161896935e+01   3.0794429796e+01    0.2746789    0.2369934  68.71  0.001497595    1.392    0.281
        67  -8.5860    184.7728      5.0979   2.9022054269e+01   3.7853370781e+01     0.161431    0.1379037 -77.84 0.0003905904    1.046    0.044
        68  -9.2703    119.8333      2.5411   3.5742048561e+01   5.3451383927e+01    0.2553307     0.186714 -21.89  0.001360605    1.587    0.370
        69 -10.7799    115.6846      1.9181   3.6184280821e+01   5.4492388059e+01    0.2473769    0.2254787  71.61 0.0002985178    1.065    0.061
        70  -9.7990    126.8071      2.0460   3.4531483251e+01   5.1814945458e+01    0.3991951      0.16858  45.37  0.001582692    2.472    0.595
        71 -10.7295     30.5293      2.3142   6.2056942756e+01   7.2347798352e+01    0.2318425    0.1942284 -31.77  0.001595511    1.534    0.348
        72  -9.1762    144.3442      2.0447   3.2242596153e+01   4.7598075720e+01    0.2575267    0.1674474  87.04  0.001441064    1.428    0.300
        73 -10.0585    135.4270      1.6302   3.3221883777e+01   4.9773731324e+01    0.2579531    0.1532173  80.46  0.001369643    1.545    0.353
        74  -8.7921    185.5597      1.3521   2.8041596959e+01   3.8023503633e+01    0.1981344    0.0987291  76.13  0.000762869    1.774    0.436
        75 -10.5466    236.4884      5.5412   2.5545959640e+01   2.6911860974e+01    0.4074551    0.3041579  24.27  0.002304395    2.496    0.599
        76  -8.7449      4.8392      1.4397   7.7566636362e+01   7.5849894145e+01    0.2066283   0.09489368  19.72   0.00110994    2.121    0.529
        77  -9.0172     50.9059    126.5332   9.6406113948e+01   4.4309842239e+01    0.1989031    0.1458248  27.42 0.0003319544    1.470    0.320
        78  -9.7630    201.3884    249.4833   7.9848058306e+01  -4.4724011932e+00    0.2119918    0.1673488  11.55 0.0006661444    1.112    0.101
        79 -10.2610    115.7799    248.4782   9.7025519708e+01   7.0660973947e+00    0.2399152    0.2281653  48.13   0.00143761    1.170    0.146
        80  -8.7787    241.4757    124.0380   4.9694213872e+01   9.6192002463e+00     0.206065     0.105631 -39.04  0.001029781    1.591    0.371
        81  -9.9374     71.9309    123.2002   8.8680267453e+01   4.2268830656e+01    0.2520663    0.2069705 -50.81 0.0002463552    1.159    0.137
        82 -10.4971     61.7068    121.2180   9.1680140909e+01   4.4268816858e+01    0.4409477    0.2342357 -47.71 0.0004942029    1.801    0.445
        83  -9.9676      6.1402    122.5184   1.1097711164e+02   4.9453564222e+01    0.3710153    0.2605791  -5.20  0.001662477    1.765    0.433
        84  -9.5822    236.9896    121.2857   4.9746507669e+01   1.0812167408e+01    0.1775761    0.1624918 -29.78  0.001169064    1.112    0.100
        85  -9.1907     29.1970    120.6401   1.0282961216e+02   4.8180385335e+01    0.2520596    0.1783763 -68.71 0.0005651487    1.268    0.212
        86  -9.8751      3.1196    109.0916   1.1039337476e+02   5.3054116311e+01    0.3353793    0.2545013  62.22  0.001163706    1.468    0.319
        87 -11.6166     21.8087    119.4134   1.0521279253e+02   4.9139837591e+01    0.5381929    0.4245541  72.34  0.003027861    1.371    0.271
        88 -11.0611     21.6308    107.0646   1.0330134482e+02   5.2333109775e+01    0.7309994    0.3337544 -67.64  0.003177417    1.931    0.482
        89 -10.2330     15.9145    108.2465   1.0561515336e+02   5.2465884538e+01    0.3421115    0.2881123 -49.36  0.001147869    1.106    0.096
        90 -10.3835     10.1372    114.7987   1.0864592738e+02   5.1182281900e+01    0.6226853    0.2857335  73.20  0.002345648    3.329    0.700
        91  -9.7950     14.0435    113.3734   1.0706360109e+02   5.1285295346e+01    0.2544979    0.2244813 -62.31 0.0004678848    1.036    0.035
        92  -9.7498    221.2298    119.4484   5.1665630841e+01   1.3876622737e+01    0.2593848    0.2395593  -6.58 0.0007811164    1.175    0.149
        93  -9.4102     93.8636    118.9154   8.0606001412e+01   3.9664791617e+01    0.2668156    0.2477822 -27.11 0.0006127853    1.087    0.080
        94  -8.9355     38.4049    118.7349   9.9276524632e+01   4.7765963735e+01    0.2102067    0.1162736 -54.95 0.0009459566    1.595    0.373
        95  -9.4633     32.8170    118.0894   1.0113355176e+02   4.8499941741e+01    0.2732635    0.1595696 -55.83  0.000448385    1.500    0.333
        96 -10.0983     33.8744    114.1760   1.0006337371e+02   4.9408705500e+01    0.4186893     0.257873  69.84  0.001567572    2.209    0.547
        97  -9.6801      3.7789    116.9314   1.1112328445e+02   5.1022652384e+01    0.3221183    0.2753595 -41.07  0.002028955    1.223    0.183
        98 -10.4820     45.0439    119.4661   9.7082005435e+01   4.6843408333e+01    0.3712007    0.2577022  32.41    0.0010722    1.539    0.350
        99  -9.2857     70.3287    116.3003   8.7654868172e+01   4.4259562849e+01    0.2772694    0.2010633  74.73 0.0005811575    1.874    0.466
       100  -8.3905     80.4491    115.4845   8.4070285412e+01   4.2844235147e+01    0.1519414    0.1466357 -56.87 9.992344e-05    1.036    0.035
       101 -10.2345     47.1398    113.8700   9.5231519539e+01   4.8040640191e+01    0.3317999    0.2645017 -13.74  0.001061794    1.432    0.302
       102  -8.4721    162.4119    113.5535   6.1035200142e+01   2.6772375108e+01    0.1502756    0.1421072 -40.15  4.75284e-05    1.010    0.010
       103  -9.1192     84.5638    121.6555   8.4211056480e+01   4.0621510641e+01    0.3978421    0.1655985 -46.91    0.0014034    2.345    0.574
       104  -8.4927    122.2813    112.3428   7.0550776080e+01   3.5628463144e+01    0.1593876    0.1233654 -11.10 0.0007011453    1.633    0.387
       105  -9.1032     76.9131    111.2598   8.4211493471e+01   4.4471509664e+01    0.3872973    0.2739132 -10.49 0.0008827049    1.915    0.478
       106  -8.7171    103.8532    119.1471   7.7610384134e+01   3.7748271444e+01    0.2097891    0.1825835  -2.25 0.0002504789    1.286    0.223
       107  -9.4101     37.5597    106.2229   9.7175834489e+01   5.1071095742e+01    0.3640637    0.1887674 -36.00  0.001281627    2.182    0.542
       108  -8.7457     39.6731    102.7118   9.5640676941e+01   5.1733160614e+01    0.2312775    0.1822787 -39.90 0.0006509693    1.207    0.172
       109  -9.8908     44.2986     99.8883   9.3244062669e+01   5.1916202856e+01    0.3505373    0.2024325  34.31  0.000988318    1.846    0.458
       110  -9.5830     39.6945     99.0840   9.4835019499e+01   5.2640717624e+01     0.325325    0.2476411  24.53 0.0008391886    1.424    0.298
       111  -8.6424      8.3928    105.8553   1.0803349925e+02   5.3572918228e+01    0.2099987   0.09252068 -58.77 0.0009479185    1.803    0.445
       112 -10.4553     71.0555    101.0797   8.3630480624e+01   4.7900716466e+01    0.5320723    0.1995833 -49.18  0.001527771    2.473    0.596
       113  -9.3226    132.3167    103.9251   6.5607152766e+01   3.5316503651e+01    0.2580305    0.2128029  61.26 0.0006672629    1.323    0.244
       114 -10.4099    118.9411    102.9822   6.8931105884e+01   3.8398177457e+01    0.4168361    0.2853215  15.93            0    2.078    0.519
       115 -10.3674    114.5829    101.7657   6.9822024672e+01   3.9582424537e+01    0.3210928    0.2636542  77.60  0.000674222    1.514    0.340
       116 -11.7310    117.6219     97.9535   6.7882180757e+01   3.9765160581e+01     0.346361    0.2940797 -12.99 0.0002815752    1.325    0.245
       117 -10.5423    101.4047    102.5454   7.3954424125e+01   4.2094535358e+01    0.5093623    0.4073465  39.46  0.001149738    1.270    0.213
       118 -10.2657     51.4865    100.9953   9.0774976726e+01   5.0754292272e+01    0.4878119    0.2370866 -69.18  0.001825276    2.586    0.613
       119  -8.2462     43.4466    106.4427   9.5022738795e+01   5.0367441321e+01    0.1417398    0.1323465 -69.62 4.092486e-05    1.085    0.079
       120  -8.6119    127.2733    102.0132   6.6396068580e+01   3.6819016359e+01    0.2148249    0.1980878 -40.39 0.0002328183    1.069    0.064
       121  -9.0672     86.5470     96.3536   7.6978585156e+01   4.6345988629e+01      0.27381    0.2391585  41.88  0.000750696    1.187    0.158
       122 -10.1870     80.1254    100.6745   8.0359444179e+01   4.6486452331e+01    0.4832586    0.3859791  30.52  0.001622126    1.294    0.227
       123  -9.9097     80.3881     95.7024   7.8887182692e+01   4.7603844044e+01    0.5026419    0.3202134  45.65  0.002232546    1.692    0.409
       124  -8.2626     29.4901    102.4639   9.9482326576e+01   5.2824300405e+01     0.140223    0.1239912 -53.41 1.240544e-05    1.004    0.004
       125  -8.7401    177.0085    101.3052   5.4952802493e+01   2.5980713160e+01    0.1908729    0.1855873  77.35 0.0003728174    1.083    0.077
       126  -9.6093     95.0112    100.1601   7.5290844619e+01   4.3883874257e+01    0.2433472    0.2120025 -38.74 0.0002865984    1.124    0.110
       127  -9.4445     59.2986     97.2843   8.6917598192e+01   5.0601153356e+01    0.2443263    0.1208839 -46.92 0.0001812212    1.883    0.469
       128  -9.9952      9.0198     98.3000   1.0665371973e+02   5.5441637723e+01    0.3965527    0.2406451 -83.05   0.00201006    1.681    0.405
       129  -8.8789      4.2869     97.8267   1.0841152482e+02   5.5830194356e+01    0.3284322    0.2406402  -7.42  0.001493323    1.578    0.366
       130 -10.3463      2.2268     92.2632   1.0838129513e+02   5.7320801464e+01    0.4761787    0.2085302  40.00 0.0003821079    2.757    0.637
       131 -10.0193      2.0462     87.2537   1.0766449072e+02   5.8563043507e+01    0.5924487    0.1511092 -64.96  0.001842232    2.780    0.640
       132  -9.2396      3.4999     81.4409   1.0606144437e+02   5.9904905679e+01    0.2901671    0.2161264 -23.29  0.001049215    1.379    0.275
       133  -9.5307      1.3864     78.1814   1.0639012502e+02   6.0793195818e+01    0.2433883    0.1732572 -67.02 0.0003225359    1.227    0.185
       134  -8.7446     16.5219     98.9324   1.0384254784e+02   5.4784987281e+01    0.2092876    0.1170048 -65.81  0.001015006    1.541    0.351
       135  -9.1667    149.8628     97.1214   5.9497374753e+01   3.2805611776e+01    0.2253221    0.2022482 -77.68 0.0002707907    1.207    0.171
       136  -9.6501    125.6455     97.0433   6.5430698297e+01   3.8220765221e+01    0.2711536    0.2216939  60.84  0.001318444    1.330    0.248
       137  -9.4481     22.9694     94.9670   1.0055515017e+02   5.5280255593e+01    0.2929308    0.1788237 -70.80 0.0009268663    1.583    0.368
       138  -9.4743     13.1757     94.5712   1.0439512943e+02   5.6110143723e+01    0.3546442    0.2329165 -49.71  0.001925538    1.310    0.237
       139 -11.0522     26.8108     87.3726   9.7374927525e+01   5.6821779900e+01    0.6628402    0.3933613 -35.70  0.001009759    1.671    0.402
       140  -9.9252     31.5425     94.0394   9.6926775671e+01   5.4740307492e+01    0.3350929     0.242732 -79.74   0.00109151    1.545    0.353
       141  -9.9065     34.1733     90.7777   9.5126052735e+01   5.5281035197e+01      0.32217    0.2144285 -35.82 0.0009858783    1.472    0.321
       142  -9.1264    139.5813     92.8062   6.0697673864e+01   3.5975117595e+01    0.2279088    0.1404822 -51.33 0.0009584333    1.718    0.418
       143 -10.5020     46.6422     91.2552   9.0234035461e+01   5.3752977457e+01    0.4790602    0.3162723 -81.67 0.0007856715    2.123    0.529
       144 -10.8142     65.2362     85.6550   8.1458895799e+01   5.2446852095e+01     1.071909    0.6419007  58.34  0.004290216    2.608    0.617
       145 -10.3725     86.4861     88.7448   7.4770512916e+01   4.8068754109e+01    0.4434253    0.3607921  -0.31  0.001186205    1.407    0.289
       146  -9.5127     86.8997     83.4193   7.3000434364e+01   4.9147866235e+01    0.2721263    0.2439766 -46.87  0.000385191    1.137    0.120
       147 -11.7335     80.7598     83.4908   7.5137087792e+01   5.0280397051e+01    0.6832248    0.4481897  10.06  0.000457567    2.168    0.539
       148 -11.1809     73.0504     79.5555   7.6675818511e+01   5.2507807586e+01    0.7891315    0.5132698 -35.58   0.00248765    1.558    0.358
       149  -8.9845    105.3320     91.0392   6.9437541602e+01   4.3835172002e+01    0.3295455    0.2018267  58.94  0.001327318    2.075    0.518
       150  -8.7742     52.5735     90.7642   8.7772388335e+01   5.3104425770e+01    0.1981838    0.1370903 -67.52 0.0007773112    1.622    0.383
       151  -8.6126    161.4984     90.0523   5.5071041119e+01   3.1516286028e+01    0.2159796    0.1430179 -39.33 0.0003216036    1.465    0.318
       152  -9.3544    114.0322     90.0882   6.6603779862e+01   4.2194000150e+01    0.4237645    0.2212679  37.90  0.001641042    2.068    0.517
       153 -10.4272     56.6233     86.7387   8.5085676405e+01   5.3493431995e+01    0.6722955    0.4138458  61.53  0.002429315    2.704    0.630
       154  -9.5961     39.0600     81.3579   9.0737497967e+01   5.7014010010e+01    0.2907408    0.1880731  27.53  0.001457837    1.644    0.392
       155 -11.2697     45.2016     68.7635   8.4403528043e+01   5.9115027096e+01    0.3199182    0.2396923 -33.47 0.0002322971    1.236    0.191
       156 -10.6649     51.1782     83.0259   8.6195529256e+01   5.5114178335e+01    0.6047506    0.3442545  12.78  0.002566829    2.273    0.560
       157 -10.2997     43.6630     81.5564   8.8863487640e+01   5.6423702021e+01    0.7581469    0.2913489  20.99  0.001478243    3.312    0.698
       158 -12.9421     53.1140     75.1413   8.3062048249e+01   5.6632643728e+01    0.3809713    0.3115089 -36.73 0.0005250598    1.131    0.116
       159 -11.0945     51.0048     68.2014   8.1728261635e+01   5.8442042535e+01    0.5703133    0.4485632 -84.02  0.002910502    1.905    0.475
       160  -8.5131     18.0590     90.8014   1.0171890156e+02   5.6700975957e+01    0.1621775    0.1063727  17.13 0.0008398985    1.711    0.415
       161  -8.8861     97.7499     88.6314   7.1054798936e+01   4.5900795051e+01    0.2431755    0.1857707 -68.20 0.0002585918    1.642    0.391
       162  -9.0739     14.5802     87.5018   1.0250951434e+02   5.7763691978e+01     0.443883    0.1785191 -42.05  0.001578625    2.320    0.569
       163  -9.0661      7.0931     89.1713   1.0591301864e+02   5.7824850278e+01    0.2281674    0.1597566  42.94  0.001104699    1.704    0.413
       164 -10.8082    118.1725     84.0767   6.3636438308e+01   4.2509825488e+01    0.4262385    0.3275684  53.61  0.002063627    1.340    0.254
       165 -10.5725    129.5793     84.8609   6.0864315550e+01   3.9796730854e+01    0.6123672    0.3996935  17.05  0.002393023    2.486    0.598
       166  -9.3016     39.6700     87.8830   9.2182945734e+01   5.5392561271e+01    0.2307062     0.188158 -12.91 0.0007073916    1.280    0.219
       167 -10.8407    155.1526     85.0948   5.5025985825e+01   3.3878100032e+01    0.2912411    0.2730406  34.52 0.0003166019    1.140    0.123
       168 -10.0792    105.1234     83.9626   6.7351372727e+01   4.5358817601e+01    0.6401653    0.3041446 -29.95   0.00216427    2.956    0.662
       169 -10.4208    142.2186     84.0012   5.7559623173e+01   3.7064916436e+01    0.7631623    0.3260106  57.35  0.001437488    2.659    0.624
       170  -9.8122    137.1345     78.6275   5.7167433659e+01   3.9235735892e+01    0.3427839    0.2406421 -87.35  0.001462401    2.101    0.524
       171 -10.5297    123.4979     86.8636   6.3037474818e+01   4.0772376401e+01    0.3902859    0.3309078 -19.81   0.00103129    1.287    0.223
       172  -8.6943     90.6382     83.5130   7.1780139194e+01   4.8404751510e+01    0.2231898    0.1948972  42.85 -0.0001100201    1.174    0.148
       173  -9.2874     93.3933     79.4345   6.9589872864e+01   4.8708694547e+01     0.461153    0.2881714  -8.08  0.001598348    2.914    0.657
       174  -9.6293     18.4775     81.3230   9.9564285418e+01   5.8981086063e+01    0.4574582    0.2013118  33.54  0.001644058    2.527    0.604
       175 -10.5050    150.9021     80.5758   5.4653913996e+01   3.5680193047e+01    0.4439118    0.3079015  59.99  0.001391238    1.497    0.332
       176 -10.0347    145.8999     75.3813   5.4231412849e+01   3.7771586323e+01    0.3858034    0.2748342 -62.33  0.001801545    1.632    0.387
       177  -9.6393    141.5913     75.1899   5.5124614662e+01   3.8815319406e+01    0.2340412    0.2043772   6.69 0.0006458499    1.345    0.256
       178 -10.3126    167.9268     78.4112   5.0667609510e+01   3.2113456240e+01     0.268092    0.2351262 -58.77 0.0003045872    1.107    0.097
       179 -10.2309    170.0657     73.6509   4.8991025564e+01   3.2421216752e+01    0.3714709    0.2356209 -27.34  0.001685579    1.784    0.440
       180  -9.6109    119.4624     76.2318   6.0865661922e+01   4.3736157101e+01    0.3192647    0.2431908 -77.11  0.001274658    1.765    0.434
       181  -9.4863    111.0596     77.3562   6.3540993021e+01   4.5394983466e+01    0.2950679    0.2730279 -38.47    0.0015876    1.090    0.083
       182  -9.1724     77.1443     62.0983   6.9287907307e+01   5.5306700960e+01    0.2582275    0.2047274  43.26 0.0003512912    1.291    0.226
       183 -10.6509     88.8027     74.1563   6.9385677545e+01   5.0696739544e+01     1.231106    0.6833599 -18.12  0.004174895    3.395    0.705
       184 -10.5534     94.6160     71.6576   6.6655037137e+01   5.0010145197e+01    0.4604733    0.4293953 -79.48 0.0007516315    1.245    0.197
       185 -10.3824     87.8136     67.3588   6.7423616662e+01   5.2223680520e+01    0.8161666    0.3705783  29.05   0.00268613    3.396    0.706
       186  -9.0842     83.5272     65.4524   6.8219802756e+01   5.3438910019e+01    0.2716136    0.2443224 -10.17 0.0006039115    1.094    0.086
       187  -9.8798     82.1790     62.0787   6.7495334010e+01   5.4337670330e+01    0.3489966    0.2402295  27.92  0.001398727    1.536    0.349
       188 -10.2462     64.7729     75.5333   7.8524001748e+01   5.4767978607e+01    0.5185897    0.2558111 -48.29  0.002160842    1.966    0.491
       189 -11.3139     18.3929     76.9514   9.8607124682e+01   6.0030830494e+01    0.5425245     0.228721 -58.91 0.0002213041    1.972    0.493
       190 -10.0219    175.0396     74.9979   4.8480482106e+01   3.1054785431e+01    0.2890436    0.2326466 -74.87            0    1.329    0.248
       191 -10.8981    179.1974     74.6317   4.7678794720e+01   3.0167730312e+01    0.4476331    0.3341325  25.54  0.002215678    1.843    0.457
       192  -8.9901     37.2398     76.0173   9.0047216402e+01   5.8461466695e+01    0.2166033    0.1556177 -32.40 0.0005731091    1.320    0.243
       193  -9.7800     29.0437     75.0940   9.3396913714e+01   5.9536540941e+01    0.3634035    0.2451207 -52.56  0.001399109    1.312    0.238
       194 -11.4989     27.8276     65.0519   9.1127629714e+01   6.1935052162e+01     1.457767     1.103494   4.80   0.00714576    1.366    0.268
       195  -8.2778     57.0235    249.0152   1.0951688354e+02   1.4554325047e+01    0.1331047    0.1103951  57.02            0    1.046    0.044
       196  99.0000     37.6671     47.3912   8.0367090203e+01   6.4467707800e+01    0.8422638    0.5561809 -48.00  0.004549828    1.542    0.351
       197  -9.4830     32.1917     47.8051   8.3221843201e+01   6.5068342434e+01    0.2093673    0.1874978  16.75 0.0006521869    1.220    0.180
       198 -11.1652     14.8585     40.2429   8.9597019500e+01   6.8330505935e+01    0.6189815    0.4612727 -66.70  0.002946202    1.730    0.422
       199 -10.5438     15.2986     60.3437   9.5817600513e+01   6.4079248267e+01    0.6893612     0.320343 -32.50  0.001143323    2.172    0.540
       200 -11.4305      7.9745     51.3232   9.7001195563e+01   6.6565966216e+01    0.9123361    0.4805669  -2.89  0.004621531    2.137    0.532
       201 -12.5095      2.4096     66.1718   1.0354578147e+02   6.3569470326e+01    0.4522445    0.2521573 -66.01 0.0002847505    1.589    0.371
       202 -11.2920      9.2387     62.7553   9.9443933942e+01   6.3962762170e+01    0.4343297    0.3432221  66.17 0.0009343895    1.722    0.419
       203 -10.9329      4.4764     59.3509   1.0095803898e+02   6.5012894956e+01    0.6208789    0.2773902 -33.62  0.002944993    2.113    0.527
       204 -11.4301     23.1654     47.3606   8.7677051712e+01   6.6141432316e+01    0.4628493    0.3884102 -59.28  0.001392661    1.409    0.290
       205  -9.3344     27.6856     42.8288   8.3622074549e+01   6.6550615000e+01     0.526031     0.426952  16.41  0.003294334    1.244    0.196
       206 -11.0825     54.3381     61.1787   7.7916055906e+01   5.9406426253e+01    0.6143119    0.4355386  74.72 0.0004447697    2.833    0.647
       207 -11.5109     56.2757     56.7391   7.5489413432e+01   5.9979013326e+01    0.4525541    0.3410755  66.39 0.0002761455    2.113    0.527
       208 -11.5366     24.9358     55.9630   8.9703256661e+01   6.4190070388e+01    0.3939553    0.3021442 -51.94  0.001612073    1.276    0.217
       209 -11.4196     28.9181     52.0061   8.6383059542e+01   6.4601042051e+01    0.3872639    0.2266437  25.94 0.0007511523    1.762    0.432
       210  -8.7567    185.2115     75.5330   4.6929230997e+01   2.8665548376e+01    0.1782546    0.1322383  47.44 0.0003183064    1.497    0.332
       211 -10.4836    157.3849     69.6897   5.0240482435e+01   3.6038652231e+01    0.4020738    0.3033224 -42.47  0.001427871    1.302    0.232
       212  -9.6458    137.0000     71.0685   5.4928209960e+01   4.0615928461e+01    0.2789221    0.1826467 -21.10  0.001213726    1.928    0.481
       213 -10.4788    140.8292     68.1776   5.3197166316e+01   4.0207746919e+01    0.3066158    0.2665642 -55.23 0.0003641205    1.172    0.147
       214 -10.2703    143.7993     65.7921   5.1841249586e+01   3.9901077064e+01    0.2841336    0.2380285 -76.77  0.000426369    1.309    0.236
       215  -9.7456    102.7940     69.5785   6.3430306696e+01   4.8673837169e+01    0.3971947    0.3331679  23.58  0.002064338    1.249    0.199
       216  -8.7706    106.3103     66.3822   6.1327736290e+01   4.8490113752e+01    0.2594333    0.1962727  37.87 0.0006995147    1.320    0.242
       217  -9.8025     37.4959     69.1703   8.7931532098e+01   5.9979424868e+01    0.4372016    0.2269067 -44.19  0.002022647    1.725    0.420
       218 -10.3705     45.1693     47.8564   7.6998191303e+01   6.3349149100e+01     1.355027    0.8955944 -19.03  0.007010953    1.617    0.381
       219 -10.4656    173.5034     68.8379   4.7098229924e+01   3.2409816443e+01    0.2695936    0.2367626 -59.21 0.0003304686    1.081    0.075
       220  -8.9564    146.0786     70.2986   5.2700510760e+01   3.8607181034e+01     0.206882    0.1920568  76.16  0.000890081    1.072    0.067
       221  -9.5555     80.1517     70.0462   7.0984951778e+01   5.3196234754e+01     0.253911    0.2068527  46.22 0.0004150555    1.296    0.228
       222  -9.2975    166.7588     68.9390   4.8294378378e+01   3.3961020747e+01    0.2498577    0.2059759  63.32 0.0007295982    1.221    0.181
       223  -9.1332     64.0481     69.0388   7.6669771142e+01   5.6259288187e+01     0.324027    0.2223058  18.20  0.001279593    1.618    0.382
       224  -9.2078    119.7206     67.1092   5.7895359104e+01   4.5332888768e+01    0.2665781    0.2385847  27.46 0.0008946699    1.159    0.138
       225 -10.5682    134.7665     65.0576   5.3593376196e+01   4.2166227822e+01    0.3922518    0.3428959 -11.88  0.001028839    1.290    0.225
       226  -9.0922     75.1990     65.9701   7.1366882601e+01   5.4926832620e+01    0.2075969    0.1982608 -65.27 0.0006072262    1.228    0.186
       227  -9.0680    187.4039     65.1688   4.3939961439e+01   2.9809090395e+01    0.2035788    0.1136785 -47.45 0.0009413601    1.686    0.407
       228  -9.9949    193.8953     60.9044   4.1940404136e+01   2.8997734130e+01    0.3656619    0.1971989 -39.14 0.0008463528    1.708    0.414
       229  -8.9138    197.0000     59.9953   4.1297294594e+01   2.8444392786e+01    0.1941258    0.1702531 -60.61 0.0003780905    1.016    0.016
       230  -9.1026    175.6086     62.0328   4.4928940885e+01   3.2985056043e+01    0.2803328    0.2176888  -6.83  0.001438687    1.736    0.424
       231  -9.4663     71.6176     60.4300   7.0725898551e+01   5.6649888532e+01    0.3747454     0.229578  47.57  0.001126861    1.779    0.438
       232 -10.7865    152.7684     60.5826   4.8498074301e+01   3.8597719073e+01     0.529412    0.2656218  47.21   0.00220028    2.100    0.524
       233  -9.1596     42.0916     62.0939   8.3597430570e+01   6.0945368331e+01    0.4126075    0.1923544  12.97  0.001380765    3.383    0.704
       234  -9.0053     40.4069     59.2837   8.3408852113e+01   6.1747617110e+01    0.2420134    0.1520571 -39.44  0.001231275    1.456    0.313
       235 -10.3242    166.7546     60.3837   4.5931814128e+01   3.5306998822e+01     0.330015    0.3014574  49.75  0.001913264    1.181    0.153
       236  -8.9379    167.7081     56.2559   4.4629688609e+01   3.5702054251e+01    0.1846355    0.1604539  35.37 0.0009632921    1.346    0.257
       237  -9.9160    161.4853     60.0120   4.6737359813e+01   3.6610044628e+01    0.3100671    0.2333329  26.32 0.0008531996    1.757    0.431
       238 -10.0961    131.8086     60.1962   5.2742057291e+01   4.3664165827e+01     0.445861    0.2900448  30.37  0.001971636    1.970    0.492
       239 -10.1393    126.1528     57.1764   5.3080620129e+01   4.5487262246e+01    0.6938508    0.2492458  61.57  0.002202416    3.462    0.711
       240  -8.5450    114.1840     60.6194   5.7211538267e+01   4.7717534510e+01    0.2046152    0.1299451  42.07 0.0004044615    1.576    0.365
       241  -9.1788    250.0179     58.4555   3.5170707682e+01   1.8004557355e+01    0.1751263    0.1282291 -48.05 0.0002916752    1.089    0.082
       242 -10.3355    141.0517     59.4769   5.0503467647e+01   4.1574085721e+01    0.5303485    0.1691024  57.36  0.001757108    3.073    0.675
       243  -8.4678    182.6938     58.2816   4.2856332647e+01   3.1913708882e+01    0.1405164   0.09755252 -69.31 0.0002108776    1.558    0.358
       244  -9.3542    136.7635     55.8819   5.0293497434e+01   4.3160416055e+01    0.3449899    0.1969961 -22.03  0.001269289    2.253    0.556
       245  -8.9604    187.4282     55.9487   4.1579074623e+01   3.1174263599e+01     0.212043    0.1712595 -87.99  0.001209731    1.231    0.187
       246  -8.2465    111.6671     56.7577   5.6573404896e+01   4.8932729382e+01    0.1458543    0.1071746  27.53 0.0001499766    1.544    0.352
       247  -9.8684     65.0410     62.1480   7.3882354862e+01   5.7481055038e+01    0.4732242    0.2151919  34.88  0.001922158    2.247    0.555
       248 -10.4412    161.1478     54.5651   4.5249779101e+01   3.7508119109e+01    0.2956519    0.2412222  77.33 0.0004450039    1.213    0.176
       249  -9.5971    127.0012     39.8304   4.7167401430e+01   4.7808648771e+01    0.3785935    0.2571373  73.15  0.001873748    1.561    0.359
       250  -9.7631    120.8641     38.7551   4.8126569675e+01   4.9424095877e+01    0.4049667    0.2478184 -48.54    0.0018839    1.850    0.459
       251 -10.6119    122.9709     50.4835   5.1621243603e+01   4.7271722387e+01    0.8991169    0.3078699  46.22  0.003074322    2.977    0.664
       252 -10.6893    116.5134     35.5407   4.7981964597e+01   5.0879250574e+01    0.5779479    0.3537945  48.37   0.00182123    1.526    0.345
       253 -10.5464    118.2155     32.5886   4.6567826338e+01   5.0842718696e+01    0.8285527    0.1975033  53.92  0.002711049    3.361    0.702
       254 -11.6819    126.9724     46.5462   4.9405292597e+01   4.6892034948e+01    0.6523505    0.6219508 -14.54  0.001891379    1.129    0.114
       255  -9.6966    131.2161     45.9964   4.8312144356e+01   4.5950346286e+01    0.2138119    0.1625192 -49.36            0    1.394    0.283
       256 -10.1426     93.4911     53.5042   6.0659796232e+01   5.3510414037e+01    0.4741473    0.3921872   2.38  0.002546527    1.320    0.242
       257  -8.5423     75.5316     55.4661   6.7443876727e+01   5.6830703444e+01    0.1405541    0.1323928   8.81  2.76184e-05    1.049    0.046
       258  -8.1003     81.9503     55.0000   6.4993777030e+01   5.5655472901e+01    0.2339582   0.07848722  45.53   0.00052378    2.902    0.655
       259  -8.5777    196.4340     53.4883   3.9766472239e+01   2.9503929050e+01    0.2068821    0.1272626  69.86 6.988764e-05    1.672    0.402
       260  -8.9379    193.2910     52.6646   3.9964221223e+01   3.0320123446e+01    0.2242552    0.1591231  55.75 0.0007545764    1.519    0.342
       261 -10.3166    146.1189     52.5034   4.7361981182e+01   4.1418160305e+01    0.7038956    0.2759145  63.93  0.002550434    2.743    0.635
       262  -9.0177    142.5560     49.1389   4.7019071825e+01   4.2766432155e+01    0.1891816    0.1793532 -40.84 0.0003287038    1.110    0.099
       263  -8.8605    106.8592     52.8136   5.6505960668e+01   5.0663254450e+01    0.2194966    0.1828492  32.22 0.0003437328    1.205    0.170
       264  -9.1148     30.7795    247.7693   1.1479205026e+02   1.7742757279e+01    0.1951085   0.05488634  40.68 0.0008843326    2.478    0.596
       265 -10.5045     87.5556     33.9228   5.4969310763e+01   5.7724838471e+01    0.4824312    0.3151665  21.88  0.001923808    1.820    0.451
       266  -9.3714     75.0311     22.9664   5.4304485259e+01   6.1779850283e+01    0.2079956    0.1720089  12.89 0.0003357928    1.182    0.154
       267  -8.8529      1.4703    244.0260   1.2035160283e+02   2.1341608487e+01     0.155336   0.09293844 -89.68 0.0004301516    1.530    0.346
       268 -10.5295     73.7493     28.2132   5.7030213860e+01   6.1393849577e+01     0.726448    0.3469588  44.07   0.00331894    1.888    0.470
       269 -12.0362     68.8583     47.9485   6.7040074889e+01   5.9397321146e+01    0.4544543    0.3407994 -48.91 0.0003183938    1.558    0.358
       270 -12.6044     62.0057     44.0267   6.8153651726e+01   6.1303397406e+01    0.4682612    0.3870691  19.66 0.0005707227    1.125    0.111
       271  -8.2550    232.5631     51.5276   3.5339956863e+01   2.2220326634e+01    0.1248099    0.1001565 -57.33  0.000110707    1.014    0.014
       272  -9.7519    175.1923     49.7848   4.1705710400e+01   3.4872036217e+01    0.3487241    0.2489643  -2.08  0.001702389    2.138    0.532
       273  -9.1659    165.8209     51.1493   4.3514005461e+01   3.6889973496e+01    0.2203555     0.178704 -71.88 0.0008526065    1.239    0.193
       274 -10.1727    160.4530     49.9936   4.4062387058e+01   3.8333974935e+01    0.3349491    0.2139411  50.69   0.00164171    1.609    0.378
       275 -10.6788    153.8213     47.7718   4.4542721903e+01   4.0239505355e+01     0.370515    0.3143276 -77.21 0.0005396398    1.188    0.158
       276  -8.5939    136.9313     49.6288   4.8290937493e+01   4.4053718041e+01    0.1990627    0.1808711  70.35 0.0008036618    1.054    0.051
       277  -9.3545     87.1366     49.0789   6.1030232612e+01   5.5582023654e+01    0.3108732    0.1925886  41.18 0.0008448429    1.541    0.351
       278 -10.0394    114.7709     46.9573   5.2391818297e+01   4.9727492951e+01    0.3443333    0.2489492 -26.99  0.001002624    1.499    0.333
       279  -9.4886    201.8574     47.1940   3.7576230284e+01   2.9175308225e+01    0.2268108    0.2015475   4.27 0.0004155261    1.515    0.340
       280  -8.6978    196.9441     48.4940   3.8473847117e+01   3.0082522268e+01    0.1904126    0.1242573  69.34 0.0008371478    1.545    0.353
       281  -9.1810    182.0342     48.5247   4.0403368517e+01   3.3456444007e+01    0.2021918    0.1270615  66.08  0.001023953    1.572    0.364
       282  -9.2489     79.9633     48.0000   6.3020317448e+01   5.7233722649e+01    0.2251288    0.1817315  17.33 0.0008842165    1.253    0.202
       283 -10.6470     79.9791     43.3306   6.1181495445e+01   5.7971263642e+01    0.4620668    0.3289642  71.46  0.002218267    2.080    0.519
       284  -8.4750    234.9761     47.0224   3.4157956261e+01   2.2347889713e+01    0.1439448    0.1167915 -61.04 0.0003626505    1.023    0.022
       285  -9.2734    165.3900     45.9614   4.2129321852e+01   3.7715584544e+01    0.2679736     0.216247 -44.03  0.001511824    1.231    0.187
       286  -9.7873    145.9556     45.9217   4.5390765355e+01   4.2397201394e+01    0.2953039    0.2205562 -36.01  0.000624996    1.389    0.280
       287  -9.2324    143.9962     41.4849   4.4386485130e+01   4.3473632185e+01    0.3016955     0.199262  76.46  0.001112446    1.596    0.373
       288 -10.3926     91.4506     42.1478   5.7024222064e+01   5.5724142531e+01     0.463289     0.375033  77.79   0.00248172    1.569    0.362
       289  -9.9321     95.1493     34.9700   5.3165120388e+01   5.5907190393e+01    0.4274219    0.2026619  52.37  0.001092612    1.919    0.479
       290  -9.8289     61.3000     52.2073   7.1692576478e+01   5.9998948961e+01     0.239738    0.2243222  27.77 0.0004339158    1.169    0.144
       291  -9.1479    245.2307     44.6380   3.2782467423e+01   2.0706026959e+01    0.1462555    0.1039216  65.03 0.0009030437    1.633    0.388
       292  -9.0242    185.0914     44.1283   3.8857070017e+01   3.3347835744e+01    0.1902264    0.1752913  45.06 0.0004429442    1.290    0.225
       293  -9.9503    177.5126     43.8775   3.9797342378e+01   3.5135779815e+01    0.3733323    0.2209669  88.02  0.001750667    1.980    0.495
       294  -8.9263    108.1099     40.1698   5.1652466707e+01   5.2244435251e+01    0.2043198     0.172538  51.00 0.0005118557    1.101    0.092
       295 -10.0536    107.4062     43.9883   5.3214302737e+01   5.1871125766e+01    0.3844387     0.248896  59.34 8.829726e-05    1.535    0.349
       296  -8.9306    103.6746     44.3210   5.4329562332e+01   5.2678863785e+01    0.2199097    0.1764398  76.50  0.001156162    1.464    0.317
       297  -9.0965     93.3429     38.2933   5.4971959190e+01   5.5858805828e+01    0.2706583    0.1642413  32.53 0.0006534003    1.799    0.444
       298 -10.8341    227.6628     40.7235   3.3469863538e+01   2.4605959116e+01    0.5246088    0.3067932 -42.95  0.001531657    1.448    0.309
       299 -10.2982    222.6212     40.5034   3.3881923160e+01   2.5654651997e+01    0.2729349    0.2171639 -47.57 0.0005997637    1.145    0.127
       300 -10.7990    227.0422     33.0485   3.1872121757e+01   2.5688221922e+01    0.3984523     0.197648  64.52 0.0002914803    2.117    0.528
       301 -11.5542    234.9805     29.8154   3.0556838498e+01   2.4503777203e+01    0.3239839    0.2177872  57.27 0.0005820128    1.828    0.453
       302  -8.3811    196.6417     41.2110   3.6723253741e+01   3.1118134346e+01    0.1681042      0.12039 -25.89 0.0004860449    1.602    0.376
       303  -8.2845    113.2724     41.3377   5.0788688573e+01   5.0877140311e+01    0.1417321    0.1051015  21.59 0.0001696663    1.604    0.377
       304  -9.7384    158.1317     39.2384   4.1340452291e+01   4.0346751438e+01    0.2351355     0.219168  74.66  0.001433278    1.069    0.064
       305 -11.2562     40.1099     39.5376   7.6005435191e+01   6.5575640615e+01    0.2210096    0.1805037 -20.11 0.0002862169    1.100    0.091
       306  -9.6103     10.5598     31.7494   8.8837390078e+01   7.0327253015e+01    0.4699479     0.172692  32.60  0.001794689    3.033    0.670
       307 -11.2639      6.2733     36.8005   9.3294254153e+01   6.9680395235e+01     0.504486    0.4516355 -51.36  0.002611015    1.299    0.230
       308  -8.9746      4.7229     32.3257   9.2598259777e+01   7.0662799315e+01    0.1589654    0.1392589  46.82 0.0004106645    1.624    0.384
       309  -8.9345    203.2552     39.2326   3.5516596747e+01   2.9913576337e+01    0.1793632    0.1247534 -63.93   0.00047996    1.328    0.247
       310  -9.5812    103.8427     38.2070   5.2033338883e+01   5.3498410632e+01    0.3269756    0.2016364 -28.92  0.001185451    1.749    0.428
       311 -10.1636    178.5033     37.1442   3.7881892128e+01   3.5777506789e+01    0.3003069    0.2348101  53.03 0.0009445979    1.395    0.283
       312  -8.9373    150.3601     38.2268   4.2292436391e+01   4.2354496410e+01    0.2620381    0.1426032  55.28 0.0006239134    1.738    0.425
       313  -9.8800    137.5387     37.5256   4.4330490487e+01   4.5557550982e+01    0.4436449    0.2153343  54.05 0.0008755663    1.898    0.473
       314  -8.2088     53.2495     38.2878   6.9416132760e+01   6.3758844334e+01    0.1297968    0.0937079  -2.12 0.0006848957    1.473    0.321
       315  -9.4645    248.9351     36.9400   3.0948785928e+01   2.0988159604e+01    0.2003458    0.1035009 -59.37  0.001132577    1.709    0.415
       316  -9.5490    240.5399     37.5027   3.1706646771e+01   2.2492331152e+01    0.2107451    0.1098683  74.78 0.0007647492    2.048    0.512
       317  -9.0809    185.6405     35.4385   3.6559842748e+01   3.4339951166e+01    0.3205825    0.1597643 -55.57  0.000854549    2.070    0.517
       318  -8.9821    183.9256     31.6747   3.5797361549e+01   3.5194892836e+01    0.2423997    0.1144025  77.98  0.001073837    2.250    0.556
       319  -9.0827    164.3891     36.3164   3.9570034143e+01   3.9216379365e+01    0.2719522    0.1561557  70.14 0.0008747347    1.676    0.403
       320  -9.0311    131.1871     35.6622   4.4939197382e+01   4.7335152846e+01    0.3216758    0.1760794 -48.84  0.001028431    2.061    0.515
       321 -10.0956    133.6734     30.0542   4.2637391805e+01   4.7413738529e+01    0.4747759    0.3112977   5.64  0.002230946    2.290    0.563
       322 -10.3334     49.3416     33.5979   6.9087059632e+01   6.5154316829e+01    0.4312421    0.2243957  21.01  0.001877538    2.449    0.592
       323  -9.2526    208.0441     32.7221   3.3503804796e+01   2.9687380157e+01    0.3352785    0.1322685 -53.22  0.001463554    2.462    0.594
       324  -9.0384    145.7512     34.1780   4.1833045735e+01   4.3980787078e+01    0.2286316    0.1859758  68.78 0.0007499809    1.139    0.122
       325 -12.4114    107.8841     29.0113   4.7616349414e+01   5.3724798679e+01    0.4267437    0.3451231  12.49  0.002412462    1.401    0.286
       326  -9.6282     34.7047     31.7212   7.5289239790e+01   6.7661448457e+01    0.2819566    0.1603665  28.64  0.001482166    1.702    0.413
       327  -8.6531    244.8052    242.1274   7.1040727852e+01  -8.4746015822e+00    0.1777748    0.1239866  -3.07 0.0005613677    1.064    0.060
       328  -9.8793     40.8156     21.1476   6.7176181862e+01   6.8373897058e+01    0.4062328    0.2914224  58.88  0.001902572    2.244    0.554
       329  -9.3708    246.5948    238.8019   7.0215303621e+01  -8.2486782125e+00    0.1686807    0.1401019 -10.71  0.001291168    1.359    0.264
       330  -9.2853    145.5453    242.4770   8.9955179332e+01   3.9770159881e+00     0.127023    0.1059449  18.80 0.0001679781    1.018    0.018
       331  -9.6667    101.6862    240.4809   9.9146877964e+01   1.0448988173e+01     0.208503    0.1177145 -59.72  0.001093425    2.062    0.515
       332  -8.6082    127.4724    240.4655   9.3538729681e+01   6.8619532569e+00    0.1282177    0.1084663  30.69 0.0002273235    1.035    0.034
       333 -10.1827     47.9519     26.9411   6.6651839241e+01   6.6388595917e+01    0.3467021    0.2668333  43.86  0.002000244    1.441    0.306
       334 -10.2021     50.1181     22.4139   6.3516437207e+01   6.6650634715e+01    0.3038647    0.1843215 -24.33  0.001255794    1.686    0.407
       335  -9.9310    248.2418     30.5381   2.9733560842e+01   2.1893685437e+01    0.2479038    0.1821973 -36.98  0.001104579    1.368    0.269
       336  -9.0222    153.0736     31.8532   3.9960286447e+01   4.2486395673e+01    0.2093581    0.1661444 -75.98 0.0002598348    1.271    0.213
       337 -10.8249    145.8061     28.8701   4.0197552038e+01   4.4600721355e+01     0.593425    0.3298933  61.77  0.001245897    1.627    0.386
       338  -9.6214    222.3052     27.1774   3.0997331798e+01   2.7354627261e+01    0.3207192    0.2112715  32.06  0.001690886    2.781    0.640
       339  -8.9727     93.9597     30.0004   5.1549787307e+01   5.6811764234e+01    0.2130262    0.1447597  29.67 0.0003961195    1.566    0.361
       340  -9.1593    189.7492     28.4517   3.4333773399e+01   3.4247161724e+01    0.2056533    0.1700903 -75.42 0.0003925149    1.058    0.055
       341  -9.5416    212.4871     26.2985   3.1629492993e+01   2.9504770384e+01    0.2294001     0.183109  54.33 0.0008762389    1.535    0.348
       342  -9.3348    161.6066     26.6632   3.7232406668e+01   4.1036280054e+01    0.2282474    0.1872184  70.16 0.0002571499    1.141    0.123
       343 -10.1003    204.5588     24.7959   3.1991232283e+01   3.1381272970e+01    0.3354464    0.2117276  42.26  0.001517204    2.278    0.561
       344 -10.2662    175.0808     23.5144   3.4692508699e+01   3.8196559291e+01    0.4904936    0.3001343 -89.68  0.002271243    1.659    0.397
       345  -8.5640    169.4774     23.0672   3.5232402495e+01   3.9564883409e+01     0.174599     0.125095 -34.84 0.0003430192    1.464    0.317
       346  -9.6614    100.9165     26.1441   4.8220135080e+01   5.5684937172e+01    0.2998079    0.1683809  55.69 0.0009326526    1.589    0.371
       347  -8.7537     80.5203     18.9719   5.0840308433e+01   6.1064924807e+01    0.1750253    0.1284936 -16.78 0.0004008842    1.476    0.322
       348  -9.0137     82.8538     25.8075   5.3058769622e+01   5.9776043621e+01     0.174122    0.1597284  21.52 0.0002397617    1.056    0.053
       349  -8.5529    188.6916    239.6634   8.0775989199e+01  -1.4558037060e+00    0.1282665   0.08105329  -3.58 0.0007042756    1.679    0.404
       350 -10.8434      2.0932     25.2189   9.1486043692e+01   7.2187443534e+01    0.2315575    0.1571305 -39.29  0.000344046    1.215    0.177
       351 -10.2536    131.3778     22.3257   4.0516377672e+01   4.8837525803e+01    0.3793997    0.2486147 -10.72  0.001929327    1.966    0.491
       352  -9.7120    247.2495     24.0566   2.8528006260e+01   2.2839846025e+01    0.1627629    0.1161767 -52.89 0.0004700751    1.103    0.094
       353  -9.7892    232.4236     23.4651   2.9432643848e+01   2.5751349464e+01    0.3569576    0.1795703 -86.25  0.001905857    2.133    0.531
       354  -8.9771    221.9892    233.4875   7.3574127357e+01  -4.7611705850e+00    0.1689313    0.1004901  25.91 0.0005221894    1.552    0.355
       355  -8.9360     32.0372    232.6408   1.1360243827e+02   2.0641595351e+01     0.168185    0.1310363  51.57 0.0004206654    1.087    0.080
       356  -9.0350    186.6738    230.6724   7.9764005704e+01   1.9158583478e-01    0.1324435    0.0845648  -3.14 0.0007050154    1.700    0.412
       357  -8.1791      3.2830    230.0121   1.1941940469e+02   2.3991331300e+01    0.1340311     0.086902  89.83 0.0003202516    1.383    0.277
       358  -8.9883    162.3397    225.5010   8.3922700515e+01   4.4787636358e+00    0.3110285    0.2172991  79.71   0.00134186    3.642    0.725
       359  -9.0367    223.9737    225.0703   7.1832533271e+01  -3.8202875594e+00    0.1827869    0.1412779  -2.69 0.0005474342    1.020    0.020
       360 -10.0089    103.7180     16.0852   4.3697301456e+01   5.6104086735e+01    0.2198381    0.1845415  44.65 0.0002579275    1.096    0.087
       361  -8.9000    132.1381    225.1880   9.0440319895e+01   8.9874427911e+00    0.1753911    0.1481318  53.13 0.0004468822    1.317    0.240
       362  -8.3554    125.3034    225.6363   9.2032415891e+01   9.9112611848e+00    0.1333593   0.09817356  63.10 0.0007036715    1.733    0.423
       363  -9.3243     72.0367     14.9958   5.1692966352e+01   6.3297488723e+01    0.1756232    0.1546492 -86.83 -0.003769674    1.516    0.340
       364  -8.9173    196.7972    222.0182   7.6366527465e+01   1.6953412382e-01    0.2161454    0.1254287 -13.12  0.001082362    2.015    0.504
       365 -11.0633     62.1373     22.3751   5.8589586162e+01   6.4446466274e+01    0.2834086    0.2271324  17.00 0.0006607474    1.143    0.125
       366  -9.4504     89.2660    220.7240   9.9661766431e+01   1.6093674105e+01    0.2371375    0.2197604   6.26 0.0007936028    1.207    0.172
       367  -8.4172    123.4669     23.5352   4.2357342193e+01   5.0624643957e+01    0.1351554    0.1207761  59.07 9.257491e-05    1.032    0.031
       368  -9.6435    116.9581     22.3144   4.3205235658e+01   5.2322918498e+01    0.2041438    0.1866979  12.22 0.0003071043    1.208    0.172
       369  -9.0977     26.2883     22.4485   7.5426515161e+01   7.0270495733e+01     0.257098    0.1472946 -32.73 0.0009205446    1.625    0.385
       370  -8.7560     11.4715     23.0211   8.4533734603e+01   7.1820502034e+01     0.158405   0.07832501 -26.34 0.0007896522    2.015    0.504
       371  -8.0528    206.6838    217.6964   7.3745765406e+01  -4.9750498551e-01    0.1301385    0.0831708  -4.05 0.0007024513    1.622    0.383
       372  -8.1687    110.3179    214.6815   9.3951286407e+01   1.4317122343e+01    0.1394662   0.09896271  61.23 0.0004954142    1.658    0.397
       373  -8.5952    117.5187    211.9876   9.1876609378e+01   1.3789317171e+01    0.1910715    0.1369904 -54.99 0.0005226612    1.533    0.348
       374  -9.7484    193.2012     20.0238   3.1912915880e+01   3.4426609461e+01    0.2595362    0.1843353  41.59 0.0007943294    1.884    0.469
       375  -9.1744    195.4170     15.8494   3.0704977668e+01   3.4383065644e+01    0.2290658    0.1927426  85.39 0.0007270412    1.133    0.118
       376  -8.3794      2.6319    212.3098   1.1873309804e+02   2.7814082658e+01    0.1334803   0.06463262  58.30 0.0007036585    1.762    0.432
       377  -9.0595    242.6970    210.1539   6.6068274057e+01  -3.9773336097e+00    0.1962918    0.1587119 -35.91 0.0008267238    1.499    0.333
       378  -8.4888    230.5921    209.7974   6.8051352450e+01  -2.4319084621e+00    0.1589321    0.1027773 -38.65 0.0005750205    1.577    0.366
       379  -8.0278    145.3313    210.2850   8.5206987123e+01   9.8307178891e+00    0.1391975     0.100559  -1.93  0.000293926    1.616    0.381
       380  -8.6160    194.8051    209.3954   7.4592292455e+01   2.4910072513e+00    0.1838312    0.1102888  20.09 0.0009451137    1.676    0.403
       381  -9.7912    123.9884    206.0043   8.9451750872e+01   1.4029601319e+01    0.1965261    0.1805166  23.34  0.001162632    1.012    0.012
       382  -8.7640     35.2978    201.6481   1.1055642159e+02   2.7103623271e+01    0.1408519   0.08167758  63.87 0.0007035427    1.690    0.408
       383  -9.3069      7.5468    195.2397   1.1669225279e+02   3.1253103261e+01    0.3750104    0.1660908  38.64   0.00189817    2.020    0.505
       384  -8.4327     96.0334    195.5172   9.4694435708e+01   2.0634776069e+01    0.2090142    0.1331503  32.63  0.000509934    1.500    0.333
       385  -8.6264    241.9626    193.7648   6.3268525670e+01  -1.5008230738e+00    0.1421223   0.09477954  26.02 0.0004602511    1.579    0.367
       386  -8.6185     31.6723    181.3190   1.0963459927e+02   3.2347388461e+01    0.1445271   0.08617692  62.61 0.0007046903    1.682    0.406
       387  -8.1474      1.2475    177.0120   1.1708216633e+02   3.6071404756e+01    0.1572455   0.09145885 -81.83 0.0003597413    1.472    0.321
       388  -8.7641    139.8685     18.6358   3.7950299225e+01   4.7158632077e+01    0.1981466    0.1823623  -2.61 0.0006661377    1.285    0.222
       389  -9.3333    238.0549     17.3876   2.7807521484e+01   2.5339814673e+01    0.1887608    0.1534393 -26.46 0.0005620521    1.546    0.353
       390  -9.0018    125.4750     17.3024   3.9865362620e+01   5.0785661115e+01    0.3316348    0.1336812  59.76  0.001420655    2.080    0.519
       391  -9.6067     17.8564    174.8125   1.1266506943e+02   3.5266281587e+01    0.1950565    0.1699864 -58.64  0.001227866    1.252    0.201
       392 -11.0758     15.9203    165.0063   1.1233334097e+02   3.7876868515e+01    0.5195528    0.2207064  18.25  0.002227195    2.874    0.652
       393  -9.0576     52.9177     16.6553   5.9485887478e+01   6.6880915484e+01    0.2026688    0.1516211  -0.59 0.0002834358    1.315    0.239
       394 -10.4123      7.0612    166.0000   1.1480938750e+02   3.8334141980e+01    0.2097704    0.1827847  16.69  0.001115122    1.395    0.283
       395 -11.9632     30.6760    154.4896   1.0705100660e+02   3.9224712386e+01    0.6657643    0.4396003  54.36  0.003181237    1.559    0.359
       396 -12.2116     41.7375    162.6000   1.0482497602e+02   3.5986530482e+01    0.5089443       0.3204  58.55 0.0005131048    1.677    0.404
       397 -10.9891     35.7836    158.5994   1.0605085871e+02   3.7651634529e+01    0.3791244    0.3053199  10.06  0.001295329    1.493    0.330
       398  -9.6654     24.2212    162.8671   1.0982984241e+02   3.7688781791e+01    0.2031295    0.1633357  72.24 0.0005463036    1.169    0.144
       399  -8.4841    111.5794     15.1175   4.1688000939e+01   5.4338253230e+01    0.1633311    0.1237326   8.74 0.0004698155    1.585    0.369
       400 -10.0087      8.0327    161.9314   1.1422534153e+02   3.9275524795e+01    0.1961576    0.1641025  88.45  0.000381175    1.011    0.011
       401  -8.7524     84.0682     14.1816   4.7756429809e+01   6.0783638857e+01    0.1991321    0.1463493  86.85  0.001071406    1.831    0.454
       402 -10.8942      1.8644    157.6600   1.1557616181e+02   4.0785307675e+01    0.6373225    0.1605469 -73.56 0.0009951638    3.108    0.678
       403  -9.3453      9.7205    157.8418   1.1341654557e+02   4.0176336805e+01    0.2480005    0.1331303  37.56  0.001253793    1.884    0.469
       404  -8.9248     90.5566     13.5142   4.5770781496e+01   5.9393022253e+01    0.3003501    0.1173817  60.83  0.001251789    2.318    0.569
       405  -9.5899    248.9738    154.0118   5.4653137578e+01   3.6713342509e+00    0.1985514    0.1547752 -26.40 0.0005872464    1.030    0.029
       406 -10.3010     15.7681    142.9139   1.1019763522e+02   4.3525781129e+01    0.3434655    0.2296489 -16.27  0.001285158    1.990    0.498
       407 -10.9069     19.7279    151.6506   1.0995297730e+02   4.0952943806e+01    0.5279149    0.2406658 -60.04  0.002383905    1.927    0.481
       408 -11.2396     14.1134    150.6695   1.1149728554e+02   4.1661774077e+01    0.4414374    0.3090597  25.02  0.000306284    1.611    0.379
       409  -9.5164      9.1796    147.7442   1.1265899328e+02   4.2780223037e+01    0.2813917    0.2049022 -20.12  0.001427265    1.764    0.433
       410  -9.4129     45.7864    151.7098   1.0217621753e+02   3.8343439643e+01    0.2269176    0.1951252 -51.40 0.0002917357    1.183    0.155
       411  -9.4179     35.6956    149.0543   1.0486750373e+02   4.0131401867e+01    0.1976891    0.1632201 -73.61 0.0001754674    1.097    0.089
       412  -8.3629     63.2954    148.7469   9.6393655086e+01   3.6921607522e+01    0.1446192    0.1076093  64.38 0.0001558984    1.491    0.329
       413  -9.8084      3.3258    146.0253   1.1421628292e+02   4.3619712004e+01    0.3057295    0.2191986 -46.05  0.001770004    1.497    0.332
       414  -8.7649    241.2375    144.0202   5.3809497850e+01   6.4183567164e+00    0.1754602   0.09011833 -36.97 0.0005503732    1.599    0.375
       415  -9.2770     38.3116    143.1260   1.0324428344e+02   4.1405162124e+01    0.2399264    0.1962836  40.52 0.0002720257    1.289    0.224
       416  -9.9231     20.8926    140.6470   1.0836017923e+02   4.3698005626e+01    0.2807269    0.1844181 -82.34  0.001453185    1.408    0.290
       417 -10.1933      1.4848    138.9635   1.1413692206e+02   4.5530734411e+01    0.3252773     0.109806 -76.33 0.0009563752    2.483    0.597
       418  -8.3649     48.2602    139.6063   9.9560732124e+01   4.1214120255e+01    0.1514053    0.1045177  76.05 0.0006969892    1.703    0.413
       419 -10.8957     41.3335    134.0434   1.0089678445e+02   4.3457826652e+01    0.5962574    0.2362939 -60.23    0.0023363    2.164    0.538
       420 -10.8352      8.8767    132.0642   1.1115869929e+02   4.6824309470e+01    0.6155257     0.332838 -35.51  0.002919859    2.199    0.545
       421  -9.5944      6.4384    128.6641   1.1156899862e+02   4.7857596220e+01    0.3005088    0.1737446  67.40  0.001472601    1.928    0.481
       422 -10.1544     15.4842    135.5065   1.0944977345e+02   4.5462448719e+01    0.3342454    0.2036046 -41.56  0.001680738    1.774    0.436
       423 -10.1938     12.2730    135.3567   1.1044691767e+02   4.5739061310e+01    0.4184645    0.1404964 -66.60  0.001670765    2.348    0.574
       424  -9.2994    230.8325    136.8893   5.3917475653e+01   9.2558512263e+00    0.2014404    0.1617664 -18.89 0.0007672276    1.205    0.170
       425  -9.9609     34.5749    136.1011   1.0341132329e+02   4.3626980912e+01    0.4146572    0.2134758 -46.73  0.001783103    1.967    0.492
       426  -8.5783     75.3235    136.2968   9.0354104801e+01   3.8403000470e+01    0.1545726    0.1155539 -24.02 0.0002939805    1.623    0.384
       427  -8.8461     58.6761    135.4749   9.5501712748e+01   4.0990024974e+01    0.2853069    0.1857841 -30.58  0.001038347    1.902    0.474
       428 -10.3019     60.4989    131.0610   9.4077480218e+01   4.1893595031e+01    0.5552397    0.3588595  60.93  0.002444877    1.933    0.483
       429  -8.7688    248.9879    133.8547   5.0657622656e+01   6.8552021912e+00    0.1901084    0.1155612 -25.23 0.0006128227    1.607    0.378
       430  -9.9245      2.2533    130.0538   1.1305289078e+02   4.7757144031e+01    0.2600494    0.1696875 -82.33 0.0004865466    1.330    0.248
       431  -8.1950     23.3331    133.3419   1.0666437539e+02   4.5391464224e+01    0.1485707   0.09024187 -41.89 0.0007051031    1.754    0.430
       432 -10.1495     18.5222    126.6704   1.0735950633e+02   4.7519680896e+01    0.3844709    0.1937929 -51.49  0.001777897    1.812    0.448
       433  -9.9848     34.5363    127.5609   1.0211346939e+02   4.5864286220e+01    0.3021819    0.1304442 -69.10  0.001044277    2.157    0.536
       434  -8.9628     39.4217    123.2291   9.9723298355e+01   4.6489870673e+01    0.1997473    0.1640397  67.82 0.0006383358    1.337    0.252
       435  -8.0633    114.7958    126.9993   7.6374222628e+01   3.3769608017e+01    0.1966527    0.1230893 -48.96 0.0008194837    1.570    0.363
