#   1 NUMBER                 Running object number                                     
#   2 MAG_AUTO               Kron-like elliptical aperture magnitude                    [mag]
#   3 X_IMAGE                Object position along x                                    [pixel]
#   4 Y_IMAGE                Object position along y                                    [pixel]
#   5 X_WORLD                Barycenter position along world x axis                     [deg]
#   6 Y_WORLD                Barycenter position along world y axis                     [deg]
#   7 A_WORLD                Profile RMS along major axis (world units)                 [deg]
#   8 B_WORLD                Profile RMS along minor axis (world units)                 [deg]
#   9 THETA_WORLD            Position angle (CCW/world-x)                               [deg]
#  10 FWHM_WORLD             FWHM assuming a gaussian core                              [deg]
#  11 ELONGATION             A_IMAGE/B_IMAGE                                           
#  12 ELLIPTICITY            1 - B_IMAGE/A_IMAGE                                       
         1 -14.9626    206.7758      8.5764   4.5185812979e+01   3.1550724069e+01     3.626797     2.050361  27.59   0.01587378    2.347    0.574
         2 -14.2202    187.0657     37.1627   5.6328090665e+01   3.3468594621e+01     1.114754    0.9045835  23.76  0.004105834    1.344    0.256
         3 -13.8939    172.7001     51.1804   6.3132335268e+01   3.5246693141e+01     1.728526     1.204184  32.59  0.004794399    1.609    0.378
         4 -10.5099     71.7414    230.8265   1.1966017128e+02   2.1125082834e+01    0.2414594    0.1583168  44.38  0.001146381    1.144    0.126
         5 -12.6210    249.0380    249.2728   9.2180640388e+01  -3.2209651851e+00    0.4864004    0.3024922   1.35  0.003986608    1.358    0.264
         6 -18.5894     41.2339    241.0819   1.2553258678e+02   2.2854201435e+01     6.444139     5.146322  40.67    0.0561334    1.318    0.241
         7 -12.2321     71.7843    210.0723   1.1816985196e+02   2.4393440328e+01    0.3908507    0.2346807  22.05 0.0007113332    2.148    0.534
         8 -11.0050    159.8445    196.9908   9.9593424054e+01   1.4260763213e+01    0.1980346    0.1606617  40.97 0.0003291535    1.165    0.142
         9 -11.2490     99.4559    180.8684   1.0965087092e+02   2.5879294433e+01    0.2182058    0.1929703  44.34  0.000552603    1.085    0.078
        10 -11.0643    204.5677    176.5220   8.8130614435e+01   9.9676724978e+00     0.347836    0.2521362 -40.68   0.00160909    1.749    0.428
        11 -12.0223    140.1483    173.8255   1.0002648154e+02   2.0905527126e+01     0.542964    0.3777513  78.00  0.002801179    2.386    0.581
        12 -12.1438    153.1122    199.1761   1.0117293975e+02   1.4970780109e+01    0.4002843    0.2319394 -56.16  0.002251796    2.454    0.593
        13 -10.0326    185.1330    169.6893   9.0421086622e+01   1.4064536798e+01     0.199572    0.1717062 -34.30 0.0007966479    1.360    0.265
        14 -10.2957    163.6358    169.4228   9.4519879767e+01   1.7724663109e+01     0.221062    0.2021111  82.09 0.0006104055    1.451    0.311
        15 -10.4437    207.4129    193.2219   9.0474100194e+01   7.5046820803e+00    0.1386299    0.1070132 -34.02 0.0006755216    1.610    0.379
        16 -10.9540     81.8066    195.8803   1.1496457234e+02   2.5577616394e+01    0.2859102    0.2579408 -19.86  0.001579675    1.542    0.351
        17 -11.0870    229.9784    165.9963   8.1940359680e+01   7.2057646582e+00    0.1624311    0.1539605 -47.88 0.0007680764    1.686    0.407
        18  -9.9303    192.5822    165.0346   8.8191710866e+01   1.3459631555e+01    0.2060453     0.164477  38.04 0.0006428087    1.243    0.195
        19 -19.1104     21.2096    101.7792   1.2057455562e+02   5.2210079100e+01     15.82171    0.8563176 -73.92   0.02735155   15.020    0.933
        20  -9.3959    117.6789    162.0721   1.0305219218e+02   2.6596130936e+01    0.1656313    0.1574948 -89.19 0.0005287435    1.132    0.116
        21  -9.7150      2.2894    161.8864   1.2974561846e+02   4.0259110228e+01    0.1390635    0.1080893  65.08 0.0004445744    1.072    0.067
        22 -12.0206    193.8678    196.1374   9.3274740215e+01   9.1939586239e+00    0.9685051    0.5359576 -56.17  0.004253487    4.630    0.784
        23 -10.9149    188.6626    154.6678   8.6940767306e+01   1.5613001778e+01    0.5107901    0.2444899  35.42   0.00236884    1.989    0.497
        24 -12.4458     98.4136    152.7679   1.0609677732e+02   3.1402780888e+01     0.543336    0.4274002 -22.90  0.003100977    1.745    0.427
        25 -11.6425    133.9615    145.7069   9.6562567573e+01   2.6921770085e+01     1.099542     0.299483 -54.23   0.00308457    5.835    0.829
        26 -10.2195    113.2761    151.4980   1.0237174866e+02   2.9321195602e+01    0.2449197    0.2014322 -89.86 0.0006967306    1.394    0.282
        27 -12.4227    204.0220    199.4216   9.2039127667e+01   7.2906216077e+00     0.531709    0.2232192  29.03  0.002628438    2.292    0.564
        28 -10.5348    174.3670    148.8520   8.8553391293e+01   1.9066461892e+01    0.2619511    0.2345292  64.92 0.0008504634    1.412    0.292
        29 -12.3879    149.1348    186.4468   1.0012408552e+02   1.7460668552e+01    0.3608522    0.2744616  70.23  0.001895077    1.837    0.456
        30 -11.1796    143.8072    146.9055   9.4583872983e+01   2.4949509423e+01    0.3643583    0.2066896 -51.91  0.001727605    2.031    0.508
        31 -10.0727    159.2931    146.4179   9.1152258659e+01   2.2223650969e+01    0.2724706    0.1991235 -84.05   0.00128716    2.492    0.599
        32  -9.7066    115.9284    144.8760   1.0061451642e+02   3.0186418915e+01    0.2077762    0.1531568  69.60 0.0005759736    1.624    0.384
        33 -11.8358    108.7576    139.0827   1.0132564828e+02   3.2547136113e+01    0.5524266    0.3155014 -35.93  0.002472053    2.368    0.578
        34 -12.5433     97.4573    138.4274   1.0403819824e+02   3.4506556248e+01    0.2506304    0.2382435  59.32 0.0004086243    1.045    0.043
        35 -11.4658    105.9304    130.8117   1.0051272463e+02   3.4736429358e+01    0.3468212    0.3008383 -76.47  0.001143007    1.206    0.171
        36 -11.4358    103.5263    125.4922   1.0010868647e+02   3.6269672222e+01    0.2643152    0.2366686   1.68   0.00152205    1.325    0.245
        37 -10.7618    135.8790    127.7801   9.2514938023e+01   2.9984413397e+01    0.5224842    0.1824621 -47.06  0.001868969    3.001    0.667
        38 -10.8622    115.7651    129.5195   9.7771762640e+01   3.3315591848e+01    0.3033272    0.2521058  12.65 0.0007582519    1.427    0.299
        39 -10.2469    160.7889    127.7682   8.6898978739e+01   2.5162440800e+01    0.3059711    0.2315786 -50.25  0.001601002    1.498    0.332
        40 -10.4519    120.6570    123.3579   9.5271289933e+01   3.3702660936e+01    0.4310041    0.2653269 -18.82   0.00167802    3.016    0.668
        41  -9.7903    135.0000    119.9576   9.0992632050e+01   3.1676849598e+01     0.232311   0.08137832 -45.31 0.0007999093    2.925    0.658
        42 -10.1162    110.9335    118.8274   9.6795584870e+01   3.6406588102e+01     0.203223    0.1955106  60.88  0.000438999    1.018    0.017
        43 -10.2370    168.1413    112.9975   8.1864153834e+01   2.6244699878e+01    0.3151071     0.239965 -77.55  0.001320832    2.060    0.515
        44 -10.2669    134.7523    105.5474   8.7591192302e+01   3.4570015486e+01    0.4502065     0.141046 -47.02  0.001419375    3.370    0.703
        45 -11.2610    119.3787    110.6797   9.2749335421e+01   3.6564580194e+01    0.5540144    0.3277417  62.65  0.002262736    2.379    0.580
        46 -10.4885    152.1951    210.9782   1.0290972378e+02   1.3467502017e+01    0.1620981    0.1333082  47.47 0.0003915433    1.249    0.200
        47 -10.4608    205.5229    110.1532   7.4041536399e+01   1.8952306885e+01     0.295955     0.190105  36.71 0.0008860854    1.567    0.362
        48 -10.8740      7.1837    215.1291   1.3050436761e+02   3.0072405426e+01    0.2411496    0.1119695  17.75  0.001325666    3.630    0.725
        49 -11.6033    158.1954    235.8566   1.0481697880e+02   9.4989086809e+00     0.318136    0.1798293  27.95   0.00165046    1.512    0.339
        50 -11.1295    154.4050    186.3436   9.9073447156e+01   1.6648107478e+01    0.2603686    0.2077311 -87.11  0.001277441    1.958    0.489
        51 -13.2693    191.4280     30.7981   5.3710070830e+01   3.3119511964e+01     0.636865    0.4721486  51.46  0.001608995    1.404    0.288
        52  -8.8965     95.6463     63.2849   8.6183218649e+01   5.1253343570e+01    0.1484819    0.1189124  89.82 0.0007020413    1.665    0.399
        53 -12.4572    166.4271     66.5627   6.9223740632e+01   3.4475704311e+01    0.9440296    0.5737332 -51.36 0.0006427082    1.937    0.484
