#   1 NUMBER                 Running object number                                     
#   2 MAG_AUTO               Kron-like elliptical aperture magnitude                    [mag]
#   3 X_IMAGE                Object position along x                                    [pixel]
#   4 Y_IMAGE                Object position along y                                    [pixel]
#   5 X_WORLD                Barycenter position along world x axis                     [deg]
#   6 Y_WORLD                Barycenter position along world y axis                     [deg]
#   7 A_WORLD                Profile RMS along major axis (world units)                 [deg]
#   8 B_WORLD                Profile RMS along minor axis (world units)                 [deg]
#   9 THETA_WORLD            Position angle (CCW/world-x)                               [deg]
#  10 FWHM_WORLD             FWHM assuming a gaussian core                              [deg]
#  11 ELONGATION             A_IMAGE/B_IMAGE                                           
#  12 ELLIPTICITY            1 - B_IMAGE/A_IMAGE                                       
         1 -10.8850     37.7402     11.1862   7.0682060830e+01   6.9100380554e+01     1.084908    0.3515616 -40.78  0.004361853    4.048    0.753
         2 -10.2402     10.4331     18.6882   8.8427180932e+01   7.1199504632e+01     1.099524     0.423545 -16.71  0.003462656    6.507    0.846
         3 -10.7587     32.1103     64.4826   9.4485275635e+01   6.0765227563e+01     1.667359    0.5883691 -31.85  0.005465989    4.323    0.769
         4 -11.1354     23.7897     32.1919   8.7092787637e+01   6.7738862482e+01     1.547475    0.4693532 -36.45   0.00470724    3.159    0.683
         5 -10.3796     26.2328     11.0566   7.6228057815e+01   7.0657650137e+01      0.81535    0.3403592  33.14  0.004228741    2.304    0.566
         6 -10.2276     18.3498      5.1964   7.7382057268e+01   7.2350665191e+01    0.5586943    0.3320571 -39.39  0.002797923    1.908    0.476
         7 -10.2170      4.8868     42.8050   1.0035248994e+02   6.7294726116e+01    0.8560494     0.366883 -62.30  0.004148159    2.447    0.591
         8 -10.5382      7.0345     30.1446   9.4959309230e+01   6.9526340521e+01    0.5945384    0.3126453 -44.13  0.001867684    1.516    0.340
         9 -10.3498     69.6916     39.6050   7.0276368284e+01   6.0130028982e+01     1.265576    0.3622097 -35.37  0.004452689    3.562    0.719
        10 -10.0050     76.2059     32.0608   6.4918301831e+01   6.0017260406e+01    0.5386234    0.4137914 -85.33  0.001086048    2.523    0.604
        11 -10.2343     63.0046      3.3487   5.6743354889e+01   6.5698978603e+01    0.6378785    0.4549172 -19.64  0.004061874    1.484    0.326
        12 -10.1777     73.5127     17.8382   5.9818047562e+01   6.2269624371e+01     1.123358    0.2594711 -28.00  0.003785999    4.603    0.783
        13  -8.5415     72.0399      8.4990   5.6172709957e+01   6.3504538716e+01    0.2164897    0.1516221  10.05 0.0003553792    1.418    0.295
        14  -9.8216     60.7699     31.8024   7.0428183350e+01   6.2807727586e+01    0.8723557    0.3750618 -25.00  0.003311103    2.776    0.640
        15  -9.6634     63.1690     21.1142   6.4868367188e+01   6.3807188850e+01    0.5886193    0.3180913 -48.58   0.00197101    3.119    0.679
        16  -9.8469     64.6671     13.3730   6.0834450052e+01   6.4417373494e+01     0.336976    0.2420128  15.23 0.0002202151    1.283    0.221
        17 -10.3301     51.3436     14.9889   6.6638666330e+01   6.6553690399e+01    0.9687629    0.4932003  10.66  0.004173002    2.971    0.663
        18  -9.2494    118.8326     21.0700   4.9084500197e+01   5.2174225518e+01    0.3590302     0.238568 -31.40  0.001305212    1.648    0.393
        19  -8.2675    104.9040     14.8833   4.9919759302e+01   5.5975864805e+01     0.409003    0.2091287  19.07  0.001700916    2.967    0.663
        20  -9.1046     96.1589     14.9953   5.2082523185e+01   5.7897792618e+01    0.5008259    0.2269262 -17.39  0.001820208    2.649    0.622
        21  -9.4780      2.3396     14.4842   9.1223979440e+01   7.2506698790e+01    0.4264362    0.2264655 -58.27  0.002034334    2.805    0.644
        22 -10.4658      5.6976      4.6425   8.4450133143e+01   7.3710497749e+01     0.526565    0.3500527   4.62  0.001898151    1.286    0.223
        23  -9.0821    114.4128      9.6712   4.5958413817e+01   5.4287214758e+01    0.3456482    0.1955233  37.72 0.0001588769    1.775    0.437
        24  -9.5879     85.4061     13.1428   5.4203593417e+01   6.0366314779e+01    0.4062972    0.2445501 -48.58  0.001474689    2.415    0.586
        25  -8.0067     80.5243     12.4870   5.5331232706e+01   6.1433729799e+01    0.2297088    0.1742319 -47.52  0.001158751    1.768    0.435
        26  -8.1295    141.3378     12.2016   4.2027589662e+01   4.7710083669e+01    0.2067305    0.1671631 -15.23 0.0008028756    1.450    0.310
        27  -9.3195    133.5807     11.7528   4.3146864705e+01   4.9604332248e+01    0.3913207    0.2056822 -43.13  0.001770299    2.156    0.536
        28  -8.8085    130.9691      6.2453   4.1791037288e+01   5.0705362200e+01    0.2553487    0.2355432  88.58  0.001089601    1.129    0.114
        29  -8.4065    134.0000      4.0328   4.0594980815e+01   5.0169608097e+01    0.2117648    0.1585755  -2.34  0.001252625    1.636    0.389
        30  -7.6265    136.5001      1.5009   3.9416054110e+01   4.9778881665e+01    0.2210748    0.1081494  67.47  0.001078936    1.731    0.422
        31  -8.3232    120.2434      6.3482   4.3676570977e+01   5.3217184110e+01     0.260317    0.1439278  66.96 0.0008390765    1.631    0.387
        32  -8.5027    125.0474     12.9896   4.5064869342e+01   5.1511589989e+01     0.210694    0.1882536 -31.54 0.0007195328    1.264    0.209
        33  -8.8319    126.9828      8.8272   4.3316279849e+01   5.1427584550e+01    0.2553975    0.1462314  45.96 0.0007588558    1.621    0.383
        34  -8.7909    125.4844      5.4074   4.2430834670e+01   5.2067938538e+01    0.3762312    0.2211416  26.40  0.001519004    2.098    0.523
        35  -7.3333    191.4795     12.0203   3.5646413329e+01   3.5800933723e+01    0.1489467    0.1053291  23.24 0.0005058816    2.176    0.541
        36  -8.5566    102.0396      8.1140   4.8007357491e+01   5.7228815682e+01     0.231854     0.178466 -28.32 0.0005085743    1.475    0.322
        37  -8.3043    137.5249      8.5164   4.1470449275e+01   4.8953657251e+01    0.1291732      0.11322  73.59 9.261784e-06    1.049    0.047
        38  -9.1220    110.3068      4.9612   4.5079231301e+01   5.5622775163e+01    0.4374317    0.2448777 -24.89  0.002312879    2.001    0.500
        39  -8.5186     97.7555      5.9607   4.8151215450e+01   5.8358602268e+01    0.2248232    0.1740518  11.39 0.0008353902    1.362    0.266
        40  -8.6298     96.2846      3.2963   4.7443758713e+01   5.8895716932e+01    0.2531596    0.1828687  40.96 0.0006756478    1.191    0.160
        41  -8.3109     85.0051      6.6214   5.1590753043e+01   6.1045008688e+01    0.2785109    0.1471621  31.33  0.001397227    1.902    0.474
        42  -8.6256     77.2823      6.3031   5.3612688078e+01   6.2661542573e+01    0.2057788    0.1778827   0.79 0.0002476215    1.190    0.160
        43  -9.0439     78.8149      3.1307   5.1792034734e+01   6.2617917245e+01     0.297732    0.2348836  64.83  0.001220417    1.420    0.296
        44  -7.6323    143.2112      4.9487   3.9511211605e+01   4.7902827895e+01    0.1541441     0.103991 -25.11 0.0006234593    1.701    0.412
        45  -9.1043    115.3763      4.3055   4.3862716425e+01   5.4511354527e+01    0.2563204    0.1938348 -46.13 0.0006376749    1.565    0.361
        46  -8.1703    104.3288      2.3507   4.5328284660e+01   5.7181270910e+01     0.246141    0.1601941  23.89  0.001239936    1.664    0.399
        47  -8.6045     88.9848      2.5190   4.8864766631e+01   6.0538045285e+01    0.2277795    0.1782656  -2.33 0.0008049199    1.367    0.268
        48  -7.9347    151.1691      1.3979   3.7380006296e+01   4.6299334045e+01    0.1786887     0.106829  84.14 0.0005239891    1.624    0.384
        49 -10.8552    133.4774    109.1181   7.3370005215e+01   3.4170876495e+01    0.9545931    0.4644458 -47.81  0.002543054    2.068    0.516
        50 -11.0191    193.6604    249.0825   8.8279341751e+01  -4.5897858156e+00    0.8130219     0.284621  36.09  0.003625861    2.470    0.595
        51  -9.7367    201.7614    246.9959   8.6405202882e+01  -5.4254555144e+00    0.3310496    0.2687319 -35.93  0.002225291    1.483    0.326
        52  -9.8277    175.9792    248.5874   9.1656486720e+01  -1.9737972036e+00    0.3412349    0.2112316 -42.57  0.001960767    1.861    0.463
        53  -9.3988    171.2517    248.9108   9.2640779018e+01  -1.3296500469e+00    0.3239218    0.1720269  11.75   0.00140068    2.929    0.659
        54  -9.8795    162.1716    248.8780   9.4449149482e+01   1.9423352917e-02    0.3522703    0.2092229  51.33  0.001834637    2.041    0.510
        55 -11.3376    121.1096    107.7991   7.6342743365e+01   3.7085544151e+01     1.907833    0.7647392 -43.89  0.005720914    2.446    0.591
        56 -10.5272    128.2276    100.9994   7.2519070296e+01   3.7051156923e+01     0.939687    0.4706995 -32.65  0.002420099    2.393    0.582
        57 -10.2301    123.1354     91.3477   7.1120967437e+01   4.0169692844e+01    0.6518061    0.4895199  31.84 0.0009890184    1.423    0.297
        58  -9.4192    110.1277    106.6058   7.9140824422e+01   3.9585777905e+01    0.7433545    0.4206267  24.24  0.002092618    2.498    0.600
        59 -10.4894    108.0878     99.5343   7.7773374448e+01   4.1566725339e+01    0.8093921    0.5964822  79.13  0.002512239    2.062    0.515
        60  -9.8329     98.7030    128.6600   8.8082052033e+01   3.6539868981e+01    0.7058188    0.4251587  69.25  0.002501999    3.004    0.667
        61  -7.7816    190.0256    129.9932   6.5716498503e+01   1.7529705204e+01    0.1784684    0.1710418 -25.61 0.0004348036    1.028    0.027
        62  -7.1571    183.2706    129.6778   6.7019538089e+01   1.9010656096e+01    0.1493229    0.1184611 -70.64 0.0002048614    1.569    0.363
        63  -7.9288     55.4959    133.5254   1.0211729410e+02   4.1858854672e+01    0.1437907    0.1284529 -58.67 -3.396639e-05    1.039    0.037
        64  -9.9967     41.8556    122.6364   1.0439089353e+02   4.6169397297e+01      0.67084    0.3529094 -85.81  0.002645058    2.746    0.636
        65 -10.0855     27.0638    122.6679   1.0907588666e+02   4.7579752410e+01    0.6224751     0.344025  69.16  0.002255225    2.572    0.611
        66  -8.4065     98.8287    119.9628   8.5957444846e+01   3.8618708092e+01    0.4829048    0.2854642 -14.36   0.00154488    3.685    0.729
        67  -7.8898      7.8197    120.9950   1.1480502255e+02   4.9427087547e+01    0.2175685    0.1249092  77.43  0.001084476    2.039    0.509
        68  -9.8819    140.7471    118.4263   7.3966174945e+01   3.0567303017e+01    0.4887234    0.3744839 -83.60  0.001300602    1.802    0.445
        69 -10.3696     92.0729    112.9832   8.6256568003e+01   4.1487734961e+01    0.6943682    0.6299011  83.95  0.001598229    1.258    0.205
        70  -8.9279     92.9347    103.7638   8.3566706285e+01   4.3491178279e+01    0.7079949    0.3899335  12.73  0.002235915    3.876    0.742
        71  -8.6841    152.9613    115.3187   7.0158172265e+01   2.8572654702e+01    0.2104822    0.2095849  49.62 0.0006532163    1.036    0.035
        72  -9.6464     81.6001     99.1300   8.5944843743e+01   4.6519946901e+01    0.7585205    0.2962097 -50.94  0.002013222    2.439    0.590
        73  -8.5249     73.7330    115.5964   9.2675623322e+01   4.3847867316e+01    0.2680696    0.1463903  38.71  0.001141059    1.947    0.486
        74 -10.3444     78.3019    112.9989   9.0592195825e+01   4.3776777510e+01    0.5879028    0.3898554 -83.23  0.001780602    2.309    0.567
        75  -8.1018     77.8858    105.7075   8.8904348165e+01   4.5588230723e+01    0.3608324    0.2095862 -19.50  0.001311914    2.927    0.658
        76  -7.4887    167.3825    114.1530   6.6555908233e+01   2.5615938106e+01    0.2244477    0.1392367 -51.25 0.0003771042    1.683    0.406
        77 -10.1512     65.6915    110.7572   9.4158978198e+01   4.6197522509e+01    0.6876644    0.4873069  84.10  0.001218053    2.049    0.512
        78  -9.3843     59.2659    109.1885   9.5933983460e+01   4.7450964706e+01    0.5607053    0.3448011 -78.50  0.001684811    2.234    0.552
        79 -10.7415     63.5455     96.9992   9.1491416097e+01   4.9784307403e+01     1.303629    0.6106404 -64.41  0.004798423    2.787    0.641
        80  -9.3889     64.2970     86.2770   8.8306062384e+01   5.2126680747e+01     1.105835    0.5413769 -25.54  0.003755872    3.530    0.717
        81  -9.9393     14.2461    111.3984   1.1143740688e+02   5.1354978084e+01    0.5373366    0.3020809  80.75  0.001872065    2.328    0.570
        82  -8.9976     14.3054    105.3223   1.1046349192e+02   5.2829578133e+01    0.2593659    0.1481789 -38.36  0.001349696    1.761    0.432
        83  -8.1480    158.8431    112.0176   6.7921095111e+01   2.7957872144e+01    0.2378085    0.2064826 -68.52 0.0005013326    1.270    0.213
        84  -8.6144      1.6337    116.5425   1.1614615175e+02   5.0877107322e+01    0.3888475    0.1422591 -80.61  0.001578839    2.727    0.633
        85  -9.3158     35.8772    110.9958   1.0418820174e+02   4.9671007091e+01    0.3287032    0.1799528 -64.69 0.0008778315    1.619    0.382
        86 -10.9201     21.6600    102.0078   1.0737054050e+02   5.3101905335e+01     1.192197    0.6095371  74.51  0.003411385    3.962    0.748
        87  -9.6585     17.1005     91.0533   1.0693757142e+02   5.6051009676e+01    0.6228597    0.3977626 -15.24   0.00340937    1.843    0.458
        88  -8.7244    242.4040    109.8087   5.2170510520e+01   1.0784494977e+01    0.1842529    0.1147194 -29.89 0.0002572031    1.567    0.362
        89  -8.3222    149.8765    110.0515   6.9508226226e+01   3.0367557269e+01    0.2423775    0.2083299 -68.97 0.0004687489    1.300    0.231
        90  -9.5400    149.4115    103.3862   6.7823809670e+01   3.1855238153e+01    0.4965036     0.358265 -46.09 0.0009196521    1.370    0.270
        91  -9.5128     39.8942    106.5229   1.0193714555e+02   5.0367372665e+01     0.514997    0.1846595 -61.18  0.001407748    2.416    0.586
        92 -10.8910     44.7791    102.2517   9.9328682254e+01   5.0884032223e+01    0.9262413    0.5666708  77.17  0.003011679    2.941    0.660
        93  -8.3454    250.0000    106.0125   5.0315591216e+01   1.0020356669e+01    0.2290352   0.06415246 -38.04 0.0008083033    2.983    0.665
        94  -8.5297    165.9998    103.9633   6.4200306023e+01   2.7975935119e+01     0.293715    0.2087396 -42.47 0.0004831887    1.362    0.266
        95  -7.2278     36.3347    105.2862   1.0291040138e+02   5.1026050259e+01    0.1417056   0.09140854 -33.97 0.0002723719    1.625    0.385
        96  -9.5690      6.0627    103.6519   1.1297975423e+02   5.3744201523e+01    0.4082968    0.2967823  38.19  0.001977938    1.660    0.397
        97  -8.1152     73.9333    102.6868   8.9430344758e+01   4.6920279989e+01    0.3301599    0.1921422 -47.51  0.001117358    1.581    0.368
        98  -8.4668    158.9755    101.3671   6.5058665782e+01   3.0091689944e+01    0.2825379    0.2033578 -55.30 0.0005056228    1.492    0.330
        99  -9.5492     94.4292     97.2409   8.1289004450e+01   4.4697601305e+01    0.3608205    0.3050171 -74.65 0.0006383339    1.429    0.300
       100  -9.6841     95.3592     90.6726   7.9094993111e+01   4.5966393757e+01    0.4996654    0.3580758   6.84   0.00128448    1.828    0.453
       101  -8.4297    150.2346     95.8597   6.5554577734e+01   3.3185751810e+01    0.4381012    0.2937852 -41.21  0.001961381    1.466    0.318
       102  -7.7274    238.7296     96.6977   4.9803997038e+01   1.3655535412e+01    0.1246392    0.1016135  -9.21            0    1.531    0.347
       103  -8.1120    189.8842     94.8241   5.7053423813e+01   2.4282490817e+01    0.2150693    0.2021955  -0.77 0.0004138319    1.184    0.155
       104  -8.7817    164.4564     94.3202   6.1946135833e+01   3.0206031280e+01      0.29027    0.2309788 -64.19 0.0007688073    1.398    0.285
       105  -9.7757    138.7681     92.5760   6.7397589277e+01   3.6451913744e+01    0.4492535    0.3228123 -67.86 0.0009002683    1.827    0.453
       106  -9.5220    140.5914     82.3714   6.3978864693e+01   3.8011267739e+01    0.7027046    0.3141904 -35.89  0.001440056    2.334    0.572
       107  -8.3416     89.0001    249.0846   1.0932033402e+02   1.0740610498e+01    0.1837574    0.1506352  54.46 0.0004711853    1.025    0.024
       108 -10.3639    156.0892    246.1822   9.5296127829e+01   1.3639717783e+00    0.3473047    0.2148315  30.09  0.001935206    1.405    0.288
       109  -9.7133     42.7220     53.5506   8.6409929023e+01   6.1784574478e+01     0.494862     0.375894  48.78  0.001627877    1.837    0.456
       110 -10.2763     16.0427     70.3853   1.0284188391e+02   6.0842364023e+01     1.335459    0.1815376 -60.00  0.003969559    4.934    0.797
       111 -10.6959     25.6281     77.9051   1.0078446719e+02   5.8431885877e+01    0.8252382    0.5814138 -68.81  0.004665899    1.497    0.332
       112  -8.4123     11.5019    242.0318   1.2366701821e+02   2.1421993933e+01     0.162624   0.06467476  72.42 0.0008087984    2.457    0.593
       113  -7.7639    240.1761    241.1285   7.8412369739e+01  -9.6951740710e+00    0.1422242    0.1213336  -2.51 0.0003884206    1.288    0.224
       114 -11.0006     21.7105     53.2495   9.5615604602e+01   6.4019312569e+01    0.8395228    0.6376272 -76.25  0.003010029    1.886    0.470
       115  -8.8193    188.0525    233.5187   8.6927249427e+01  -1.4216711177e+00    0.2391514    0.1850474 -35.06  0.000863689    1.404    0.288
       116  -8.9302    200.5431    229.1938   8.3750250005e+01  -2.6049573612e+00    0.2469961    0.2161338 -65.89  0.001540428    1.801    0.445
       117  -9.9128     34.6178     90.6645   1.0036399152e+02   5.4690795955e+01    0.5541313    0.2879397 -76.37  0.001821111    2.750    0.636
       118 -10.2005     36.7932     81.1407   9.7209481937e+01   5.6668408316e+01    0.7721378    0.3869494 -10.99   0.00294148    3.496    0.714
       119 -10.0754     13.2079     45.2061   9.7043861830e+01   6.6277017022e+01    0.6745093    0.3165006 -19.72  0.002480325    2.498    0.600
       120 -10.3812    220.3825    222.8698   7.8873807387e+01  -4.5165108998e+00    0.2247681    0.1906166  -7.62  0.000297741    1.122    0.109
       121  -8.8065    188.4668    223.1406   8.5122662531e+01   1.9483151566e-01      0.22295    0.1665597  33.54 0.0003069661    1.270    0.213
       122 -10.1429      4.3874     89.3727   1.1129061097e+02   5.7221547150e+01    0.5995196    0.3124226 -89.73  0.002073957    2.524    0.604
       123  -9.4352      6.0037     78.8032   1.0874289004e+02   5.9574457897e+01    0.6146212     0.214374 -30.21  0.002395945    3.618    0.724
       124  -8.0933    157.3054     91.1448   6.2629593694e+01   3.2470482047e+01    0.2180519    0.1951846 -55.86  0.001127703    1.130    0.115
       125 -10.3403     47.9799     84.4407   9.3802437242e+01   5.4690772425e+01    0.6628602    0.4623004 -72.35  0.001821688    1.796    0.443
       126  -9.5122     48.5771     77.3341   9.1597361070e+01   5.6198796768e+01    0.6326778    0.3545265  -5.29   0.00259831    2.828    0.646
       127  -9.9098     81.6265     72.4000   7.7926116380e+01   5.2264896680e+01    0.4476713    0.3255948 -67.61 0.0008420926    2.003    0.501
       128  -9.1874     83.1924     64.7816   7.4837875197e+01   5.3447580444e+01    0.5657619    0.3676583  -1.11  0.002168848    2.196    0.545
       129 -10.1578     85.4271     86.5445   8.1077310542e+01   4.8667451353e+01    0.4630283    0.3622926 -89.79 0.0009502838    1.928    0.481
       130  -9.7782     87.3907     78.8799   7.8068706163e+01   4.9923295792e+01    0.6926355       0.4169  17.72  0.002195662    2.321    0.569
       131  -8.1269    163.5403     86.8337   6.0087659659e+01   3.1824018819e+01    0.2790975    0.1488868 -34.40 0.0006673975    1.943    0.485
       132  -8.6424    150.0271     88.7101   6.3590242511e+01   3.4625227722e+01    0.3436998    0.2817836 -16.38  0.001370297    1.388    0.279
       133 -10.3068    103.8994     82.5580   7.3994456251e+01   4.5996934295e+01    0.5573625    0.3208017 -52.56  0.000893411    1.976    0.494
       134  -9.7728    104.9653     71.4346   7.0134305959e+01   4.7942659554e+01    0.8535747    0.3771392 -29.98  0.002980913    2.897    0.655
       135  -9.5039    109.7501     63.7504   6.6200816186e+01   4.8312468244e+01    0.4029166    0.2802776 -51.39 0.0008266761    1.666    0.400
       136  -8.5566    111.0274     57.9789   6.3896768785e+01   4.9008399059e+01    0.3228615    0.2425078  23.06  0.001094828    1.459    0.315
       137  -8.6804    157.7384     82.9455   6.0234332620e+01   3.3898979117e+01    0.5030813    0.2198449 -30.26  0.001351347    2.823    0.646
       138  -8.5556    156.9683     75.7996   5.8361285649e+01   3.5356544753e+01    0.4197398    0.1975433 -40.55 0.0009486664    2.093    0.522
       139  -8.9715    139.9141     75.5149   6.2097190081e+01   3.9426957909e+01    0.5573236    0.2569931 -34.08   0.00183934    2.310    0.567
       140  -7.5514    170.4696     83.4860   5.7753330649e+01   3.0805811423e+01    0.1497982    0.1421532 -67.65 0.0008094696    1.036    0.035
       141  -7.9661    166.1395     81.8634   5.8175013596e+01   3.2114539033e+01     0.221252    0.2186996  13.98 0.0002837933    1.068    0.063
       142  -8.3105    166.4572     78.5400   5.7188348582e+01   3.2626621372e+01    0.2626035    0.2142199 -51.67 0.0006769216    1.226    0.185
       143  -8.7742    118.9874     80.4385   6.8973154085e+01   4.3244491966e+01    0.3525025     0.250346 -57.72 0.0005943502    1.678    0.404
       144  -8.5909    119.8603     75.8575   6.7308048714e+01   4.3924206251e+01    0.2979227    0.2372242  -0.53 0.0007088965    1.492    0.330
       145  -9.3520     74.2142     79.1147   8.2642544873e+01   5.2153554247e+01    0.6553804    0.2857016 -48.11  0.001353299    2.211    0.548
       146  -8.9007    149.9385     80.2505   6.1179637368e+01   3.6224069404e+01    0.3827332    0.1966362 -42.98  0.001187156    1.943    0.485
       147  -8.0889    241.3437     80.6756   4.5945596104e+01   1.5713587008e+01    0.1400818   0.08871458 -64.47 0.0007050632    1.736    0.424
       148  -7.6649    174.7169     79.1467   5.5750002545e+01   3.0570254581e+01     0.243865    0.1490879 -73.67 0.0009260174    2.631    0.620
       149  -8.9119     18.0713     77.5563   1.0371129361e+02   5.9099232964e+01    0.3126757    0.1298561 -52.30  0.001029529    1.840    0.457
       150  -8.1418    184.2858     78.0843   5.3719213899e+01   2.8509817834e+01    0.2377289    0.2004998  44.21 0.0005839327    1.289    0.224
       151  -9.4699    127.3154     75.0500   6.5077835814e+01   4.2408101519e+01    0.3931974    0.2846388 -60.31 0.0008259217    1.693    0.409
       152  -8.6947    129.7701     68.9027   6.2534616771e+01   4.2945735226e+01    0.4664507    0.2548037  27.86  0.001682702    2.844    0.648
       153  -8.5639    130.4349     64.7105   6.1047721564e+01   4.3508993128e+01    0.4077234    0.2154075 -40.38  0.001210001    1.929    0.482
       154  -8.3987    162.7165     73.1160   5.6413344653e+01   3.4451128246e+01    0.3324704    0.2233083 -62.61 0.0008765719    1.806    0.446
       155  -9.1757    114.9786     72.9232   6.7725306442e+01   4.5537595605e+01    0.2896807    0.2669595 -61.06 0.0005784972    1.209    0.173
       156 -10.3042     62.8610     60.7162   8.0771255961e+01   5.7640010774e+01    0.7883132    0.3235583  35.07  0.002619398    2.512    0.602
       157 -10.5830     55.2943     70.8776   8.7053902514e+01   5.6709828491e+01    0.6835908    0.3879937  51.41  0.001230074    2.709    0.631
       158  -9.4260     55.2635     63.1617   8.4560684608e+01   5.8278961109e+01    0.4238555     0.283139  -3.51  0.001529014    1.777    0.437
       159  -8.9380    169.6075     69.9737   5.4193326862e+01   3.3333263570e+01    0.5351964    0.1838073 -30.95  0.001517605    3.539    0.717
       160  -9.5465    147.0146     68.3208   5.8311097213e+01   3.9005452756e+01    0.6602193    0.2789959 -39.08   0.00121091    2.355    0.575
       161  -8.1666    156.5288     69.9397   5.6760855343e+01   3.6464976022e+01    0.2189529    0.1443725 -37.96 0.0005187889    1.523    0.343
       162  -9.8373     94.7948     68.3678   7.2245123236e+01   5.0573694987e+01    0.9226158    0.2828329 -42.39 0.0008198585    3.257    0.693
       163  -8.2515     95.4755     61.0093   6.9524868767e+01   5.1767415879e+01    0.3284075    0.2174241 -14.09  0.001133029    1.881    0.468
       164  -8.8604     98.7971     56.8013   6.7035147570e+01   5.1808737990e+01    0.4519101    0.3054569  22.85  0.002021997    1.697    0.411
       165  -8.7619    138.1035     66.3139   5.9717183418e+01   4.1449925692e+01    0.3160264    0.2482916 -61.76 0.0006593432    1.472    0.321
       166  -7.9736    139.1435     61.8343   5.8090542692e+01   4.1943003877e+01    0.2372116    0.1999518  29.51    0.0012439    1.266    0.210
       167  -8.9030    121.1882     65.7767   6.3738309610e+01   4.5439858368e+01    0.3557378    0.2500694 -55.78 0.0007661911    1.713    0.416
       168  -8.3401    122.2483     61.1726   6.1964613072e+01   4.5977249265e+01     0.314715    0.2148533  23.23  0.001105626    1.822    0.451
       169  -8.5017    157.7673     63.2456   5.4562726995e+01   3.7264062160e+01    0.2535555    0.1834551 -48.20 0.0006546134    1.418    0.295
       170  -8.9879     49.4303     61.2200   8.6245615025e+01   5.9449463766e+01    0.3108215    0.1281694 -56.46  0.001150732    3.236    0.691
       171  -7.9866     11.6687     62.3217   1.0268501307e+02   6.2884173939e+01    0.2046769    0.1778805   0.68  0.001038446    1.284    0.221
       172  -8.3923      9.3213     60.3212   1.0320022186e+02   6.3457120014e+01    0.2264777    0.1217356 -54.30  0.001166377    1.478    0.323
       173  -9.7627     73.1749     59.3878   7.6467404529e+01   5.6214849726e+01    0.4091363    0.2646276 -52.17 0.0008346105    1.853    0.460
       174  -9.5184     74.4122     51.6388   7.3208279752e+01   5.7365444631e+01    0.7908762     0.443578   4.97  0.002895755    3.473    0.712
       175  -8.1187    164.5293     60.0873   5.2355155175e+01   3.6131631273e+01    0.2116826    0.1410941 -35.96  0.000626999    1.525    0.344
       176  -7.4890    152.4242     60.2563   5.4755284494e+01   3.9022098126e+01    0.2029708    0.1323275 -47.13 0.0006388602    1.602    0.376
       177  -8.9899    146.4488     58.4130   5.5438312445e+01   4.0744841686e+01    0.3718402    0.2182477 -30.30  0.001581096    1.835    0.455
       178  -8.5454    130.0261     57.9921   5.9000691220e+01   4.4700436376e+01    0.2829934    0.2062517 -47.36 0.0004711002    1.482    0.325
       179  -8.0560    130.9643     53.5264   5.7337433820e+01   4.5173411762e+01    0.2508844    0.1676182  26.40  0.001137606    1.862    0.463
       180  -9.2517     87.9433     56.3906   7.0308767545e+01   5.4051311968e+01    0.7491848     0.392267 -29.80  0.002870065    2.061    0.515
       181 -10.2406     85.2072     48.0521   6.8158300435e+01   5.5952476381e+01    0.4060539     0.313051 -60.87  0.001013025    1.847    0.459
       182 -10.2173     90.2171     38.2044   6.2827095490e+01   5.6418196912e+01    0.9478828    0.2957492  37.60  0.002947404    4.143    0.759
       183  -7.8947     96.7506     33.0180   5.8914663887e+01   5.5744770568e+01    0.2091772    0.1667943  16.85 0.0003404061    1.253    0.202
       184  -8.6590    144.3775     43.3224   5.1212132065e+01   4.3436874704e+01    0.6719802      0.22357  42.57  0.002061757    4.038    0.752
       185  -8.8137    138.9177     56.7800   5.6564420396e+01   4.2796014003e+01    0.3251975    0.2147139 -47.32 0.0005266329    1.632    0.387
       186  -9.0303    141.2847     49.3568   5.3725792764e+01   4.3339073109e+01    0.6092046     0.364241  21.28  0.001550864    2.753    0.637
       187  -9.3430    118.0320     55.2206   6.1082482919e+01   4.7893219637e+01    0.3645204    0.2849129 -59.53  0.000677103    1.563    0.360
       188  -9.0733    120.9029     47.4542   5.7734295664e+01   4.8412495559e+01    0.4637593    0.2809928 -17.65 0.0008663117    2.055    0.513
       189  -9.9858     50.0022     54.4500   8.3671835725e+01   6.0677893618e+01    0.3799979    0.3042885 -64.49  0.001249211    1.745    0.427
       190  -9.9754     55.6511     43.6860   7.7322608900e+01   6.1780247277e+01    0.9453075    0.4941768   1.79  0.003298685    4.211    0.763
       191  -8.1571     53.5628     39.0695   7.6336197934e+01   6.2850452513e+01    0.2491587     0.197155 -55.80  0.001083935    1.811    0.448
       192  -8.3530    162.7729     54.5257   5.1083287648e+01   3.7397242745e+01    0.2231893    0.1663993 -43.16 0.0005546511    1.354    0.262
       193  -8.7333    105.4098     53.3307   6.3873639664e+01   5.0977830297e+01     0.324488    0.2331644 -56.08  0.000784122    1.787    0.440
       194  -8.0501    106.0147     48.7375   6.2085145144e+01   5.1558074528e+01    0.3564521    0.1626457  32.51  0.001268771    3.020    0.669
       195  -7.7785    172.2862     50.0875   4.8182653259e+01   3.5742793059e+01     0.190872    0.1703348 -55.84 0.0003894694    1.109    0.098
       196  -8.8986    112.1710     47.0701   5.9826105293e+01   5.0448856363e+01    0.4152275    0.2263431 -51.38  0.001720782    2.482    0.597
       197  -8.8941    113.7733     41.2707   5.7379342211e+01   5.0909311453e+01    0.4498256    0.2474402   0.82  0.001589529    3.692    0.729
       198  -8.2096    157.4636     48.8130   5.0388566136e+01   3.9510050606e+01    0.2601762    0.1306711 -38.58  0.001062466    2.005    0.501
       199  -9.6273    130.5799     46.2732   5.5063444110e+01   4.6325631101e+01    0.8206998    0.3727899 -19.51  0.001383155    3.381    0.704
       200  -8.5221    132.8661     35.8616   5.1156472633e+01   4.7170105599e+01     0.291889     0.189637 -38.03 0.0007177779    1.640    0.390
       201 -10.7644    134.0349     30.9688   4.9320297019e+01   4.7487037687e+01    0.3407297    0.2662834  15.07  0.001866623    1.514    0.340
       202  -9.3761    149.8997     46.6850   5.1171165082e+01   4.1641232922e+01    0.5070436     0.207257 -31.12  0.001272855    2.617    0.618
       203  -7.0626    215.2725    221.6203   7.9614392584e+01  -3.5944544726e+00    0.1102077    0.1031325 -67.99 0.0006997891    1.697    0.411
       204  -8.8218    189.9049    218.7435   8.4077908275e+01   7.0338362266e-01     0.222135     0.180162  -8.91 0.0003424633    1.171    0.146
       205  -7.1870    111.2071    217.9371   1.0093132049e+02   1.3568908095e+01    0.1593779    0.1087222 -61.59 0.0002886258    1.611    0.379
       206  -7.1958     56.1823    216.0032   1.1292053029e+02   2.1820332450e+01    0.1708532   0.08997402 -71.41 -0.0001381396    1.872    0.466
       207  -8.3861    190.4859    214.1409   8.3154192042e+01   1.3908250323e+00    0.2149584      0.16699  26.35  0.000316515    1.182    0.154
       208  -7.7054    217.2621    211.1599   7.7364764516e+01  -2.2562091509e+00    0.1565884    0.1442502 -26.69 0.0004030501    1.328    0.247
       209  -9.9721    157.3859    208.3273   8.9133870133e+01   7.9074217117e+00    0.2400772    0.2310866   8.71 0.0002831095    1.081    0.075
       210  -9.9166     10.2530    207.3185   1.2194630563e+02   2.8727573201e+01     0.388468    0.2613055  18.07  0.002392316    2.068    0.517
       211  -9.4613     79.2312     23.8219   6.0513424615e+01   6.0472557889e+01    0.4402961    0.2413258  27.99   0.00112881    1.969    0.492
       212  -8.9502     84.7963     21.7652   5.7942587498e+01   5.9591425458e+01    0.2796239    0.2176438  45.88 0.0008161658    1.199    0.166
       213 -10.0337     37.8154     42.0054   8.4318086313e+01   6.4492611932e+01    0.3778964    0.3509652  52.77  0.001581532    1.586    0.370
       214 -10.3684     35.9037     37.9640   8.3606359549e+01   6.5421349335e+01    0.5855871    0.3296371  -4.61 0.0003585793    2.285    0.562
       215  -8.2438    122.4744     41.1076   5.5201968052e+01   4.8935693797e+01    0.3443434    0.2122849  11.00  0.001329878    2.534    0.605
       216  -9.1219    110.2749     33.0972   5.5346813647e+01   5.2765545236e+01    0.3209776    0.2341086 -46.35 0.0008023219    1.604    0.376
       217  -8.7571    104.9896     40.9291   5.9567130718e+01   5.2911778053e+01    0.3439794    0.2342068 -53.42 0.0007084347    1.920    0.479
       218  -8.3075    106.2206     36.5302   5.7635284281e+01   5.3233180867e+01    0.3072467    0.1933737  28.25  0.001269507    1.778    0.438
       219  -8.8478    153.3667     40.6515   4.8705819469e+01   4.1616118723e+01    0.2858951    0.2126482 -61.09 0.0008071379    1.491    0.329
       220  -8.6831    139.5491     39.7152   5.1037680462e+01   4.5078268674e+01    0.3624272    0.2202266 -38.13   0.00174615    1.727    0.421
       221  -7.9388    164.1344     40.3633   4.6775942092e+01   3.9040148097e+01    0.1938493    0.1637267  73.30 0.0005612765    1.113    0.102
       222  -8.2028    160.2968     38.9018   4.6988666835e+01   4.0160758976e+01     0.272094    0.1070525 -38.27  0.001028972    2.513    0.602
       223  -8.8129    144.2867     36.4432   4.9087388039e+01   4.4355625380e+01     0.271937    0.2023233 -61.79 0.0005574025    1.542    0.352
       224  -9.1582    100.9127     32.4006   5.7527855404e+01   5.4926373684e+01     0.459174    0.2271037 -26.63  0.001352494    2.193    0.544
       225  -8.4416    152.8161     34.7715   4.7038428565e+01   4.2497582730e+01     0.287294    0.1821469  73.33  0.001277731    1.605    0.377
       226  -8.7267    118.8980     34.6850   5.3829081976e+01   5.0598807156e+01     0.243078    0.1920584 -34.06 0.0006125307    1.364    0.267
       227  -7.2592     50.3296     35.2741   7.6125467796e+01   6.3932016854e+01    0.1312348   0.08742338   1.15 0.0002173591    1.591    0.371
       228  -8.5400    109.4023    204.9393   9.9492575045e+01   1.6603582658e+01    0.2370112    0.1884081  28.74 0.0003500847    1.289    0.224
       229  -8.6964     45.4973     15.4954   6.9332425157e+01   6.7420199498e+01    0.2142202    0.1615667  -9.81 0.0007869309    1.179    0.152
       230 -10.1609     46.2781     29.5316   7.5418119912e+01   6.5397130798e+01     0.446853    0.2763613 -46.59  0.001214715    2.043    0.510
       231  -8.5651     42.3676     27.8262   7.6399632807e+01   6.6204066174e+01    0.2454847    0.1435333  -7.17 0.0009090765    2.020    0.505
       232  -8.8443    152.4349     29.5133   4.5524806302e+01   4.3220410243e+01     0.230409    0.1816931 -11.79 0.0009495213    1.524    0.344
       233  -9.0290    155.1646     26.6384   4.4225725806e+01   4.2888416799e+01    0.4012191    0.1729412  74.43  0.001558659    2.679    0.627
       234  -8.4581     92.0756     20.9439   5.5518872677e+01   5.8164520925e+01    0.3344257    0.1793198  30.05  0.001232514    2.055    0.513
       235  -8.5533    230.2072     26.9649   3.5425766412e+01   2.5516737297e+01    0.1865402    0.1533093 -84.55 0.0002159257    1.108    0.098
       236  -8.1651    110.3760     26.7563   5.3023126871e+01   5.3497702397e+01    0.1808641    0.1263799  -6.70 0.0006553184    1.673    0.402
       237  -9.0012    144.2052     25.6464   4.5739414734e+01   4.5651587194e+01    0.2164571    0.1755269 -48.04 0.0005659423    1.329    0.247
       238  -7.7087    130.0097     21.5011   4.6986224537e+01   4.9500553413e+01    0.2417186    0.1205053  30.73 0.0009689261    2.845    0.648
       239  -9.0945     91.5025     26.1994   5.7764369768e+01   5.7691907870e+01    0.3537209    0.2153938 -45.34  0.001172838    2.092    0.522
       240  -8.4831    128.2594     25.3838   4.8623386627e+01   4.9498874075e+01    0.2374323    0.1920876 -40.69 0.0007511777    1.362    0.266
       241  -8.1352    111.7606     22.2264   5.1053386495e+01   5.3682083778e+01    0.2988736      0.15135 -43.22 0.0009964945    2.382    0.580
       242  -7.7510    242.0094     22.0051   3.3418496961e+01   2.3670896461e+01    0.1468843     0.140166  41.13 -0.007547014    1.489    0.329
       243  -6.9492     69.3412    205.2830   1.0884501062e+02   2.2481287574e+01    0.1236267    0.1039557 -22.74 0.0007013552    1.633    0.388
       244  -8.3906    120.6518     15.6938   4.6835755250e+01   5.2288025272e+01    0.2095203    0.1557214  24.17  0.001182526    1.476    0.323
       245  -8.6521    102.9724     20.9963   5.2689243623e+01   5.5791285942e+01    0.2681406     0.196824 -40.72 0.0007887577    1.585    0.369
       246  -9.0966    192.4993    194.9931   7.9214742659e+01   4.4386121471e+00     0.552866    0.3030248 -61.93  0.001957891    4.050    0.753
       247  -7.7311    139.7924     18.0111   4.4100969277e+01   4.7520118347e+01    0.1592068    0.1075228 -25.80 0.0008498696    1.662    0.398
       248  -7.9370    155.3040     17.6740   4.1566661197e+01   4.3816856805e+01    0.1357456   0.09260289 -68.18 0.0007033324    1.644    0.392
       249  -9.0403    132.8325     17.1280   4.5024852153e+01   4.9272779549e+01    0.2573844    0.1780661  71.67 0.0007936698    1.380    0.275
       250  -7.2997    132.9540    199.0098   9.3066592143e+01   1.3965883067e+01    0.1668056    0.1495425  36.10            0    1.051    0.049
       251  -9.3230     41.8232    194.1598   1.1400019714e+02   2.8477443417e+01    0.2064245     0.181979 -81.92            0    1.128    0.114
       252  -8.6889    179.9834    193.7991   8.1600659804e+01   6.8073317324e+00    0.2191721    0.1921081 -24.82 0.0005271177    1.120    0.107
       253  -8.4955    112.3179     15.4289   4.8465673968e+01   5.4242211849e+01    0.2359867    0.1977802 -58.29 0.0005967931    1.440    0.305
       254  -7.8580    165.3956    190.9543   8.4228429395e+01   9.9306022495e+00    0.2844722    0.1885096 -65.25 0.0009031356    2.196    0.545
       255  -7.9405    222.9032    187.8888   7.1894484251e+01   6.8814507364e-01     0.190566    0.1539079  -5.70 -0.0009232552    1.118    0.106
       256  -7.1802     88.5334    182.5576   1.0117249984e+02   2.4997338146e+01    0.1391039    0.1345504  83.76 0.0008062446    1.057    0.054
       257  -7.4374    107.4691    181.4593   9.6238736332e+01   2.2218064204e+01    0.1428934    0.1396272  62.25 0.0003646457    1.028    0.027
       258  -8.4852     43.6800    178.4822   1.1188905352e+02   3.1995588684e+01    0.2216783    0.1772344 -73.39 0.0002583193    1.144    0.126
       259  -7.1392    112.6867    177.7514   9.4285574833e+01   2.2199790672e+01    0.1403308    0.1155608  -5.15 0.0002822213    1.517    0.341
       260  -7.6002    101.0017    175.8301   9.6913668967e+01   2.4619846614e+01    0.1865004    0.1750687  57.59  0.001040807    1.042    0.040
       261  -7.0437    200.6728    171.2771   7.2800968486e+01   7.4094657858e+00    0.1312007    0.1160218  89.60 0.0005096262    1.591    0.372
       262  -8.0661    230.3724    168.3885   6.6619888328e+01   2.8056051863e+00    0.3516133    0.1114378 -43.52  0.001255893    3.076    0.675
       263  -8.5128    133.6884    146.6089   8.2619374551e+01   2.5622477835e+01    0.6382769    0.1472738 -53.02  0.001436617    5.822    0.828
       264  -9.5041     66.7178    144.1399   1.0069704066e+02   3.7705642001e+01    0.5063871    0.3127531  60.13  0.002186761    2.000    0.500
       265  -7.9721    230.1636    144.2962   6.1576841736e+01   7.0531134734e+00    0.2072761    0.1572997 -28.91  0.001139847    1.176    0.150
       266  -9.5821    185.6906    140.3027   6.9029202511e+01   1.6362276722e+01    0.2564071    0.2466816 -36.13 0.0002902986    1.059    0.055
       267  -7.4409    155.6752     10.3273   3.9377640817e+01   4.4442801856e+01    0.1353258   0.08899229 -68.66 0.0003661718    1.695    0.410
       268 -10.9126     59.1946    124.8938   9.9325156621e+01   4.3569018261e+01     1.535318    0.8662058  73.99  0.005373274    3.412    0.707
       269 -10.2335     71.2291    125.7160   9.5728575781e+01   4.1714424717e+01    0.6161149    0.4339349 -80.92  0.001319224    1.714    0.416
       270  -8.4048    190.9765    137.0500   6.7187683658e+01   1.5933820423e+01    0.2293665    0.2094508 -12.85 0.0003428467    1.092    0.085
       271  -8.7050    112.5287    133.9416   8.5366621184e+01   3.2723607538e+01    0.3719269    0.2624606  73.49  0.001369808    2.036    0.509
       272  -9.1809     83.6770    132.0468   9.3292738585e+01   3.8238895814e+01    0.6787933    0.4092375  75.64  0.002344953    3.125    0.680
       273  -8.8091    125.9761     83.9025   6.8138108848e+01   4.1034571484e+01    0.5920484     0.357741  17.13  0.002097935    2.985    0.665
       274  -9.8758    133.6865    131.2532   7.9013646607e+01   2.9169388430e+01     0.595295     0.566555  22.19  0.001912978    1.077    0.071
       275 -10.1423    139.5461    103.8821   7.0381173345e+01   3.3960248775e+01    0.7228441    0.3848314 -43.53  0.001651558    1.844    0.458
       276  -9.6735    109.1934     90.0435   7.4688554002e+01   4.3380725098e+01    0.9731581    0.4286703  34.64  0.003381596    2.722    0.633
       277 -10.1816    109.0088    114.7874   8.1646521462e+01   3.7931745111e+01    0.8723417     0.560525 -79.92  0.002511238    2.854    0.650
       278 -10.6679    131.2554    119.0571   7.6585666617e+01   3.2446569161e+01    0.9540948     0.681018 -89.76  0.002285624    2.245    0.555
       279  -9.9993    117.1260    125.3066   8.2008305777e+01   3.3887020831e+01    0.6832833    0.4780107  88.34  0.001716495    2.329    0.571
