#   1 NUMBER                 Running object number                                     
#   2 MAG_AUTO               Kron-like elliptical aperture magnitude                    [mag]
#   3 X_IMAGE                Object position along x                                    [pixel]
#   4 Y_IMAGE                Object position along y                                    [pixel]
#   5 X_WORLD                Barycenter position along world x axis                     [deg]
#   6 Y_WORLD                Barycenter position along world y axis                     [deg]
#   7 A_WORLD                Profile RMS along major axis (world units)                 [deg]
#   8 B_WORLD                Profile RMS along minor axis (world units)                 [deg]
#   9 THETA_WORLD            Position angle (CCW/world-x)                               [deg]
#  10 FWHM_WORLD             FWHM assuming a gaussian core                              [deg]
#  11 ELONGATION             A_IMAGE/B_IMAGE                                           
#  12 ELLIPTICITY            1 - B_IMAGE/A_IMAGE                                       
         1 -15.4048     10.4179    136.5618   1.3846878224e+02   4.6079864535e+01     11.58309     3.562319 -80.97   0.03546991    5.212    0.808
         2 -12.9075      8.3699     56.8309   1.2429157557e+02   6.3482347395e+01    0.7736891    0.2652554 -64.68  0.002945928    4.356    0.770
         3 -13.5037    201.0003     29.2050   6.3927076796e+01   3.1927277517e+01      1.28634     1.139288  63.14  0.006646808    1.243    0.196
         4 -13.4595    217.0919     11.5404   5.8232974669e+01   3.0286723322e+01    0.8736905    0.7741541  71.71  0.003332068    1.290    0.225
         5 -11.2960      2.3199      9.3460   1.1079112936e+02   7.1588154102e+01    0.4750008    0.1921883 -14.28  0.002164329    3.843    0.740
         6 -10.5174      2.4229      3.7647   1.0828072594e+02   7.2300886199e+01    0.2498335     0.075638 -38.41  0.001316975    2.713    0.631
         7 -12.6306    125.1607    249.0757   1.2709631886e+02   5.1753387190e+00    0.6733513     0.412282  31.78  0.003522326    1.783    0.439
         8 -12.4461    146.8765    249.2738   1.2284385064e+02   1.5037374242e+00    0.8269707    0.1917181  40.40  0.002752415    3.714    0.731
         9 -12.8372      9.4150    207.6544   1.4554764154e+02   2.9858703741e+01    0.7737998    0.6634951 -46.60  0.004412006    1.724    0.420
        10 -12.7609      6.5216    226.9928   1.4737395173e+02   2.6045869542e+01    0.8430198    0.5629464  55.27  0.005924863    1.373    0.271
        11 -12.3402      4.3967    246.7425   1.4887089596e+02   2.2312071083e+01     1.102681    0.4978195 -85.44  0.006648714    1.807    0.447
        12 -12.8999     12.1373    241.4937   1.4730335729e+02   2.2527183087e+01     1.108085    0.4310302 -83.72  0.005860175    2.254    0.556
        13 -11.9115     99.3111    248.5410   1.3206838977e+02   9.4609203878e+00    0.4046209    0.2826779  35.55  0.002358388    1.548    0.354
        14 -13.5705     33.8856    246.4001   1.4392016246e+02   1.9070148888e+01     2.096172    0.8211243  49.28   0.01116492    2.068    0.516
        15 -12.4210    241.9400    247.3981   1.0441334944e+02  -1.3290777309e+01     1.096238     0.399048  26.66   0.00445568    3.428    0.708
        16 -12.8535     28.0200    229.7283   1.4374008299e+02   2.3156683947e+01    0.3133334    0.2493349 -73.47 0.0007242025    1.385    0.278
        17 -13.8700     33.3193    223.1203   1.4223877250e+02   2.3933712241e+01    0.7223108    0.5300352  78.55   0.00254092    1.050    0.048
        18 -12.4269     86.7290    225.7165   1.3194033460e+02   1.6044963273e+01     1.346296    0.1923288  48.55  0.003130321    7.839    0.872
        19 -12.2838    118.3978    231.8769   1.2620626032e+02   9.6041852182e+00    0.5244449    0.2304478  44.18  0.002312187    1.995    0.499
        20 -12.1376    104.2662    229.7350   1.2883378808e+02   1.2398809819e+01    0.6045035    0.1699912  44.57  0.002188806    3.041    0.671
        21  -8.6443    152.7249    213.0126   1.1607282182e+02   7.3013147687e+00    0.1592558     0.125887 -53.10 0.0003701562    1.361    0.265
        22 -11.6993     56.3358    196.6982   1.3493265529e+02   2.6961325907e+01    0.2950873    0.2343902 -67.29 0.0005135607    1.254    0.203
        23  -9.4082    192.0246    192.8798   1.0401207038e+02   3.8764305272e+00    0.3792964    0.1969257 -65.99   0.00109186    5.252    0.810
        24 -11.9017     63.0951    188.4686   1.3240056615e+02   2.7980609584e+01    0.2806145    0.2399398 -71.39  0.000440378    1.164    0.141
        25 -11.2219      3.3508    183.1625   1.4485319128e+02   3.5851588212e+01    0.3814724    0.1890516  67.73  0.001875167    1.998    0.499
        26 -10.7013     74.1133    175.8545   1.2802548830e+02   2.9437945491e+01    0.2448562    0.2143754 -67.68 0.0003644146    1.133    0.117
        27 -13.2138     60.4578    173.6839   1.3099841254e+02   3.1895878719e+01    0.5533858    0.2855258 -46.82  0.002183736    2.273    0.560
        28  -9.5180     92.4888    169.8911   1.2253940618e+02   2.8003595333e+01    0.2709458    0.1869946  60.59 0.0006574593    1.536    0.349
        29 -11.8694     82.1326    166.8323   1.2459578868e+02   3.0423127425e+01    0.6742858    0.6241996 -48.00  0.003897449    1.223    0.182
        30 -12.6290     43.5820    212.2321   1.3926857711e+02   2.5064202302e+01    0.6908458    0.5481251 -82.03  0.002995382    1.155    0.135
        31 -10.1789     95.4765    151.4612   1.1833044651e+02   3.2019407532e+01    0.2969733    0.2909933   1.41 0.0008696601    1.177    0.150
        32 -12.0178     83.8508    150.3447   1.2117863376e+02   3.4214159516e+01    0.3255119    0.2509208 -49.39 0.0005907896    1.288    0.223
        33  -9.1403     98.8703    147.3204   1.1659403391e+02   3.2445485226e+01    0.1991358    0.1906356  51.83 0.0004215548    1.118    0.105
        34 -12.0812     67.4706    143.4945   1.2428311834e+02   3.8348787126e+01    0.6841884     0.445237  63.79  0.003250767    1.871    0.466
        35  -9.5858    107.9670    136.9918   1.1192843820e+02   3.3303465012e+01    0.4035804    0.2656794 -15.89  0.001316808    2.756    0.637
        36 -10.4826     95.0146    133.8707   1.1474742696e+02   3.6390279615e+01    0.2484447    0.2033671 -47.40 0.0003070926    1.185    0.156
        37  -9.1483    105.8112    123.3878   1.0931943884e+02   3.6938431040e+01    0.1931517    0.1823372  31.67 0.0003387426    1.133    0.117
        38  -9.6517    167.4147    112.3830   9.1048385148e+01   2.6122718518e+01    0.3133108    0.2424742 -80.55   0.00073886    1.567    0.362
        39  -9.8601     63.2639     79.1204   1.1050036452e+02   5.3637001330e+01    0.2128211    0.1874659  36.72 0.0003796835    1.293    0.227
        40  -9.4045    159.4840     77.5402   8.3422847226e+01   3.4760245829e+01    0.1488602     0.142991  79.26 0.0001329616    1.007    0.007
        41  -9.4384     51.9570     72.2828   1.1238407428e+02   5.6471439737e+01    0.1720254    0.1696156  33.68 0.0007368239    1.272    0.214
        42 -10.7062     81.5216    249.2010   1.3552701896e+02   1.2060108452e+01    0.2410842    0.1545993  49.41   0.00142565    1.327    0.246
        43 -11.0655     63.6540    246.8280   1.3862796710e+02   1.5103209082e+01    0.3383744    0.2057123  72.87 0.0008850255    1.495    0.331
        44 -10.1545     88.8020    249.2159   1.3415253746e+02   1.0959872158e+01    0.1543085    0.1449404  53.11 0.0004323097    1.327    0.246
        45 -12.1698      1.7151     49.5387   1.2497870732e+02   6.5228495342e+01    0.5516925    0.1635238 -51.47   0.00271978    2.318    0.569
        46 -11.4528    197.6521    246.1020   1.1242155252e+02  -6.4337025730e+00    0.2589006    0.1693536  30.30  0.001376962    1.361    0.265
