#   1 NUMBER                 Running object number                                     
#   2 MAG_AUTO               Kron-like elliptical aperture magnitude                    [mag]
#   3 X_IMAGE                Object position along x                                    [pixel]
#   4 Y_IMAGE                Object position along y                                    [pixel]
#   5 X_WORLD                Barycenter position along world x axis                     [deg]
#   6 Y_WORLD                Barycenter position along world y axis                     [deg]
#   7 A_WORLD                Profile RMS along major axis (world units)                 [deg]
#   8 B_WORLD                Profile RMS along minor axis (world units)                 [deg]
#   9 THETA_WORLD            Position angle (CCW/world-x)                               [deg]
#  10 FWHM_WORLD             FWHM assuming a gaussian core                              [deg]
#  11 ELONGATION             A_IMAGE/B_IMAGE                                           
#  12 ELLIPTICITY            1 - B_IMAGE/A_IMAGE                                       
         1 -13.8176     67.3905     40.8710   6.7685875940e+01   6.0419102007e+01     1.170393    0.7456073  18.53  0.005634602    1.741    0.426
         2 -14.3118     41.0246     46.3153   8.0654185275e+01   6.3589628186e+01     1.199461    0.8199993  -4.67  0.003541581    1.504    0.335
         3 -13.8150      6.2213     22.6874   8.8921150202e+01   7.1215738348e+01     1.214673    0.5905775 -33.75  0.006956978    1.696    0.410
         4  -7.9852     64.9677     17.4839   5.8797164262e+01   6.3902683393e+01    0.8832421    0.4811178  15.91  0.004186274    2.415    0.586
         5 -11.8047    111.8551      3.7118   4.1140709554e+01   5.5263575860e+01    0.3598571    0.2193125  46.02  0.001453111    1.477    0.323
         6 -12.6138    104.4766      4.5289   4.2857647705e+01   5.6866364347e+01    0.5795436    0.5189068 -86.72  0.003925994    1.261    0.207
         7 -12.0660     74.4102      1.7740   4.8947349014e+01   6.3527764127e+01    0.4140873    0.2217352  67.25 0.0006060649    2.186    0.543
         8 -12.7580     89.3152      2.2190   4.5298238524e+01   6.0377124198e+01     1.011358    0.2580096  62.69  0.003639682    3.632    0.725
         9 -13.2223     75.4223     13.7830   5.3775525066e+01   6.2265719610e+01    0.6079762    0.5006986  78.00  0.003791274    1.631    0.387
        10 -14.0914     85.6103     11.2388   4.9817108386e+01   6.0412892441e+01     1.459124    0.9296811  54.08  0.007562992    1.367    0.269
        11 -12.9021     26.6395     12.0263   7.2639113977e+01   7.0648857174e+01    0.5429562    0.3802298  -6.55  0.003618011    1.221    0.181
        12 -10.6061     20.0054     10.4684   7.5377907139e+01   7.1669248236e+01    0.2054402    0.1640424  -3.01 0.0006703263    1.114    0.103
        13 -11.6609    115.6660     12.4790   4.3422289245e+01   5.3651181486e+01    0.2585755    0.2201656 -16.20  0.001146474    1.358    0.263
        14 -11.9863    124.3064     11.3397   4.1447035246e+01   5.1755793524e+01    0.4369931    0.2709062  65.12  0.001302869    1.390    0.281
        15 -11.1763    120.0102      7.4636   4.0933669856e+01   5.3089055027e+01    0.2070139    0.1846774 -20.64 0.0006701667    1.312    0.238
        16 -10.7660    242.0669     10.0738   2.8500406794e+01   2.5663298876e+01    0.1904411   0.09576843 -62.54 0.0006026272    1.658    0.397
        17 -10.6952    185.6795     10.3482   3.3056214766e+01   3.7544372183e+01    0.2076896    0.1184069 -69.24 0.0008920562    1.758    0.431
        18 -12.0731     34.6577      7.4384   6.6350790113e+01   7.0082638460e+01    0.4634827    0.2635023  -0.61  0.002573368    1.984    0.496
        19 -10.7802    150.7446      8.9271   3.6681408938e+01   4.5772764137e+01    0.2260564    0.1594362  72.70 0.0006658679    1.213    0.175
        20 -11.4475    137.4981      5.2809   3.7452317820e+01   4.9201081682e+01    0.3697456    0.1980213  74.34  0.001382801    1.684    0.406
        21 -11.5846     41.7049      2.2284   6.0519175200e+01   6.9522289605e+01    0.4375378    0.2050993  47.83  0.002333202    2.078    0.519
        22 -10.8102      5.8368      3.4353   8.0006950914e+01   7.4108271354e+01    0.2125123    0.1209397 -24.21 0.0008732307    1.484    0.326
        23  -9.9163    212.1813      1.3983   2.8819101245e+01   3.2638938298e+01    0.1597068   0.09001447 -86.95  0.000556492    1.557    0.358
        24 -14.4190     96.0291     71.8387   6.9005382609e+01   4.9736042645e+01     1.018206    0.6645893  40.20  0.004817043    1.511    0.338
        25 -13.3254    121.0866     64.4826   5.9484245922e+01   4.5668310177e+01    0.5332352    0.3256225  45.97  0.002442693    1.584    0.369
        26 -12.2526      9.1584     64.0428   1.0096334548e+02   6.3108712683e+01    0.4282494    0.2452582 -43.83  0.002409793    1.388    0.280
        27 -12.9822    164.2408     73.3728   5.2516322701e+01   3.4105311535e+01    0.5762386    0.4304084 -76.17  0.002839658    1.556    0.357
        28 -11.4195    103.6045     63.3447   6.3907748248e+01   4.9703389525e+01    0.2874157    0.2814849 -80.38 0.0009769696    1.141    0.124
        29 -13.3251     21.5547     57.7623   9.3528934855e+01   6.3505863939e+01    0.5650191    0.3296241 -20.03   0.00298375    1.778    0.438
        30 -13.8536     27.8898     54.8706   8.9683206441e+01   6.3495101876e+01     1.052799     0.351125 -48.67  0.004418616    2.520    0.603
        31 -10.9320    170.1265     62.7966   4.8582757542e+01   3.4451987721e+01    0.2185681    0.1812227 -78.80 0.0004567304    1.220    0.180
        32 -10.6642    165.9933     62.9808   4.9360868241e+01   3.5396414003e+01    0.2109632    0.2006934  73.65 0.0003528152    1.071    0.067
        33 -13.3109     85.6264     61.1311   6.8768225469e+01   5.3736273980e+01    0.5314902    0.3404479  22.42  0.002178718    1.840    0.456
        34 -10.0929    214.4949     61.9601   4.1854722390e+01   2.4566537017e+01    0.2056757     0.118884 -39.99  0.001037702    1.605    0.377
        35  -9.6177    203.2564     58.6213   4.2517777130e+01   2.7505967460e+01    0.1432375   0.08795883 -62.16 0.0006968594    1.661    0.398
        36 -11.5324    147.2801     58.2794   5.1595932220e+01   4.0566634128e+01     0.258773    0.1704217  55.31 0.0009229066    1.449    0.310
        37 -11.3535    124.4198     57.5946   5.6462292017e+01   4.6031405755e+01    0.2919857    0.1658513  50.48  0.001233653    1.661    0.398
        38 -11.1315    174.4904     56.4120   4.6154657294e+01   3.4404925489e+01    0.2328158    0.2115178 -80.46 0.0001856512    1.011    0.011
        39 -13.0580     68.5348     54.8938   7.2576330794e+01   5.7941158374e+01    0.4493861    0.3657051  85.30  0.002036636    2.066    0.516
        40 -13.6451     64.9521     46.2505   7.0697679094e+01   6.0003204181e+01    0.9863976    0.5169052  35.81  0.004703279    1.841    0.457
        41 -11.5450    246.5016    183.2415   6.2822811728e+01  -1.9895682294e+00    0.2205588    0.1560539 -26.03 0.0007572503    1.172    0.147
        42 -13.4246    233.0626    163.4953   6.1186118100e+01   3.3925878885e+00    0.6353786    0.4240738  49.69  0.003409774    1.909    0.476
        43 -12.2586     50.8729     38.1759   7.3152351569e+01   6.3554667401e+01    0.7035332    0.3931619 -13.99  0.003261608    2.350    0.575
        44 -11.8529    133.2775     53.8300   5.3220834714e+01   4.4552250555e+01    0.5083427    0.2925368  75.62  0.002068506    2.439    0.590
        45 -11.0044     89.9305     52.4945   6.4326757843e+01   5.4339981157e+01    0.2161933    0.1902153 -18.46 0.0009783385    1.144    0.126
        46 -11.1871    155.0009     52.0304   4.8300655038e+01   3.9666953025e+01    0.2127542    0.1919647 -87.91 0.0004499193    1.071    0.066
        47 -14.1921    242.1849    156.1342   5.8207798053e+01   3.2522172781e+00     1.208683    0.9169992   8.09  0.007037236    1.582    0.368
        48 -12.9973      2.7372     46.3626   9.9194948294e+01   6.7141541344e+01    0.6866788    0.4802889  61.16  0.003288806    2.543    0.607
        49 -12.4061      2.3541     38.6712   9.7004890380e+01   6.8651883245e+01    0.4587934    0.2856248 -58.76  0.002107242    1.657    0.397
        50 -11.6372    145.4263     50.5800   4.9695747952e+01   4.2157716534e+01    0.2830637     0.252647 -78.42 0.0007866814    1.145    0.127
        51 -11.7002     97.3918     47.1734   6.0153593600e+01   5.3617589633e+01    0.4119205    0.2437774  31.95  0.001899558    1.853    0.460
        52 -10.9658    156.9505     43.6414   4.5572101041e+01   4.0377798872e+01    0.3008113    0.1919748  63.32  0.001004054    1.460    0.315
        53 -11.3113    141.4778     43.9360   4.8479214844e+01   4.4027031689e+01    0.2613262    0.1775824  45.33 0.0006859931    1.491    0.329
        54 -10.8276    122.1397     43.6846   5.2505994014e+01   4.8606742684e+01    0.2276781     0.203449  29.42 0.0005511414    1.149    0.130
        55 -10.4648    204.4427     43.3174   3.8790257166e+01   2.9419099808e+01    0.2088139    0.1380479  60.37 0.0002826881    1.570    0.363
        56 -10.6370    197.2006     40.8367   3.9064391119e+01   3.1365226803e+01    0.1957856    0.1522867 -69.48 0.0004250791    1.161    0.139
        57 -10.0407    225.9399     39.4668   3.5662909080e+01   2.5335874817e+01    0.1696098      0.11116  79.48 0.0003974446    1.490    0.329
        58 -11.4407    217.8527     38.2159   3.6190526986e+01   2.7193576802e+01    0.2266271    0.1838095  74.35  0.000378509    1.269    0.212
        59 -10.5267    130.1739     38.5891   4.9097321078e+01   4.7408192639e+01    0.2285796     0.178062 -44.59  0.001266239    1.386    0.279
        60 -13.2903     26.7755     29.4395   8.0651761049e+01   6.8144581301e+01    0.5695136    0.3626944  48.15  0.003039142    2.643    0.622
        61 -12.2034     40.1436     30.6982   7.4744037437e+01   6.6258008534e+01    0.6078916    0.4130809  16.17  0.003631717    1.367    0.269
        62  -9.8777    159.8234     36.3795   4.3062454597e+01   4.0639481676e+01    0.1743491    0.1131706  55.91 8.634195e-05    1.466    0.318
        63 -10.2272    140.2634     35.0361   4.6010779109e+01   4.5468007850e+01    0.1780891    0.1738644  81.42 0.0002843781    1.085    0.079
        64 -11.2413     82.7196     34.2454   5.9804412303e+01   5.8452390531e+01    0.3498998    0.2427491  34.50  0.001924771    1.327    0.247
        65 -11.4549     78.9774     31.1156   5.9771781071e+01   5.9602052976e+01    0.2779877    0.1909498 -24.41  0.001183839    1.532    0.347
        66  -9.7393    176.4646     33.5207   3.9881170614e+01   3.7066974698e+01    0.1329634    0.1147902 -83.95  0.000180798    1.029    0.028
        67 -10.3746    249.9520     32.3387   3.2168185199e+01   2.1503799619e+01    0.1912615    0.1126806 -76.01  0.001148266    1.591    0.371
        68 -11.3852    241.7498     22.4080   3.0875312438e+01   2.4302623825e+01    0.2588472    0.1645024 -65.51 0.0005502952    1.280    0.219
        69 -11.2446     84.6947     22.2904   5.4493250502e+01   5.9493436856e+01    0.3681217    0.1950306  40.18   0.00166122    1.710    0.415
        70 -11.1804    153.8759     19.9864   3.9364180504e+01   4.3946312371e+01    0.2102331    0.1664286  73.18 0.0003312973    1.108    0.097
        71 -14.1701    248.1582    140.8483   5.4210859071e+01   4.9576792747e+00     1.912084    0.6283073 -35.85  0.007241943    2.845    0.649
        72 -11.7848     51.6079    141.6586   1.0130214455e+02   4.0365249710e+01    0.5729785    0.1719603 -59.54    0.0019526    2.760    0.638
        73 -12.4550     48.0109    142.0110   1.0246434337e+02   4.0700558924e+01    0.4255282    0.2296637  18.76  0.001822589    2.324    0.570
        74 -12.0528    217.1378    141.2635   5.9273858760e+01   1.0180390780e+01    0.3885419    0.2876002   8.78  0.001969195    1.805    0.446
        75 -10.9934     33.5840    135.7789   1.0592705266e+02   4.3867362067e+01    0.2023381     0.123021 -80.66 0.0009480255    1.670    0.401
        76 -12.1418    223.4638    133.1728   5.6454809894e+01   1.0539002738e+01    0.4895954    0.3845036 -34.48  0.002758635    1.140    0.123
        77 -10.6551     28.4804    126.4999   1.0609468633e+02   4.6738432214e+01    0.1389741    0.1203835 -68.20 0.0008102366    1.025    0.025
        78 -11.5073     18.7563    153.9890   1.1271616321e+02   4.0512605219e+01    0.1872545   0.09776034 -72.65   0.00088989    1.619    0.382
        79 -12.2781     74.4250    110.0327   8.7271453590e+01   4.5267792271e+01    0.4219292    0.2937019 -84.05  0.001818865    2.094    0.522
        80 -10.3841    175.4919     14.9491   3.5260950066e+01   3.9404090814e+01     0.171413    0.1216961 -35.28 0.0007402311    1.541    0.351
        81 -13.2266     62.5337    107.3063   9.0653754497e+01   4.7700679115e+01    0.5298408    0.3083956 -66.14  0.002261378    1.939    0.484
        82 -10.6457     55.3048    110.3328   9.3881803367e+01   4.7927938979e+01    0.1542094    0.1022566 -30.96 0.0007038062    1.661    0.398
        83 -12.1421    144.4793    105.7923   6.5669870674e+01   3.2466406007e+01    0.5946735    0.1431153 -46.14  0.001553972    4.223    0.763
        84 -12.3081    136.7339     97.3672   6.5282360455e+01   3.5945256922e+01     0.353179    0.2684931  50.18  0.001680843    1.335    0.251
        85 -11.8212     40.4087     81.7158   9.2321639010e+01   5.6505982089e+01    0.3260664    0.2458244   0.31  0.001804867    1.422    0.297
        86 -14.0817    117.8967     72.6206   6.2886017068e+01   4.4957671196e+01    0.8344813    0.6164642   1.95  0.003866911    1.837    0.456
        87 -13.5497    135.4968     74.4856   5.8991105809e+01   4.0633354701e+01    0.6268874    0.4368934  24.75  0.002750006    1.891    0.471
        88 -13.2013    151.0626     73.0087   5.5066841166e+01   3.7262425471e+01    0.4995068    0.3390211 -36.34  0.002379743    1.518    0.341
        89 -13.6918     64.5108     70.6024   7.9520383241e+01   5.5650193685e+01    0.7906597    0.5811797  13.26  0.003686051    1.450    0.311
        90 -13.6106    142.2632     76.1776   5.7910333674e+01   3.8763060636e+01    0.6346825     0.462601  40.18  0.002133145    1.455    0.313
