#   1 NUMBER                 Running object number                                     
#   2 MAG_AUTO               Kron-like elliptical aperture magnitude                    [mag]
#   3 X_IMAGE                Object position along x                                    [pixel]
#   4 Y_IMAGE                Object position along y                                    [pixel]
#   5 X_WORLD                Barycenter position along world x axis                     [deg]
#   6 Y_WORLD                Barycenter position along world y axis                     [deg]
#   7 A_WORLD                Profile RMS along major axis (world units)                 [deg]
#   8 B_WORLD                Profile RMS along minor axis (world units)                 [deg]
#   9 THETA_WORLD            Position angle (CCW/world-x)                               [deg]
#  10 FWHM_WORLD             FWHM assuming a gaussian core                              [deg]
#  11 ELONGATION             A_IMAGE/B_IMAGE                                           
#  12 ELLIPTICITY            1 - B_IMAGE/A_IMAGE                                       
         1 -13.0103     98.9887    103.9257   9.0528498064e+01   4.2137437190e+01     4.200688     3.195915  27.86   0.01635627    1.472    0.320
         2 -13.4193     41.5921    113.7286   1.1014262555e+02   4.7895823602e+01     3.005779     1.818142 -63.37   0.01587249    1.383    0.277
         3 -12.0301     78.9725    103.5615   9.6493034685e+01   4.5576251951e+01     3.085585     2.296153 -81.36   0.01519372    1.668    0.400
         4 -10.2447     75.0560     17.7472   6.7940978561e+01   6.2419791259e+01    0.2840862    0.2531863 -30.72 0.0006118726    1.342    0.255
         5 -10.4523     80.0313     12.6311   6.3970070502e+01   6.2062859518e+01    0.3140982    0.2647381 -58.68  0.001139201    1.744    0.427
         6  -8.0470     86.3329      7.3299   5.9655381911e+01   6.1344082463e+01    0.1418747   0.08325642  25.12 0.0007052004    1.722    0.419
         7  -9.5940     93.2640      4.4205   5.6455392901e+01   6.0157987907e+01    0.2203556     0.151025 -41.52  0.001206939    1.820    0.450
         8  -9.3870     73.9827      4.4891   6.2100220711e+01   6.4068648815e+01    0.1555765    0.1145212  83.18 0.0008097446    2.478    0.597
         9  -9.3806     16.8258      2.8050   8.5999186394e+01   7.2727984413e+01    0.2356143    0.1350325 -32.35 0.0007159545    1.434    0.302
        10  -9.4848    106.1716      2.3253   5.2429872219e+01   5.7487642212e+01    0.2841547   0.08265647  53.85  0.001094544    2.623    0.619
        11  -7.6956    239.0117      1.2520   3.5095228129e+01   2.5412266993e+01    0.1511303   0.09443903  81.18 0.0003490277    1.490    0.329
        12  -9.2164    144.4734    238.3497   1.0442637965e+02   5.7194447338e+00    0.3102309    0.1784008  50.83   0.00169777    1.611    0.379
        13  -8.5185    206.7661    250.5980   9.4567774514e+01  -5.7460312852e+00    0.1653275   0.09160112  42.41 0.0009482469    1.667    0.400
        14  -8.6657    188.4861    249.1556   9.7654952034e+01  -2.8059780094e+00    0.2979574    0.1760293  26.67  0.001737276    1.524    0.344
        15 -10.0214    159.4971    249.4956   1.0303322452e+02   1.6489201268e+00    0.5712181    0.1767977  37.38  0.002379593    2.750    0.636
        16  -9.3495    159.1201    232.2785   1.0078286719e+02   4.3065489757e+00    0.3074067     0.242296 -72.70  0.001893166    1.754    0.430
        17  -8.0839    137.8655    232.1658   1.0490304086e+02   7.7926545028e+00    0.1809583    0.1474357  57.53 0.0005911643    1.179    0.152
        18  -8.0254     90.3886    237.2052   1.1459775110e+02   1.4201968215e+01    0.1513882    0.1022134 -89.67  0.000400663    1.606    0.378
        19  -8.1245    106.6561    231.3134   1.1088130161e+02   1.2853510036e+01    0.1306248   0.07968711  64.17 0.0007047054    1.708    0.415
        20  -9.7691    235.7259    209.8747   8.2642450755e+01  -4.8902163951e+00    0.5750626    0.3118002  38.68  0.003083503    1.766    0.434
        21  -9.9271    222.9637    221.7735   8.7042337022e+01  -4.5115264615e+00     1.044892    0.4242347 -29.17  0.004720976    2.815    0.645
        22 -10.9688    217.8299    219.7192   8.7624333196e+01  -3.4280978751e+00    0.5471496    0.4077089  14.24  0.003424058    1.173    0.148
        23 -10.4453    230.8272    203.4014   8.2326158313e+01  -3.2234849895e+00    0.6492484    0.4023978  15.68   0.00282492    1.672    0.402
        24 -10.5598    227.4265    197.3449   8.1803124801e+01  -1.7969172712e+00    0.4523005    0.3529665 -60.11  0.002246758    2.127    0.530
        25  -9.8563    220.0435    209.6962   8.5448610320e+01  -2.3770189113e+00    0.7071014    0.3194822 -44.17  0.003199785    2.767    0.639
        26 -10.4606    225.3957    209.9371   8.4511005373e+01  -3.2736206431e+00    0.5042617    0.3012602  12.01  0.002590938    1.905    0.475
        27 -11.4018    206.6460    215.4739   8.8971754988e+01  -1.0185962975e+00     0.833315     0.610754   3.34  0.004371567    1.391    0.281
        28 -10.3409    212.8688    215.2291   8.7762134225e+01  -2.0020272491e+00    0.7146288     0.299904 -28.50  0.003063446    2.932    0.659
        29  -8.4311    141.1961    226.8951   1.0354756057e+02   8.1384049266e+00    0.2673517    0.1680535 -43.52  0.001475081    1.936    0.484
        30 -10.2877    180.9911    224.0318   9.5305317584e+01   1.9648178843e+00    0.3264092    0.1820631  28.08  0.001643728    1.777    0.437
        31  -8.1377    173.5400    225.9492   9.7049819199e+01   2.9115931291e+00    0.1638053     0.105124 -12.73 0.0007120842    2.355    0.575
        32  -9.5663    156.8206    223.4958   9.9966925509e+01   6.1082803232e+00    0.2488384    0.1737955  20.52  0.001376315    1.613    0.380
        33  -8.6085    238.5100    220.5470   8.4059667017e+01  -6.7119763307e+00    0.1227514   0.09688003   9.68 6.019726e-05    1.016    0.016
        34  -9.2285    152.6424    217.2319   9.9871940706e+01   7.8758824419e+00    0.3169004    0.1847662  25.94 0.0009599047    1.994    0.498
        35  -8.5099    105.5077    218.4857   1.0962488082e+02   1.5397799560e+01     0.126003    0.1091139  55.74 -1.056333e-05    1.057    0.054
        36 -10.2378    184.2526    208.4057   9.2088268992e+01   3.8794695481e+00    0.6382274    0.3400531  26.11   0.00289022    2.124    0.529
        37 -10.1865    185.9239    214.0343   9.2715267192e+01   2.6872356609e+00    0.3790439    0.2565825  39.01  0.001625949    1.310    0.237
        38  -9.7429    190.2713    209.7754   9.1136303302e+01   2.6144086282e+00    0.3702775    0.2397761   3.67   0.00171045    2.088    0.521
        39  -8.5826    173.9513    214.7851   9.5206752270e+01   4.6245392995e+00     0.298434    0.1438771  43.57  0.001386721    1.862    0.463
        40 -10.4599    201.0798    208.8591   8.8874921981e+01   9.0435286563e-01    0.5232961    0.2798516  22.77   0.00216955    2.196    0.545
        41  -9.0642    154.7319    229.4527   1.0123777991e+02   5.4804983941e+00    0.2413006    0.1039599  43.42 0.0008518931    1.963    0.491
        42 -10.4594    167.4917    204.4217   9.4795234966e+01   7.5122346834e+00    0.4309978    0.3937158   2.34 0.0008960832    1.138    0.121
        43  -8.1082    157.5177    204.0148   9.6789810467e+01   9.3607872570e+00    0.2043401    0.1590147  39.56 9.716077e-05    1.146    0.127
        44  -8.0372    136.5051    203.5002   1.0112721492e+02   1.3156829438e+01    0.1356692    0.1202309  50.56 0.0008105725    1.022    0.022
        45  -8.2469    129.3110    203.3227   1.0262967841e+02   1.4431249202e+01    0.1289801    0.1056603  -0.71 0.0007038097    1.652    0.395
        46  -8.9014    242.7752    200.9124   7.9739432929e+01  -4.7631763703e+00    0.1940977     0.154125  18.72 0.0004406962    1.136    0.120
        47 -10.7844    204.3516    196.9326   8.6069838543e+01   2.2064742894e+00    0.4796826    0.3682115  -8.67  0.002740432    1.336    0.251
        48  -9.4105    211.0087    197.1750   8.4835296416e+01   1.0078257615e+00    0.2324076    0.1880971 -21.92 0.0009140732    1.229    0.187
        49  -8.0632     62.9946    198.7554   1.1618355999e+02   2.5529237364e+01    0.1565379   0.09642602  41.76 0.0008749971    1.564    0.361
        50  -9.8763    160.6237    195.1884   9.4640695016e+01   1.0415636315e+01    0.4005574    0.2593392   4.25  0.001705733    2.644    0.622
        51  -7.5415     81.0035    196.5192   1.1210623179e+02   2.3524762440e+01     0.176121   0.08862066  59.68 0.0003217112    2.130    0.531
        52 -10.1018    172.8667    186.7365   9.0521507159e+01   9.7081480896e+00    0.3437685    0.2017099 -46.17  0.001610164    1.854    0.461
        53  -8.8302    220.1883    188.8035   8.1491124741e+01   7.2095912537e-01    0.2636958    0.1588157  33.32 0.0007445379    1.574    0.365
        54 -11.6515    205.4260    185.2418   8.3612400872e+01   3.9193087631e+00    0.6710603    0.5744969  79.47  0.003740429    1.756    0.431
        55 -11.6056    209.3009    177.1952   8.1242679468e+01   4.5543787803e+00    0.7418391    0.5768237  26.53  0.004112554    1.219    0.180
        56 -10.7067    178.6108    181.7505   8.8360444617e+01   9.5398602960e+00    0.5459821    0.2559157  47.30   0.00170591    2.165    0.538
        57  -8.1372     17.1262    178.5194   1.2398967841e+02   3.5051200147e+01    0.2778366    0.1097127  61.00  0.001315904    2.576    0.612
        58  -8.1556     28.1733    175.8388   1.2141566190e+02   3.4586493572e+01    0.1877322    0.1471951  27.33 0.0008445645    1.654    0.395
        59 -12.1894    184.0438    173.3950   8.5557020276e+01   1.0037991941e+01     1.218219    0.4361092  48.29  0.004179358    3.052    0.672
        60 -11.9255    177.0743    166.8956   8.5691882065e+01   1.2642556679e+01    0.7151576     0.561603 -84.02  0.003450753    1.887    0.470
        61 -11.5712    183.0548    162.3366   8.3452200114e+01   1.2319438794e+01      0.64373    0.4549889  62.23  0.002987005    1.833    0.454
        62 -12.1294    195.0262    161.0319   8.0681327835e+01   1.0158940346e+01    0.9637563    0.5713106  35.19  0.004332928    1.720    0.419
        63 -11.9378    192.5675    155.1067   7.9885023100e+01   1.1760655502e+01    0.8140079    0.5337263  40.52  0.003117563    1.514    0.339
        64  -8.0301    147.6128    174.7120   9.3759766551e+01   1.6859329964e+01     0.149142    0.1132033   6.67 0.0007010068    1.754    0.430
        65 -11.4087    193.7971    171.4868   8.3150487784e+01   8.4910824417e+00    0.6459027    0.3733099  51.39  0.001659162    1.957    0.489
        66  -7.5084      1.3256    173.6744   1.2692288207e+02   3.7448941864e+01    0.1222222   0.06364326  68.44 0.0007049245    1.693    0.409
        67  -9.7013     19.3188    169.8597   1.2282996322e+02   3.6770783563e+01    0.2587188    0.1894742 -10.14  0.001564792    2.374    0.579
        68 -10.4340      6.4063    167.4768   1.2543649057e+02   3.8405806528e+01    0.4655719    0.3981039  63.39  0.002688368    1.261    0.207
        69 -11.1788     22.3755    156.5020   1.2093244926e+02   3.9533889260e+01    0.7302111    0.3658821 -50.33  0.003747289    2.264    0.558
        70 -11.4587     10.6799    158.9430   1.2383900687e+02   3.9973592016e+01    0.7329099    0.2993623  44.34   0.00382336    2.390    0.582
        71  -9.9318      4.5937    155.3912   1.2492436511e+02   4.1248340494e+01    0.6133801     0.198493 -66.89  0.002915675    2.353    0.575
        72  -9.8404     26.4879    161.9765   1.2050882455e+02   3.7892106995e+01    0.2158024    0.1310876  81.21  0.001222251    1.524    0.344
        73  -7.7511     39.7925    166.3830   1.1788454998e+02   3.5523131604e+01    0.1485363    0.1232611  18.58 0.0004455411    1.633    0.388
        74 -10.2743    205.1584    155.7222   7.7484308571e+01   9.1018090712e+00    0.4875783    0.4237771 -80.61  0.002053492    1.575    0.365
        75 -11.0540    201.6084    165.7190   8.0361411728e+01   8.0078279225e+00    0.5192725    0.4757085  45.96   0.00297862    1.214    0.176
        76 -10.8720     12.9240    138.2869   1.2140974554e+02   4.4552709054e+01     1.124355    0.5487906 -30.35  0.004893929    3.933    0.746
        77 -12.7651     39.3044    144.7877   1.1546022833e+02   4.0647947606e+01     1.290871     1.119169  27.41   0.00453516    1.431    0.301
        78 -12.9473     56.7103    131.1580   1.0877681550e+02   4.1975308921e+01      2.81876     1.425263 -49.59   0.01290091    1.925    0.480
        79  -9.0762    169.0119    233.9913   9.9121707676e+01   2.4229538547e+00    0.2682882    0.2016176  13.91  0.001045014    1.453    0.312
        80  -9.7363     68.6735    144.6456   1.0778029987e+02   3.7158823850e+01     0.323049    0.2254528 -43.04  0.001666856    1.621    0.383
        81  -8.4538     15.6775    144.3137   1.2133584721e+02   4.2932334316e+01    0.2452093    0.1202913 -71.67  0.001305968    1.610    0.379
        82 -10.2152     51.6619    140.5348   1.1164229087e+02   4.0305713980e+01    0.2976971    0.2679533  72.00 0.0009786603    1.137    0.120
        83 -10.1426    185.5049    140.0306   7.7908460410e+01   1.6143307024e+01    0.3621908    0.1963014 -26.45  0.001365707    2.330    0.571
        84  -8.0892     90.4317    142.4980   1.0163158910e+02   3.4442478351e+01    0.1442595    0.1331252 -75.48 0.0001062982    1.014    0.014
        85  -8.8621     83.7032    139.4361   1.0285169131e+02   3.6236923568e+01    0.2643647    0.1327679  41.89 0.0009962694    2.051    0.512
        86 -10.6182     74.3767    137.5040   1.0502081200e+02   3.8089131912e+01    0.4808263    0.3128106 -27.17  0.002150575    2.341    0.573
        87 -12.2265      8.2414    131.7991   1.2193523472e+02   4.6406329115e+01     1.396318    0.8529122 -53.55  0.008422442    1.595    0.373
        88 -12.2364     69.1273    106.9185   1.0033552587e+02   4.6223424851e+01     1.381227    0.6278365 -58.86  0.005676174    2.043    0.510
        89 -12.7855     30.1546    123.8381   1.1507214308e+02   4.6556883018e+01      2.34526    0.8704099 -61.00   0.01045689    2.095    0.523
        90  -8.9347     39.2752    153.1766   1.1650936214e+02   3.8659925773e+01    0.2566098    0.1729931  38.47 0.0004728376    1.624    0.384
        91  -9.6702    106.8144    246.9955   1.1251515720e+02   1.0124433297e+01    0.3992632    0.2898722  10.66  0.002326211    2.347    0.574
        92  -8.3408    142.6261    245.7445   1.0570635704e+02   4.8525236511e+00    0.1403647    0.1134467 -79.63 0.0003069034    1.602    0.376
        93  -9.8972    162.9591    165.1911   8.8424903875e+01   1.5800742197e+01    0.3935946    0.1894723  51.62  0.001498221    2.333    0.571
        94  -9.1101    249.5988    119.7984   6.1471169289e+01   6.4677878082e+00    0.2096006    0.1124828 -42.46 0.0009571983    1.728    0.421
        95 -10.1452    185.1161    147.3884   7.9700913272e+01   1.4786504349e+01    0.3319086    0.1932721  51.50  0.001398147    1.864    0.463
        96  -8.0373    204.1745    118.8243   6.8981025354e+01   1.6101800768e+01     0.199248    0.1706525   0.38 0.0002447166    1.265    0.210
        97  -8.2920    164.4432    117.7202   7.7023481272e+01   2.5332697522e+01    0.2160599    0.1510098 -29.80 0.0009364324    1.532    0.347
        98  -8.5669    151.0429    114.9209   7.9449187523e+01   2.8950777136e+01    0.2438282    0.2355807  -9.91 0.0007000123    1.048    0.045
        99  -8.5085     20.9776     98.0783   1.1382204130e+02   5.3437444248e+01     0.275013    0.1429026 -65.83   0.00143737    1.530    0.347
       100  -8.2807     90.0716    150.4936   1.0319822083e+02   3.2592426876e+01    0.2603657    0.1759109 -46.82 0.0005111463    1.561    0.359
       101  -8.8017    109.2951     76.0124   7.9298008502e+01   4.6191592302e+01    0.2288677    0.2079243  32.11 0.0005518088    1.124    0.110
       102  -8.3036    205.4630     71.4712   5.6407475677e+01   2.4115965142e+01    0.3130827    0.1420184 -33.18  0.001200643    2.145    0.534
       103  -7.7864     94.5592     52.4477   7.5710638699e+01   5.3560783301e+01    0.1414148    0.1317695  -9.26 0.0007895917    1.053    0.050
       104  -7.7670     92.2895     36.6553   7.0361113435e+01   5.6549103349e+01    0.1317289    0.1102162 -62.56 0.0002582106    1.654    0.396
       105  -8.0796     18.1907     27.3850   9.6560036762e+01   6.8675626084e+01    0.1363489     0.104477  23.48 0.0003509065    1.564    0.361
       106 -13.0547     17.5417    115.8124   1.1753383460e+02   4.9502956399e+01     1.610234     1.392523  24.36  0.009380513    1.460    0.315
       107  -9.7003     84.6788     21.3343   6.6370428167e+01   6.0139234824e+01    0.3087931    0.2114995 -33.51  0.001687401    1.545    0.353
       108  -7.8603     30.0077     22.0351   8.8568313720e+01   6.8474509055e+01     0.147308    0.1112617 -23.10   0.00037154    1.046    0.044
       109 -11.9236    189.9949    233.8160   9.5111521348e+01  -9.4978980783e-01     1.422134    0.7936404   5.06  0.006015445    3.451    0.710
       110  -9.3882    133.1272     16.5305   5.2228394300e+01   4.9808619752e+01    0.2497818    0.2002537  -3.59 0.0003196458    1.363    0.267
       111 -11.4860    178.1387    241.4848   9.8472351201e+01  -1.4447199555e-01    0.7923827    0.4887701  38.90  0.004682461    1.327    0.246
       112  -8.5573    113.9957     10.2419   5.3860520445e+01   5.4995507238e+01    0.1802623     0.104204  58.45 0.0005355169    1.584    0.369
       113 -10.7606    182.6665    236.5917   9.6909192617e+01  -1.6994751791e-01    0.6990354     0.447517  64.85  0.003439325    2.833    0.647
       114  -8.6235    103.9853     12.0000   5.6932133516e+01   5.7104905804e+01    0.2189733   0.07016104  58.06 0.0005094309    2.904    0.656
       115  -8.2586    127.0183    244.0000   1.0843021017e+02   7.5606312999e+00    0.2033306   0.05679053  40.08 0.0006792201    2.907    0.656
       116  -8.2497    216.8851    240.8635   9.1278947370e+01  -6.0493814658e+00    0.2370236    0.1747226 -40.57  0.001548438    1.782    0.439
       117  -8.1199    115.0083    241.9797   1.1046261199e+02   9.7346704025e+00    0.1636346    0.1406495   7.15 0.0004665418    1.610    0.379
       118  -7.8049    225.1366    239.6465   8.9620472060e+01  -7.1169431661e+00    0.1722478   0.08745076  28.26 0.0006499895    1.697    0.411
