#   1 NUMBER                 Running object number                                     
#   2 MAG_AUTO               Kron-like elliptical aperture magnitude                    [mag]
#   3 X_IMAGE                Object position along x                                    [pixel]
#   4 Y_IMAGE                Object position along y                                    [pixel]
#   5 X_WORLD                Barycenter position along world x axis                     [deg]
#   6 Y_WORLD                Barycenter position along world y axis                     [deg]
#   7 A_WORLD                Profile RMS along major axis (world units)                 [deg]
#   8 B_WORLD                Profile RMS along minor axis (world units)                 [deg]
#   9 THETA_WORLD            Position angle (CCW/world-x)                               [deg]
#  10 FWHM_WORLD             FWHM assuming a gaussian core                              [deg]
#  11 ELONGATION             A_IMAGE/B_IMAGE                                           
#  12 ELLIPTICITY            1 - B_IMAGE/A_IMAGE                                       
         1  -8.6386    185.4582     14.5259   4.8775279742e+01   3.6096695306e+01     0.137926    0.1369239 -46.48 0.0001933402    1.052    0.049
         2  -9.6296    218.4795    249.4953   9.5559488638e+01   9.7972011384e-02    0.1021825   0.06911457  22.24 0.0008102927    1.011    0.011
         3  -9.5294    202.0240    250.0000   9.8150562395e+01   2.1082343333e+00    0.1705637   0.04228945  38.17 0.0007487768    2.941    0.660
         4 -10.2562    185.1800    245.0221   1.0023633537e+02   4.7607561432e+00     0.141569    0.1177689  65.01  0.001099033    1.996    0.499
         5 -10.0408    212.5019    244.5081   9.5847840681e+01   1.2840696795e+00    0.1035208   0.07204328  23.60 0.0008105823    1.016    0.016
         6 -10.0062    190.7224    242.9933   9.9098725835e+01   4.2383301911e+00    0.2123052    0.1098454  51.25  0.001198218    2.777    0.640
         7 -12.1180     59.8369    212.3623   1.1970640666e+02   2.5696933612e+01    0.9770474    0.5313065  66.64  0.006121598    1.783    0.439
         8 -12.5398     77.0794    219.4897   1.1690591172e+02   2.2469904912e+01    0.7465124    0.4378234  32.55  0.002938408    1.598    0.374
         9 -10.9783     68.9213    218.3432   1.1837676051e+02   2.3641923751e+01     0.322755     0.246528  71.21  0.001339716    1.237    0.191
        10  -9.9451    198.9889    214.0490   9.3918964180e+01   6.1587699541e+00    0.1831724    0.1121056  12.79  0.001051982    1.707    0.414
        11 -10.5615    129.5475    205.8328   1.0539727190e+02   1.7485400632e+01    0.4471462    0.2982502  45.81  0.002871394    1.255    0.203
        12  -9.3503      5.6544    169.0666   1.2853921058e+02   3.9145721894e+01    0.1555512    0.1135036  77.53 0.0009006371    1.107    0.096
        13  -8.7159     21.5083    159.5099   1.2441139597e+02   3.9746007338e+01    0.1160238   0.09114829  70.03 -1.544276e-05    1.001    0.001
        14  -9.6248      7.9438    157.1862   1.2748927511e+02   4.1380241751e+01    0.1803112    0.1116638  61.34 0.0004400375    1.295    0.228
        15 -10.4982    212.1585    155.6633   8.1814431602e+01   1.1162490781e+01    0.2719897    0.1512925  52.39   0.00135226    2.201    0.546
        16  -9.6084     15.0293    153.6966   1.2561191414e+02   4.1531595388e+01    0.1543042    0.1255103  63.48 0.0003369738    1.091    0.083
        17  -9.1285      2.0391    153.5333   1.2871764718e+02   4.2590674219e+01    0.1505782   0.09607999  37.61 0.0005064392    1.525    0.344
        18  -8.9303      8.3250    150.6884   1.2707321563e+02   4.2711744980e+01    0.1238991    0.0624295  60.69 0.0004635808    1.659    0.397
        19 -10.0054     36.1507    147.8225   1.1992361514e+02   4.0820183800e+01    0.1502724    0.1438425 -47.39  0.001073716    1.361    0.265
        20 -10.2754     49.1300    144.8846   1.1628934950e+02   4.0047646600e+01    0.3427343    0.1537695  85.77  0.001410042    3.073    0.675
        21  -8.7498      3.6947    143.3144   1.2784227358e+02   4.4632970746e+01    0.1224063   0.06319041  61.93 0.0002940535    1.621    0.383
        22  -9.5435     35.8273    142.5979   1.1953011843e+02   4.1996161640e+01     0.169403   0.09475249  45.90 0.0005882574    1.609    0.378
        23 -10.2299     21.8021    142.0222   1.2313912323e+02   4.3459522587e+01     0.188858    0.1516208  52.76 0.0004039534    1.183    0.155
        24 -11.4576    219.6394    119.0118   7.2826373183e+01   1.4673908647e+01    0.9285034    0.4604453 -30.86  0.004372127    1.889    0.471
        25 -10.9297     28.7610    137.0107   1.2089299956e+02   4.3931417401e+01    0.3310973    0.1360356 -59.83  0.001585531    2.406    0.584
        26 -11.0432     54.5007    136.3568   1.1386675990e+02   4.1299750406e+01    0.3570083    0.2380318   8.75  0.001826515    2.343    0.573
        27 -13.1096    212.3771    129.1099   7.6268093762e+01   1.4681813088e+01     1.269189    0.4659775 -44.09  0.004589656    3.682    0.728
        28 -11.8238     23.9469    131.5926   1.2172445815e+02   4.5590249155e+01    0.3861866    0.2846482  65.49  0.002498198    1.184    0.155
        29 -10.3323     17.8878    133.7693   1.2355273278e+02   4.5623878789e+01    0.3013977    0.1849815   8.89  0.001091137    2.389    0.581
        30 -10.4460     36.9434    122.7174   1.1714040710e+02   4.6376906706e+01    0.2059914    0.1480894  68.18 0.0005635909    1.294    0.227
        31 -11.7576     37.8540    127.1321   1.1738620982e+02   4.5266394276e+01     0.433416    0.2132251  43.78  0.002207401    1.899    0.473
        32 -11.2216     36.9032    131.9488   1.1818020314e+02   4.4266665766e+01    0.3147725    0.2299016 -81.40  0.001355794    1.232    0.188
        33 -11.1907     32.2612    129.4774   1.1921660779e+02   4.5293499090e+01    0.3538752    0.2151069 -82.14  0.001444949    1.486    0.327
        34 -10.8030     47.1197    131.3553   1.1527499849e+02   4.3294819802e+01    0.3379586    0.1364638  56.22  0.001393228    2.803    0.643
        35 -11.8579     24.4830    125.7647   1.2104966274e+02   4.6866807329e+01    0.4420712    0.2484002  38.62 -0.000173703    1.732    0.423
        36  -9.8769     13.1753    127.2331   1.2435466400e+02   4.7471803561e+01    0.1975644   0.09873258 -43.59 0.0009592636    2.853    0.650
        37 -12.0469     67.1653    123.6569   1.0852786061e+02   4.2534267103e+01    0.4658269    0.2843823 -62.52  0.001286944    1.582    0.368
        38  -9.1091    183.6635    123.6546   8.0178691880e+01   2.1118602890e+01    0.1488747    0.1032102  11.00 0.0007048925    1.773    0.436
        39 -12.6383     56.3938    120.0154   1.1107697943e+02   4.4787297169e+01    0.5020954    0.4332193 -40.38  0.003076566    1.392    0.282
        40 -10.2523    142.5171    121.9568   8.8458888334e+01   2.9787889953e+01    0.2115383    0.1415132 -42.50 0.0004315315    1.556    0.357
        41 -10.6293     90.4521    122.4592   1.0178501371e+02   3.9300689723e+01    0.3401946    0.1220916  42.53  0.001276534    2.646    0.622
        42 -12.5830     99.5218    119.0869   9.8639365884e+01   3.8511539904e+01    0.8924329    0.3709717  44.96  0.003524884    2.346    0.574
        43 -11.8325     45.9469    120.1164   1.1417016396e+02   4.6010120822e+01    0.5210665    0.2312829  63.53  0.002084075    3.019    0.669
        44 -11.0771     76.8974    119.6771   1.0506760079e+02   4.2042806413e+01      0.28215    0.2141872  49.28   0.00040308    1.281    0.219
        45 -12.0448     62.1371    114.6352   1.0850903802e+02   4.5291699563e+01    0.4363883    0.3145241  64.44  0.001885328    1.421    0.296
        46 -11.4813     11.2780    114.9449   1.2394746446e+02   5.0424312264e+01    0.2278464    0.2025548  84.83 0.0002885372    1.120    0.107
        47 -11.9961     83.6366    112.0927   1.0167044399e+02   4.2717126107e+01    0.4728106    0.3402204  33.98 0.0005366948    1.485    0.326
        48 -11.4898    228.4345    108.4422   6.9046152228e+01   1.4380944883e+01    0.8792975    0.3204531  55.32  0.003433851    3.251    0.692
        49 -10.7374     45.4668    113.6223   1.1340675200e+02   4.7582416088e+01    0.2867745    0.1319703  23.72  0.001247301    2.740    0.635
        50  -8.5717      1.0000    113.0860   1.2686989343e+02   5.1537956039e+01    0.1925867   0.05547906 -80.93 0.0006756932    2.868    0.651
        51 -11.2839    101.6805    109.9012   9.6067078193e+01   4.0125345453e+01    0.3478947    0.1953094  32.29  0.001490405    2.061    0.515
        52 -10.8161     35.2270    109.9713   1.1607302291e+02   4.9533916267e+01    0.2562789    0.1844249  13.38  0.001463304    1.816    0.449
        53 -10.3763     41.9712    108.6349   1.1376649894e+02   4.9146589957e+01    0.1825504    0.1615506  62.74   0.00116049    1.124    0.110
        54 -10.8148      7.0158    108.2111   1.2469737102e+02   5.2282133328e+01    0.2512109      0.18258  81.71 0.0003684201    1.148    0.129
        55 -10.8057      8.9540    104.3473   1.2376536553e+02   5.3056042940e+01    0.3278342    0.1826475  81.78  0.001011324    1.627    0.385
        56 -12.2892    123.6244    104.7189   8.8956723844e+01   3.7000216696e+01    0.5150166    0.3783986 -19.29  0.002425199    1.791    0.442
        57 -11.9815     72.6001    106.9720   1.0392820783e+02   4.5594503486e+01    0.4187546    0.3033193 -27.42   0.00120279    1.916    0.478
        58 -12.2768    142.7325    103.6104   8.3978282663e+01   3.3223336504e+01    0.4959347    0.3340223 -34.60  0.002329451    1.559    0.359
        59  -9.5384    109.3191    105.3067   9.2892811700e+01   3.9696356946e+01    0.1435331    0.1164803  -4.67 0.0002482842    1.635    0.388
        60 -11.8825     85.0000    103.5269   9.9447757225e+01   4.4435179860e+01    0.3943025    0.3127645 -75.62  0.002113903    1.307    0.235
        61 -12.3133     84.9896     99.2614   9.8481752176e+01   4.5404025666e+01    0.5256391     0.393466   3.82  0.002030456    1.985    0.496
        62 -10.3962     61.8507    104.8138   1.0684471303e+02   4.7625802759e+01    0.1902147    0.1495616  76.87 0.0003993895    1.305    0.234
        63 -10.2918     34.1765    104.6301   1.1568373307e+02   5.0905906819e+01    0.1992556    0.1681398  19.88  0.000757837    1.439    0.305
        64 -10.6928     16.4692    104.2179   1.2135070304e+02   5.2548200242e+01     0.226885    0.1919719  58.09  0.001530597    1.194    0.162
        65 -11.3253     94.6112    102.9259   9.6473076791e+01   4.2922932297e+01    0.3482241    0.2475648 -77.30  0.001054366    1.697    0.411
        66 -11.4402    135.0609    101.3365   8.5227548775e+01   3.5298380830e+01    0.3054911    0.2239491 -50.56  0.001487534    1.425    0.298
        67 -10.5808    114.0659    102.1093   9.0820302892e+01   3.9452504182e+01    0.2387142    0.1814104  87.08  0.001133085    1.728    0.421
        68 -10.2469     52.7017    100.3963   1.0896499699e+02   4.9856971031e+01    0.3146096    0.1472281 -64.49    0.0013084    1.956    0.489
        69 -11.3757    118.0322     98.9686   8.8958540013e+01   3.9314834174e+01    0.3396064    0.2142356 -54.37 0.0008690701    1.683    0.406
        70 -11.8610    146.5893     95.5568   8.0958058472e+01   3.3893945287e+01    0.3676029    0.3033549  59.17  0.001020966    1.278    0.217
        71  -9.8072     97.0000     96.9746   9.4337740486e+01   4.3808270060e+01    0.2384432   0.08077916 -51.11 0.0007977139    2.910    0.656
        72 -11.1789     55.9906     94.4863   1.0674372763e+02   5.0844241899e+01    0.4408807    0.1833927 -62.27  0.001829176    2.203    0.546
        73  -9.6329     35.5214     95.9375   1.1395112707e+02   5.2851541836e+01    0.1934368     0.113782 -70.49 0.0004174574    1.498    0.333
        74 -11.4374    104.3494     94.2544   9.1511444357e+01   4.3018827074e+01    0.3474565    0.2162933 -40.95  0.001277367    1.688    0.408
        75 -10.7919     69.3117     95.3554   1.0252593348e+02   4.8784489049e+01    0.2717556    0.1974514  10.37  0.001166656    1.942    0.485
        76  -9.9500     66.4772     95.4472   1.0346878806e+02   4.9178328227e+01    0.2108095    0.1592556  72.38 0.0005565654    1.468    0.319
        77 -12.5302    124.5838     92.6232   8.5543520128e+01   3.9251082393e+01    0.6409996    0.3733959  31.29  0.002602498    2.176    0.540
        78 -10.2973     42.8393     92.1605   1.1079317167e+02   5.2985214474e+01    0.1866573    0.1495466 -42.46  0.000764956    1.384    0.277
        79  -9.3892     29.7542     93.9767   1.1563127090e+02   5.3878334046e+01    0.1663152   0.09568694 -71.59 0.0001925968    1.509    0.337
        80 -11.1287     61.3484     89.0900   1.0378230528e+02   5.1401283877e+01    0.4078493    0.2341073  34.15  0.001940577    1.880    0.468
        81  -9.0953     33.3144     90.3341   1.1381637012e+02   5.4417542817e+01    0.1334649   0.08867803 -43.03 0.0007046335    1.687    0.407
        82 -12.3882    150.1872     86.2302   7.7545941140e+01   3.4785843737e+01     0.469069    0.3589139 -41.90  0.002303344    1.310    0.237
        83 -10.5464      6.5902     86.6578   1.2286113481e+02   5.7394730388e+01    0.2350938    0.1619385 -38.69  0.001421888    1.717    0.418
        84 -11.5293    166.2111     85.1009   7.3812328900e+01   3.1270549156e+01      0.43329     0.246899 -15.79  0.001656828    2.484    0.597
        85 -12.6574    124.3167     85.4479   8.3594046569e+01   4.0742252843e+01    0.5598263    0.4629307 -11.49  0.002248335    1.434    0.303
        86 -11.5422    108.6559     91.5036   8.9555551751e+01   4.2762285671e+01    0.4345165    0.2467692 -64.05  0.001666721    2.398    0.583
        87 -10.4070     98.8351     83.8457   9.0300577896e+01   4.6326958565e+01    0.2170006    0.2036366 -10.02 0.0005246764    1.172    0.147
        88 -10.1329     68.9367     83.2004   9.9779986995e+01   5.1671351744e+01    0.2312663    0.1909511 -60.60 0.0003571178    1.133    0.117
        89 -10.9259     76.2741     82.0020   9.6978282336e+01   5.0782864489e+01    0.4147159    0.2526119 -86.48   0.00160284    2.886    0.653
        90 -12.6788     85.8519     89.8315   9.5915239119e+01   4.7389184277e+01    0.8110902    0.4569225 -32.15  0.002522791    2.606    0.616
        91 -10.9579    179.5725     79.2281   6.9581428076e+01   2.9093057289e+01    0.2599739    0.2441182  15.26   0.00118064    1.063    0.059
        92 -11.7755    163.2388     80.7835   7.3182678518e+01   3.2690811975e+01      0.33551    0.2790299  80.50  0.001692842    1.433    0.302
        93 -10.7805     90.6958     80.6939   9.1915096223e+01   4.8553004212e+01    0.2786022    0.2374476  85.29  0.001066062    1.326    0.246
        94 -10.3136      4.0310     79.0249   1.2297968432e+02   5.9362874856e+01    0.1871234    0.1444591 -60.60 0.0004951681    1.230    0.187
        95 -11.3869    143.0049     79.0560   7.7085692925e+01   3.7743908891e+01    0.4202712    0.2034159 -25.62  0.001455053    2.806    0.644
        96 -10.0557     45.9457     80.0200   1.0725853172e+02   5.5540931795e+01    0.2051766    0.1522969 -31.46 0.0005908512    1.622    0.383
        97 -10.6939    134.3543     78.9262   7.9115612441e+01   3.9764073272e+01    0.2150544     0.198289 -31.90 0.0004710547    1.083    0.077
        98 -11.1529    117.6667     76.9715   8.2846922118e+01   4.3873747680e+01    0.2868428    0.2249655  58.39 0.0006377155    1.352    0.260
        99 -11.9942    151.5511     74.8711   7.3896268321e+01   3.6471154561e+01    0.3950832    0.3395494 -79.76  0.001361208    1.367    0.268
       100  -9.6182     23.1947     75.8543   1.1514583644e+02   5.8821287901e+01    0.1772925    0.1322526 -51.10 0.0006594689    1.311    0.237
       101 -10.2699     78.9803     74.9982   9.4114225500e+01   5.1908898275e+01    0.2164065    0.2057016 -72.86 0.0003584209    1.037    0.036
       102  -9.4289     55.0462     74.7122   1.0260566659e+02   5.5651611828e+01    0.1837827    0.1773539  89.00 0.0005278477    1.080    0.074
       103 -10.6272     43.9751     74.2257   1.0670129344e+02   5.7154628310e+01    0.2535391    0.2228118  74.84 0.0004209511    1.189    0.159
       104 -11.1615    131.4747     72.9377   7.7982476583e+01   4.1545571314e+01    0.4183635    0.2502025 -55.71  0.001064281    2.042    0.510
       105 -11.1618    159.0832     72.7286   7.1649643317e+01   3.5027782088e+01    0.3057275    0.1900639  50.67  0.001346885    1.610    0.379
       106  -9.3983     94.1642     73.6136   8.8718884012e+01   4.9426199017e+01    0.1994105    0.1400724  31.83 0.0004579934    1.619    0.382
       107 -11.5497    177.0775     82.1778   7.0874026739e+01   2.9213211338e+01    0.4074532    0.2286884  60.17  0.001640573    1.981    0.495
       108  -8.7649     17.6466     69.6642   1.1630650460e+02   6.0744966519e+01    0.1358431   0.07949867 -43.45 0.0007044346    1.794    0.442
       109 -11.7241    155.3826     64.9719   7.0010422402e+01   3.7206993577e+01    0.4544725    0.3044586  56.92  0.001474035    1.525    0.344
       110 -11.0433     71.4681     67.5582   9.4530515732e+01   5.4836998758e+01    0.3701382    0.2623533  44.07  0.001354719    1.503    0.335
       111  -9.7739      5.8170     68.1715   1.2094622667e+02   6.1861657852e+01    0.1751428    0.1219606 -51.82 0.0005854075    1.380    0.276
       112  -9.0749    126.2936     65.3674   7.6844615406e+01   4.4148403617e+01    0.1577044    0.1201472   5.88 0.0007028084    1.718    0.418
       113 -10.4016    133.7870     63.9194   7.4498360442e+01   4.2639074238e+01    0.2901185    0.2052265  88.65 0.0004536016    2.069    0.517
       114 -10.1198     66.2902     71.0393   9.7446456502e+01   5.4878024867e+01    0.2046661    0.1762647 -60.18 0.0007579101    1.087    0.080
       115  -9.9941    171.2026     63.1930   6.6384384918e+01   3.3583961473e+01    0.3444512   0.09076039  52.08  0.001029909    3.523    0.716
       116 -11.0290    158.7424     59.7333   6.7660875624e+01   3.7212078886e+01    0.3170537    0.2664648  66.29  0.000193468    1.253    0.202
       117  -9.6758    122.5492     59.9986   7.5994020232e+01   4.6002310760e+01    0.2325211    0.1469615 -37.68 0.0003962955    1.556    0.357
       118  -8.9170     64.5584     60.4915   9.4889137759e+01   5.7524631413e+01     0.140701    0.1289993 -49.64 9.304161e-05    1.011    0.011
       119  -8.7761     41.6737     60.7109   1.0422941348e+02   6.0614518933e+01    0.1352731   0.09526126 -32.11 0.0002474055    1.613    0.380
       120 -10.8140     33.8624     59.0835   1.0715400678e+02   6.1852922169e+01    0.3939432    0.1619655 -53.95  0.001277529    2.034    0.508
       121 -11.0334    201.9745     57.5006   5.9753468975e+01   2.6899561671e+01    0.3523226    0.2316571 -41.77  0.001705787    1.473    0.321
       122 -10.2482    206.2551     54.9704   5.8447092981e+01   2.6214360949e+01    0.1992741    0.1800858 -24.06 0.0004087929    1.036    0.034
       123 -10.4828     76.0663     54.5298   8.8518557328e+01   5.6863154154e+01    0.2303915    0.1914913 -58.56  0.000351561    1.230    0.187
       124 -10.0373    174.3638     53.8325   6.2922083255e+01   3.4174865123e+01    0.2156449    0.1405194 -14.95  0.000554634    1.722    0.419
       125 -11.3234    161.6091     54.3790   6.5376453343e+01   3.7312964301e+01     0.430872    0.1882117  60.20  0.001584007    2.364    0.577
       126  -9.1440     58.1557     52.8060   9.4873891453e+01   6.0208265876e+01    0.1895715    0.1540595 -26.55 0.0004103266    1.319    0.242
       127 -10.1117     32.1117     52.1461   1.0606973354e+02   6.3654778211e+01    0.2389849    0.1782953 -76.10 0.0007309343    1.353    0.261
       128  -8.4592     18.2466     51.6449   1.1243818340e+02   6.5002158190e+01    0.1248473   0.08824629  82.01 0.0002248763    1.593    0.372
       129 -10.0874    175.0759     49.4912   6.1434194259e+01   3.4605257465e+01    0.2230556    0.1462856  60.04 0.0004899362    1.554    0.356
       130  -9.1862    138.2964     47.7013   6.7849320333e+01   4.4239930442e+01    0.1534758    0.1170611 -66.10 0.0002559464    1.572    0.364
       131  -8.8118     32.6817     47.2813   1.0437229642e+02   6.4717337859e+01    0.1251464   0.09774923  74.42 0.0004661672    1.581    0.368
       132  -9.8855    114.0216     43.4575   7.2178735239e+01   5.0900545815e+01    0.2696646    0.2159605 -32.14 0.0003367343    1.230    0.187
       133 -10.0228     77.7272     43.8074   8.3813005182e+01   5.8717180365e+01    0.2316629    0.1921481  27.16 0.0005432361    1.301    0.231
       134  -9.5509     93.9585     44.3253   7.8431964105e+01   5.5312898496e+01    0.2018602    0.1895379  31.25 0.0003842337    1.089    0.081
       135  -9.4276     68.2157     38.2162   8.5141576586e+01   6.1569308875e+01     0.187124     0.167926 -80.12  0.001056172    1.343    0.256
       136  -8.8318     71.5974     31.8297   8.0981744757e+01   6.2136009312e+01    0.1918881    0.1263262 -48.25 0.0004199063    1.570    0.363
       137  -8.5800     70.4450     18.4421   7.4856703821e+01   6.4613140906e+01    0.1370225    0.1278036 -15.93 8.465429e-05    1.050    0.048
       138  -8.8514     74.8131     17.3951   7.2668783536e+01   6.3874265862e+01     0.188329    0.1245937  38.13 0.0002291833    1.554    0.357
