#   1 NUMBER                 Running object number                                     
#   2 MAG_AUTO               Kron-like elliptical aperture magnitude                    [mag]
#   3 X_IMAGE                Object position along x                                    [pixel]
#   4 Y_IMAGE                Object position along y                                    [pixel]
#   5 X_WORLD                Barycenter position along world x axis                     [deg]
#   6 Y_WORLD                Barycenter position along world y axis                     [deg]
#   7 A_WORLD                Profile RMS along major axis (world units)                 [deg]
#   8 B_WORLD                Profile RMS along minor axis (world units)                 [deg]
#   9 THETA_WORLD            Position angle (CCW/world-x)                               [deg]
#  10 FWHM_WORLD             FWHM assuming a gaussian core                              [deg]
#  11 ELONGATION             A_IMAGE/B_IMAGE                                           
#  12 ELLIPTICITY            1 - B_IMAGE/A_IMAGE                                       
         1 -13.6090    243.6276     29.4402   1.2468016149e+01   2.3901566715e+01    0.8786464    0.3831372 -36.10   0.00506064    1.640    0.390
         2 -14.0386    246.8704     12.3842   8.8008869108e+00   2.5155099415e+01    0.9713631    0.9135196  75.69  0.008103616    1.539    0.350
         3 -13.7117    226.7039     13.6248   9.8393062360e+00   2.8612366556e+01    0.8566783    0.3531299 -57.79  0.004646065    1.939    0.484
         4 -13.6719    231.0068      7.4402   8.3161195575e+00   2.8444931763e+01    0.7406275    0.4891816 -57.00  0.005185029    1.136    0.120
         5 -11.6344    248.1134      3.0305   6.8610132327e+00   2.5867153222e+01    0.3954299    0.2107907 -59.16   0.00268523    1.423    0.297
         6 -11.9865    193.5429     14.7327   1.1738193463e+01   3.5136845383e+01    0.3746911    0.2417035   4.93  0.001886879    2.796    0.642
         7 -11.7781    200.7191     12.7033   1.0833767712e+01   3.3831440152e+01    0.2839807    0.1680895 -69.21  0.001665301    1.478    0.323
         8 -12.9323      6.9826      6.7442   6.1479021318e+01   8.0247014188e+01    0.6030675    0.4915178 -14.80  0.003799786    1.171    0.146
         9 -12.8131    217.2049      6.1330   8.5296876027e+00   3.1175841629e+01    0.4311956    0.2763772  75.44  0.002798293    1.782    0.439
        10 -11.6499     23.9446      6.1750   4.4149494208e+01   7.7581387378e+01    0.4885102    0.1946447 -33.93  0.002021551    2.668    0.625
        11 -11.3362    199.8429      4.0629   8.7307962899e+00   3.4877092909e+01    0.2092232    0.1229422 -54.68  0.001252535    1.291    0.225
        12 -10.8557    239.5733      1.6472   6.8140846061e+00   2.7472869880e+01    0.1924816    0.1141449 -78.54  0.001008803    1.616    0.381
        13 -10.2734     32.7850      1.6221   3.4030417401e+01   7.6310088800e+01    0.1836858    0.1192712  68.15 0.0009466659    1.685    0.406
        14 -11.9028     92.5080    240.5123   7.9009985702e+01   1.2801859772e+01    0.3420145    0.1839029 -77.10  0.001743071    2.961    0.662
        15 -10.5577    238.3586    244.7937   5.2423319672e+01  -2.7735360674e+00    0.1828384   0.06357355 -29.26 0.0007568634    2.427    0.588
        16 -10.4919    238.8746    249.5665   5.2988948210e+01  -3.3137480487e+00    0.1470461    0.1088488 -15.62  0.001289538    1.347    0.257
        17 -10.9182    243.0221    246.1410   5.1938282400e+01  -3.2896574466e+00    0.3542339    0.1177687 -18.96  0.001523097    4.872    0.795
        18 -11.5130    124.2419    249.5890   7.3118528142e+01   7.7876665273e+00    0.3019034    0.1207282  20.89  0.001443912    2.320    0.569
        19 -12.3480    111.6840    249.2858   7.5701699390e+01   9.2115236755e+00    0.3603263    0.2755584  21.12  0.002511363    1.023    0.023
        20 -12.3765     95.9952    247.5949   7.8898964571e+01   1.1212646745e+01       0.4341    0.2672089  55.81  0.002526785    2.019    0.505
        21 -11.6979     76.6328    248.4520   8.3225195143e+01   1.3173477426e+01    0.4414237    0.2580341  44.96  0.001867624    1.531    0.347
        22 -11.9778     73.5582    240.1978   8.3263491087e+01   1.4965421316e+01    0.7333307    0.2963488  44.31  0.003173809    2.184    0.542
        23 -12.0114     63.0472    230.0922   8.4918105912e+01   1.8015288141e+01    0.7566688    0.3116081  56.03  0.003227588    2.948    0.661
        24 -11.5611     66.3839    249.0173   8.5545418369e+01   1.4160744619e+01    0.4780527    0.1842786  38.46  0.002103494    1.931    0.482
        25 -11.0253     50.8569    249.7442   8.9058411209e+01   1.5623023962e+01    0.4096462    0.1502578  31.85  0.002035213    1.917    0.478
        26 -10.7413     54.1558    239.8675   8.7702008340e+01   1.7096872514e+01    0.4081628    0.2025276  63.18  0.002065344    2.374    0.579
        27 -10.8095    203.4090    240.7253   5.7262928301e+01   7.7038371672e-01    0.4014336     0.106724  29.33  0.001910729    3.369    0.703
        28 -10.6757    186.8920    240.8176   6.0076693383e+01   2.3728101920e+00    0.1390003    0.1122723  19.59  0.001069644    1.370    0.270
        29 -11.3514    127.6134    241.1260   7.1488701600e+01   8.7169704664e+00    0.2195387    0.1287141  32.16 0.0008505772    1.440    0.305
        30  -9.1239     19.3099    241.6744   9.5806519322e+01   2.0119645012e+01    0.1303287   0.06117132  49.71 0.0004743591    1.656    0.396
        31 -10.4272    215.8360    239.4835   5.5092848994e+01  -2.4015449308e-01    0.1774926    0.1297107  32.47  0.001349771    1.889    0.471
        32  -9.4306     13.6083    239.7882   9.7042295478e+01   2.0982567665e+01    0.1546151   0.08988825  66.76 0.0007426321    1.606    0.377
        33 -10.0004    165.0137    239.5237   6.3873118221e+01   4.8175351298e+00    0.1487015   0.08028903  42.74 0.0005670508    2.480    0.597
        34 -10.7063    112.8603    239.1156   7.4395785733e+01   1.0720968346e+01    0.1835768    0.1400345  34.34 0.0006675817    1.200    0.166
        35  -9.8013    220.2197    237.9717   5.4200260944e+01  -4.6322469184e-01    0.1692371   0.08410727 -14.54 0.0008922404    1.932    0.482
        36  -9.5846    177.4546    238.4876   6.1443030628e+01   3.6432488971e+00    0.1116327   0.08431488   2.36 0.0008087913    1.007    0.007
        37 -10.0937     82.3671    237.6870   8.1040738138e+01   1.4442674014e+01    0.2302524    0.1551964  42.56  0.001408375    1.316    0.240
        38 -10.6199     79.1908    235.4004   8.1568494446e+01   1.5215347136e+01     0.324048    0.1460292  38.87  0.001395045    1.792    0.442
        39 -10.8488     61.2481    237.0192   8.5860609325e+01   1.6885102563e+01    0.3077598    0.1515221  33.97   0.00129369    1.545    0.353
        40 -11.4413    239.6608    235.3243   5.0933411726e+01  -1.8657867978e+00    0.2558042    0.1431361  20.06  0.001323772    1.651    0.394
        41 -11.8800    233.1379    235.4787   5.1902718365e+01  -1.3246166970e+00    0.2866186    0.1434125  -1.86  0.001828766    2.030    0.507
        42 -11.0881    234.9985    230.3005   5.0898696790e+01  -9.0677542046e-01    0.2742418    0.1197715 -19.25  0.001628545    2.216    0.549
        43  -9.9555    192.3629    236.1767   5.8501247251e+01   2.4173026644e+00    0.1289745   0.09328958 -37.17 0.0004095572    1.617    0.382
        44  -9.2979    135.3480    236.2872   6.9318049233e+01   8.5936778245e+00     0.121468    0.0784643  -2.13 0.0007022566    1.657    0.396
        45 -10.2631    216.0149    235.3285   5.4489053717e+01   2.3061648710e-01    0.1464382    0.1015026  -0.29 0.0005553584    1.077    0.072
        46 -11.6680    102.5673    234.1835   7.6135222746e+01   1.2749213820e+01    0.2174088    0.1567533 -34.27  0.001350031    1.623    0.384
        47  -9.9460    178.0611    232.7852   6.0564089230e+01   4.3507927823e+00    0.1909685    0.1053896   2.08  0.001086353    1.956    0.489
        48 -10.5533     54.5521    231.7488   8.7064142139e+01   1.8609090041e+01    0.3193542    0.1414547  52.25  0.001524794    2.203    0.546
        49 -10.3165     48.3469    231.0149   8.8495790467e+01   1.9404082382e+01    0.2357083    0.1537873  49.87  0.001056909    1.333    0.250
        50 -10.5327    218.5099    231.0085   5.3489049165e+01   5.1041988060e-01    0.1785018   0.08731133 -37.62 0.0008714156    2.011    0.503
        51 -11.4549     95.0973    229.7629   7.7369156944e+01   1.4412504681e+01    0.3815652    0.1326367 -52.83  0.001680069    3.194    0.687
        52 -11.9782     72.8100    227.0225   8.2333606603e+01   1.7519010776e+01    0.6063088    0.3273394  59.14  0.002515413    2.217    0.549
        53  -9.4940     11.5464    231.4209   9.7265301217e+01   2.2814276703e+01    0.1213001   0.09331544  43.90 7.330364e-05    1.024    0.024
        54 -10.6736    226.1561    230.0232   5.2173542613e+01  -8.1687581599e-02    0.1747933    0.1169276   6.91 0.0008313378    1.223    0.183
        55  -9.8001    161.2494    230.4489   6.3394442185e+01   6.5286992428e+00    0.1498097    0.0934217  32.34 0.0003614343    1.533    0.348
        56 -11.5496    244.9822    231.7336   4.9673726065e+01  -1.9230498775e+00    0.2419763    0.1345797  -5.60  0.001692227    1.508    0.337
        57  -9.6821    137.9052    228.8110   6.7860898229e+01   9.4804727268e+00    0.1585213    0.1257901  37.24 0.0005555984    1.356    0.262
        58 -10.9658    236.0479    225.0674   4.9993161874e+01  -4.0504328005e-01    0.2044054    0.1295641   4.87  0.001242068    1.314    0.239
        59 -10.1362     86.5172    225.4637   7.8931256045e+01   1.6224680091e+01     0.188062    0.1285964 -66.45  0.000642904    1.784    0.439
        60 -10.8027     26.7099    224.5138   9.3368142699e+01   2.2869072866e+01    0.2570538    0.1253582  73.21   0.00128134    2.209    0.547
        61  -9.3244    223.3357    224.6757   5.1831227249e+01   8.1287312261e-01   0.08619553    0.0797336  -5.60 0.0005471349    1.715    0.417
        62 -10.8592     54.0995    222.1994   8.6489599610e+01   2.0567727711e+01    0.4578468    0.1699232  41.57  0.002044322    2.119    0.528
        63  -9.9568     16.8804    222.8595   9.5698398844e+01   2.4112375813e+01    0.1712376    0.1547608  27.81 0.0004991614    1.229    0.187
        64 -11.0740    228.8932    220.8516   5.0429498173e+01   7.4546405444e-01    0.1931135    0.1612773 -13.73 0.0005844092    1.404    0.288
        65  -9.7234    109.0498    221.9974   7.3318411469e+01   1.4142420927e+01    0.1619699    0.1225735  25.19 0.0009917048    1.112    0.101
        66  -9.7971     95.3520    222.1959   7.6512111937e+01   1.5783190601e+01    0.1544768    0.1211824 -85.69  0.000424775    1.671    0.402
        67 -11.1438     63.1893    220.9246   8.4147558731e+01   1.9821961168e+01    0.4454847     0.193193  44.85   0.00186458    2.008    0.502
        68  -9.9707     23.6167    219.3135   9.3890501862e+01   2.4251754868e+01    0.2566198    0.1031913  60.36  0.001152905    2.395    0.582
        69  -9.4668      3.3298    221.7052   9.8953212055e+01   2.5499822242e+01    0.1359549   0.06266029  49.21 0.0007024526    1.633    0.387
        70 -11.5693    243.2863    219.0126   4.8072852967e+01  -3.6056190692e-01     0.254564    0.1218906   2.42  0.001483927    2.539    0.606
        71  -9.9980    242.7073    214.9918   4.7556016603e+01   1.5403821578e-01     0.179718    0.1331419 -25.77 0.0009942192    1.367    0.268
        72 -10.2821     78.3499    218.7458   8.0228771662e+01   1.8501992612e+01    0.3157089    0.1648425 -72.88  0.001536375    2.455    0.593
        73 -11.2547    248.2393    218.4672   4.7304804427e+01  -7.3684003526e-01    0.1830377    0.1050191 -26.95  0.000831297    1.353    0.261
        74  -9.8790    237.2402    217.4256   4.8696726010e+01   3.7199984782e-01    0.1176402   0.08621318  21.27 0.0004872949    1.536    0.349
        75 -10.4642    180.3045    216.9405   5.7899076588e+01   6.3352999365e+00    0.2040935    0.1695075   8.49 0.0008474825    1.153    0.133
        76 -12.3268      5.5916    198.6623   9.7724991140e+01   3.0423754261e+01    0.5942886    0.3481642  48.18  0.003260172    1.362    0.266
        77 -11.1574      2.9456    191.1728   9.8202720121e+01   3.2395649579e+01    0.4285168    0.2409049  81.18  0.002225518    1.679    0.404
        78 -12.2690      7.8555    208.6469   9.7456761177e+01   2.7964844168e+01    0.5266635    0.4445722 -88.20  0.003480246    1.297    0.229
        79 -11.8518     15.9410    213.9367   9.5587567047e+01   2.6106366981e+01    0.4843107    0.3439528 -84.63  0.002601519    1.513    0.339
        80 -11.7545    231.2872    213.6844   4.9002067607e+01   1.3793755308e+00    0.3839737    0.2509204 -30.54  0.002846505    1.392    0.282
        81 -10.8516    212.6499    215.3723   5.2122189439e+01   3.0270209042e+00    0.2470964   0.08971617  25.32  0.001239585    2.883    0.653
        82 -10.7980    209.4707    211.9745   5.2117015825e+01   3.8032212462e+00     0.186502    0.1460142   3.43 0.0005295107    1.143    0.125
        83 -10.0978    127.0219    214.4833   6.8328012424e+01   1.3238555589e+01    0.1824539    0.1632933 -23.03 0.0006338325    1.188    0.158
        84 -10.2177     68.3082    214.6557   8.2326078040e+01   2.0521523140e+01    0.2298864    0.1669193 -65.48  0.001336763    1.589    0.371
        85 -10.1093     80.8890    211.3842   7.8854697503e+01   1.9685404352e+01    0.3451635      0.14206  57.23  0.001181393    4.128    0.758
        86 -11.8247     12.2124    214.7395   9.6557431965e+01   2.6255125949e+01    0.5225827    0.2318122 -78.45  0.002560889    2.407    0.585
        87  -9.3553    132.5461    210.5304   6.6569675539e+01   1.3230641455e+01    0.1258955    0.1089854  16.99 8.423477e-05    1.049    0.046
        88 -10.0358     21.6488    221.3249   9.4466929933e+01   2.4006382546e+01    0.2588043   0.09365719  50.22  0.001132725    2.212    0.548
        89  -9.6854    239.3002    206.3021   4.6714181185e+01   1.5006641743e+00    0.1067389   0.06107308  -9.66 0.0002646048    1.586    0.369
        90  -9.2452     73.2874    203.6632   7.9975312599e+01   2.2251777738e+01    0.1400164   0.09020799  56.56 0.0003033011    1.632    0.387
        91  -9.2190    186.6760    200.6630   5.4232377834e+01   7.9870250706e+00    0.1256493   0.07772337  -8.38 0.0007051094    1.717    0.418
        92  -9.0449    134.2938    200.3406   6.4711923400e+01   1.4838724666e+01    0.1330695   0.09211693 -11.94 0.0007029069    1.655    0.396
        93 -10.4418    128.1886    198.9336   6.5878295719e+01   1.5933971886e+01    0.2185934    0.1719991  24.28 0.0004706458    1.142    0.124
        94  -9.3598     17.6864    194.3002   9.4262625264e+01   3.0428396822e+01    0.1458162   0.07660006  52.31 0.0002466086    1.609    0.379
        95 -10.0648     91.7830    188.3703   7.3301561285e+01   2.3169143356e+01    0.2041536    0.1824528  87.94 0.0004719217    1.259    0.206
        96 -11.9865      1.9731    181.8740   9.8177073374e+01   3.4727088437e+01    0.6077618    0.1836132 -79.09  0.002299105    3.176    0.685
        97  -9.7327    239.9754    182.9563   4.2873526377e+01   4.3421266423e+00    0.3126386   0.08698846 -31.21  0.001346035    3.313    0.698
        98 -10.2539     16.1307    183.1623   9.4141133475e+01   3.3266639480e+01    0.2008697    0.1300142  52.80 0.0005772405    1.315    0.240
        99  -9.0910    104.3380    177.6796   6.8451983800e+01   2.3718089387e+01     0.147064    0.1047874  61.26 0.0007050019    1.711    0.416
       100 -10.2466    249.5524    183.7050   4.1713713234e+01   3.2501419882e+00      0.19615   0.07777164 -31.94  0.000933577    1.934    0.483
       101 -10.1989     10.5735    157.3973   9.4450507977e+01   4.0377104840e+01    0.2980415   0.05240668  35.03 0.0009439847    3.474    0.712
       102 -11.5609      4.5559    147.9480   9.5959565390e+01   4.3372620171e+01     0.340364    0.1986199  20.73  0.001621759    1.757    0.431
       103 -10.5957      6.4651    141.4777   9.4928867805e+01   4.5015560207e+01    0.1444278    0.1258003  70.01 0.0001033884    1.004    0.004
       104 -10.6124    238.8165    135.3371   3.4532424500e+01   1.0888383223e+01    0.1530136    0.1370464 -45.41  0.001162346    1.350    0.259
       105  -9.6016    216.1380    134.6624   3.7385328513e+01   1.4150558022e+01    0.1528826     0.107831  26.83 0.0006534659    1.721    0.419
       106 -10.4865    248.1529    130.7852   3.2569406346e+01   1.0295433132e+01    0.2654178    0.1368625 -47.48  0.001519375    2.005    0.501
       107 -10.1085    240.8622    125.8640   3.2474097408e+01   1.1927840554e+01    0.1839925    0.1333315 -17.97  0.001248596    1.317    0.240
       108  -9.9141    227.0236    124.9820   3.3987177625e+01   1.3997625473e+01    0.1824141    0.1254765 -53.68 0.0009035981    1.655    0.396
       109  -9.4751    218.4967    124.4531   3.4993885069e+01   1.5343469911e+01    0.1240478   0.09896075 -28.49 -1.158689e-06    1.054    0.051
       110  -9.6622    239.8153    118.5772   3.1176555439e+01   1.3081649174e+01    0.1304643    0.1123694  89.05 0.0009414028    1.678    0.404
       111 -10.3294    235.8338    112.5048   3.0423525267e+01   1.4499187732e+01    0.2332433     0.148343 -49.56  0.001324468    1.536    0.349
       112 -10.5108      5.5180    113.5012   9.3340420323e+01   5.2956223051e+01    0.1457288    0.1313987  85.80 9.626812e-05    1.013    0.013
       113  -9.5196    247.3477    112.6923   2.9200824509e+01   1.2839945919e+01    0.1129448   0.07294927 -53.54 0.0004865205    1.704    0.413
       114 -10.4984    239.6894    103.3788   2.8163121001e+01   1.5201690409e+01    0.2180521    0.1685861 -27.57 0.0008255952    1.154    0.134
       115 -12.5745    245.7048     98.6297   2.6596248576e+01   1.4964177593e+01    0.3915349    0.2945255 -88.24  0.002695949    1.924    0.480
       116 -10.1999      2.3521     95.3058   9.3180928054e+01   5.8317628593e+01    0.1550657   0.09507905 -43.44  0.000704185    1.710    0.415
       117  -9.6823      5.3300     88.3392   9.0937340933e+01   6.0130993978e+01     0.158956   0.09381757 -44.31 0.0007051792    1.739    0.425
       118 -10.9085    238.4896     65.5119   2.0419979916e+01   2.0451141807e+01    0.1763578    0.1012837  51.12  0.001038448    2.409    0.585
       119 -12.4096    246.8367     58.4867   1.8320509232e+01   1.9974102354e+01    0.3852162    0.1803853 -37.98  0.002236708    1.508    0.337
       120 -10.0514    199.6864     55.3222   2.1549368267e+01   2.8916425558e+01    0.1391962   0.07887853 -57.68 0.0002990788    1.657    0.397
       121 -11.5865    240.8838     42.6695   1.5405406115e+01   2.2859751362e+01    0.2875679    0.1778203 -29.21  0.001824913    1.483    0.326
       122 -10.9262    249.9650     44.0388   1.5147169946e+01   2.1194595017e+01    0.3018337    0.1624239 -22.15  0.001720922    2.102    0.524
       123 -10.6571    232.8217     42.1893   1.5810680469e+01   2.4312525067e+01    0.1474716    0.1274798 -29.16  0.001070746    1.333    0.250
       124 -10.5387    151.8515    249.4736   6.7610168771e+01   4.8333980269e+00    0.2923162   0.06711091  34.77  0.001177266    3.703    0.730
       125 -10.1428     33.4857    248.7811   9.2892685076e+01   1.7486795534e+01    0.2503554    0.1270024  44.79  0.001451659    1.503    0.334
       126 -10.9621    229.0206    247.5204   5.4161168651e+01  -2.2927329536e+00    0.1519658   0.09743877 -16.91 0.0008381834    1.202    0.168
       127 -10.8175    198.0060    247.0127   5.8998681520e+01   5.2454882647e-01     0.234602    0.1127201  36.10  0.001406592    2.464    0.594
       128  -9.4725     78.0353     31.0427   3.4343161552e+01   6.1879013954e+01    0.1732627     0.164967  78.24 0.0005093936    1.018    0.018
       129 -11.4624     88.9241    246.5892   8.0355188535e+01   1.2158667842e+01    0.2575167    0.1056923  36.92  0.001295916    1.905    0.475
       130 -11.4881    232.6755     28.7157   1.2876364093e+01   2.5895430491e+01    0.1925155    0.1603244 -37.01   0.00141427    1.264    0.209
       131 -11.2214     14.0295     23.0349   6.5919426607e+01   7.6190826253e+01    0.2069113    0.1619979  61.82 0.0009715581    1.695    0.410
       132 -10.1446     58.0077    247.0290   8.7287756913e+01   1.5383855212e+01    0.2010799      0.10517  48.67  0.001122738    1.703    0.413
       133 -10.9230    131.5159    246.0248   7.1239123436e+01   7.5285108558e+00    0.1508272    0.1132219 -44.66    0.0010362    1.603    0.376
       134 -11.6404     83.2245    244.4348   8.1431977095e+01   1.3153994862e+01    0.3591392     0.186397  44.99  0.001969696    1.782    0.439
       135 -10.7373     46.8375    244.0396   8.9637100267e+01   1.7064634993e+01    0.2605459    0.1696903  55.57 0.0009653689    1.432    0.302
       136  -9.9898     15.4917    244.4997   9.6760691117e+01   1.9916961840e+01    0.1205795   0.08744906  43.46  -0.00016066    1.023    0.022
       137 -11.4134    103.8328    242.8608   7.6741481849e+01   1.1125875150e+01    0.1788146    0.1427549   3.52 0.0007395673    1.236    0.191
       138 -10.2920     64.1623    242.7876   8.5604208031e+01   1.5507423934e+01    0.1950479    0.1335703  42.90  0.001230119    1.224    0.183
