#   1 NUMBER                 Running object number                                     
#   2 MAG_AUTO               Kron-like elliptical aperture magnitude                    [mag]
#   3 X_IMAGE                Object position along x                                    [pixel]
#   4 Y_IMAGE                Object position along y                                    [pixel]
#   5 X_WORLD                Barycenter position along world x axis                     [deg]
#   6 Y_WORLD                Barycenter position along world y axis                     [deg]
#   7 A_WORLD                Profile RMS along major axis (world units)                 [deg]
#   8 B_WORLD                Profile RMS along minor axis (world units)                 [deg]
#   9 THETA_WORLD            Position angle (CCW/world-x)                               [deg]
#  10 FWHM_WORLD             FWHM assuming a gaussian core                              [deg]
#  11 ELONGATION             A_IMAGE/B_IMAGE                                           
#  12 ELLIPTICITY            1 - B_IMAGE/A_IMAGE                                       
         1 -12.5608    148.7185     22.3215   5.0112990064e+01   4.5428477637e+01    0.4934268    0.3407457  48.85   0.00153958    1.366    0.268
         2 -13.9648    152.5525     12.0424   4.6122753173e+01   4.5533247687e+01     1.094693     0.829981  83.63  0.006043866    1.316    0.240
         3 -13.6979    163.9373      3.1612   4.1749049492e+01   4.3487967240e+01     1.714417    0.5175211  67.59  0.006414028    2.750    0.636
         4  -9.6354    159.4504    248.4309   1.0158468847e+02   1.3695305978e+00    0.1737168   0.09822366  37.19  0.000362943    1.430    0.301
         5 -16.6319    241.9058    224.1296   8.2496669631e+01  -7.9171090422e+00     4.232276     1.447495 -35.32   0.01917067    2.966    0.663
         6 -16.8130     10.1291    231.0831   1.2788666246e+02   2.4840741665e+01     3.220571     1.314563 -84.90   0.01854978    2.136    0.532
         7 -21.0734    114.6472    177.9263   1.0066639435e+02   2.2115890515e+01      10.4121     7.996694  41.62   0.05176721    1.260    0.207
         8 -10.7793    159.4451    238.7698   1.0028438677e+02   2.8433187032e+00     0.125779    0.1228921  34.70 0.0003819346    1.201    0.168
         9 -10.5888     55.7781    238.0467   1.2020363341e+02   1.8402032553e+01    0.2117757    0.1533843  83.50 0.0008242609    1.231    0.188
        10 -10.1874    190.9694    238.2375   9.4141061029e+01  -2.1145062050e+00    0.2035562    0.1422918  70.86 0.0008418086    2.991    0.666
        11 -10.5891     44.8949    237.1706   1.2212166653e+02   1.9901903490e+01    0.1513807    0.1148887  73.38 0.0003066209    1.064    0.061
        12 -12.1200     47.9542    233.0548   1.2127746359e+02   2.0312666312e+01    0.2292992    0.1422549  70.19 0.0009997949    1.350    0.259
        13 -10.3395    137.2746    236.7886   1.0437097650e+02   6.7377230361e+00    0.1174246   0.08033833  54.86 0.0003768121    1.408    0.290
        14 -11.0763    196.4032    235.3763   9.2672108807e+01  -2.5634832933e+00    0.1556734    0.1111219   4.10 0.0006156959    1.493    0.330
        15  -8.0840    214.5037    233.4473   8.8988518024e+01  -5.0931013200e+00    0.1217777   0.09970228  20.17 0.0001511452    1.084    0.078
        16  -9.2575    200.4248    233.3059   9.1587015798e+01  -2.9027913787e+00    0.1217807   0.09555089  30.87  0.000112959    1.125    0.111
        17 -11.2870    139.1781    233.4580   1.0356136847e+02   6.9927662369e+00    0.1726294    0.1031055  46.25 0.0004592438    1.430    0.301
        18 -10.7168    191.0441    230.2951   9.2894464187e+01  -9.7903944246e-01     0.107599   0.09158234   2.97 0.0001804033    1.152    0.132
        19 -11.2160    199.0310    227.9439   9.0988994476e+01  -1.9166287478e+00    0.2338096    0.1596316 -17.50  0.001347874    1.644    0.392
        20 -11.3565    170.8901    227.6541   9.6418983936e+01   2.7260659672e+00     0.167478    0.1353706  36.50 0.0004418234    1.071    0.066
        21 -10.5066    173.7254    225.2040   9.5479441420e+01   2.6455219918e+00     0.119947    0.0946843  41.68 0.0003268518    1.171    0.146
        22  -8.9458    219.2062    226.9012   8.7039891270e+01  -4.9258228733e+00    0.1462544    0.1102992   8.21            0    1.164    0.141
        23 -10.4496    189.4865    224.6281   9.2288400661e+01   1.2318443470e-01    0.1287652    0.1051567  27.21 0.0001500671    1.038    0.036
        24  -9.8506    197.6532    216.2492   8.9303066963e+01   5.6908068199e-02    0.1211578    0.0966244  54.52  0.000694123    1.581    0.368
        25 -10.2130    202.9714    215.2097   8.8094667255e+01  -6.6513925460e-01     0.189456   0.09174219  44.67 0.0008706065    2.082    0.520
        26  -9.7052    216.1754    209.7782   8.4618875312e+01  -2.0124414030e+00    0.1595547    0.1224274   6.65 0.0002471178    1.200    0.167
        27 -10.0817    204.8743    202.9266   8.5534807015e+01   9.2715499258e-01    0.2667919    0.1601022 -32.27 0.0006242872    1.738    0.425
        28 -11.5457    211.0939    196.5164   8.3135533625e+01   8.8363492559e-01    0.3555099    0.2875227 -33.59  0.001643684    1.313    0.238
        29 -11.4326    206.9075    196.7033   8.3981273684e+01   1.5770354140e+00    0.3225246    0.2393397 -35.67 0.0009767655    1.412    0.292
        30 -12.2186    212.9026    188.7356   8.1289811059e+01   1.8280461160e+00    0.2600223    0.2181734 -11.14 0.0003191059    1.115    0.103
        31 -11.4004    136.1337    249.4762   1.0615300048e+02   4.8528069629e+00     0.193964     0.139256 -70.31  0.001208728    1.836    0.455
        32 -10.9616    217.6271    173.2335   7.7264080920e+01   3.5635213218e+00    0.3544987     0.250221   3.15 0.0001735267    1.618    0.382
        33 -10.3440      1.9963    166.3265   1.2577374212e+02   3.9060584084e+01    0.2137657    0.1291723 -73.44 0.0005712527    1.368    0.269
        34 -11.1144    139.1928    247.2789   1.0530590524e+02   4.7237614034e+00    0.1676108    0.1237262  53.14  0.001060876    1.250    0.200
        35  -9.5916      8.4093    162.9327   1.2410123590e+02   3.9331421668e+01     0.179823     0.135024  67.17 0.0005133218    1.219    0.180
        36 -10.9387    128.5920    249.3343   1.0757026118e+02   6.0403861084e+00    0.1602131    0.1098526 -84.54 0.0009353863    2.048    0.512
        37  -9.4224      6.3142    152.0714   1.2371860707e+02   4.1987756587e+01    0.1866689    0.1249948  80.33 0.0007336997    1.277    0.217
        38  -9.4391      3.2847    150.4587   1.2430450099e+02   4.2579460375e+01    0.3257917    0.1109606 -72.31  0.001526706    2.212    0.548
        39 -11.4319    224.0453    149.9989   7.1079461828e+01   6.3564614235e+00    0.2511981    0.2289052  -8.55            0    1.023    0.023
        40 -10.3684     22.2900    147.3120   1.1936373345e+02   4.1820226699e+01    0.2235548    0.1729434 -53.35 0.0005651917    1.394    0.283
        41  -9.4378      9.3444    147.3833   1.2258641456e+02   4.2851909098e+01     0.155773    0.1074233 -57.25  0.000337527    1.457    0.314
        42 -11.5195    112.2289    250.5440   1.1079491591e+02   8.3254719170e+00    0.1937811   0.09898487  42.15  0.001061315    1.558    0.358
        43 -11.9443     22.9406    137.0690   1.1805503630e+02   4.4213749289e+01    0.2483291    0.1911563 -77.35 0.0003446093    1.054    0.051
        44 -11.6469     19.6643    132.3160   1.1837615111e+02   4.5625410612e+01    0.4651524    0.1704993 -63.16  0.001620813    2.102    0.524
        45  -9.5608     10.1854    130.0733   1.2067754110e+02   4.6870625726e+01    0.1967269     0.134811 -57.60  0.001216492    1.354    0.261
        46 -11.1359    156.4418    248.5117   1.0216734579e+02   1.8293075667e+00    0.1224494    0.0987138  37.26 0.0008076615    1.007    0.007
        47 -10.5493     14.9624    128.7139   1.1923513195e+02   4.6850534758e+01    0.2081586     0.144321 -81.62 0.0002211481    1.189    0.159
        48 -10.8734     98.9524    247.7234   1.1300476198e+02   1.0760782544e+01    0.2424693    0.1241068  41.21  0.001340025    1.605    0.377
        49 -10.7550     51.6945    247.7762   1.2162626710e+02   1.7129603382e+01    0.1313686     0.102796  76.57 0.0003684067    1.138    0.121
        50 -10.0270    119.1336    247.4784   1.0916171121e+02   7.7918519451e+00    0.1532577    0.0946651  47.81 0.0008994609    1.307    0.235
        51 -11.1501     32.8492    108.2456   1.1106104206e+02   5.0325067038e+01    0.4619149    0.1997675 -76.73  0.001868196    2.632    0.620
        52 -10.9494     28.2357    105.2065   1.1200202580e+02   5.1458120784e+01    0.3151739    0.1984611  60.99  0.001655104    1.989    0.497
        53 -11.0333     47.6992    246.5196   1.2224444986e+02   1.7843258072e+01    0.1411654   0.09215242  85.67 0.0006572706    1.382    0.276
        54 -11.6739    218.7973    197.8030   8.1912483517e+01  -6.2721347144e-01    0.4376078    0.3171442   0.34  0.001349315    1.404    0.288
        55 -11.4109     42.3720     96.8889   1.0578090352e+02   5.2133633402e+01    0.3803254    0.2646483 -10.29  0.002015658    1.879    0.468
        56 -10.6349     17.9305     97.1645   1.1398636918e+02   5.4162103715e+01    0.1839979     0.151149 -87.57 0.0004131671    1.231    0.187
        57 -11.6958    181.1932    245.6028   9.7076330080e+01  -1.6250719275e+00    0.1541835    0.1092516  29.14 0.0004427911    1.163    0.140
        58 -12.5070    118.0833     87.7947   7.9032994596e+01   4.2117564026e+01    0.6370464    0.3729849 -52.21  0.001798596    1.851    0.460
        59 -11.3022    125.0875    245.3964   1.0778926930e+02   7.2230157487e+00    0.1508752    0.1086698 -26.35 0.0008666652    2.189    0.543
        60 -10.9397     47.1582     87.2753   1.0195705111e+02   5.3882533779e+01    0.3401599    0.2200201  15.23  0.001756276    1.896    0.472
        61 -11.0534     79.9969    246.5340   1.1642551610e+02   1.3656586676e+01    0.1673269   0.09755172  39.89 0.0009934969    1.531    0.347
        62  -9.8317    156.0787     81.8659   6.7499408513e+01   3.4543610752e+01     0.232186    0.2088034 -79.92  0.000250402    1.218    0.179
        63 -10.2864     50.0364     81.8008   9.9557118335e+01   5.4812865216e+01    0.2219428    0.1721774 -52.76  0.000327241    1.135    0.119
        64  -8.2766    156.7134    242.7095   1.0135055757e+02   2.6692798018e+00    0.1951498    0.1133023 -48.99  0.001079989    2.120    0.528
        65 -11.2000    118.1931     77.8288   7.5924435670e+01   4.4131458654e+01    0.2613318     0.249184 -42.37 0.0006624598    1.069    0.065
        66 -10.6477     90.8475     73.9077   8.3008212677e+01   5.0418446815e+01    0.2628569    0.2552463 -72.34 0.0005615595    1.177    0.150
        67 -10.0511     49.5128     75.9543   9.8184731839e+01   5.6186047562e+01     0.237662    0.1783595 -12.77 0.0006505877    1.495    0.331
        68  99.0000    117.9224    242.5181   1.0884313446e+02   8.8108048785e+00    0.2535135    0.1493196 -86.47  0.001265906    2.708    0.631
        69 -11.8741     48.5859    240.6263   1.2169282641e+02   1.8812585943e+01    0.1720125    0.1333545  67.76 0.0004519157    1.060    0.056
        70  -9.8932     66.0958     70.4988   9.0470074244e+01   5.5201594060e+01    0.1948406    0.1372234  29.25 0.0005379017    1.533    0.348
        71 -13.9669    144.6833     53.2294   6.1145419895e+01   4.2304798123e+01     1.068461    0.8607582 -24.57  0.005444817    1.311    0.237
        72 -11.8471    134.4763     40.4767   5.9150404854e+01   4.6699784981e+01     0.314403    0.2441674 -70.18  0.001007066    1.624    0.384
        73 -11.4833    133.7904     36.4593   5.7908021960e+01   4.7415382787e+01    0.2682803    0.2376488  28.17  0.000365514    1.129    0.114
        74 -10.6191     85.9884    249.0165   1.1553672965e+02   1.2389126317e+01    0.1205233   0.08069822 -73.67 0.0007659938    1.664    0.399
        75  -9.9049     42.7499    248.9244   1.2325679062e+02   1.8003298465e+01    0.1165954    0.0764923  84.31            0    1.341    0.254
