#   1 NUMBER                 Running object number                                     
#   2 MAG_AUTO               Kron-like elliptical aperture magnitude                    [mag]
#   3 X_IMAGE                Object position along x                                    [pixel]
#   4 Y_IMAGE                Object position along y                                    [pixel]
#   5 X_WORLD                Barycenter position along world x axis                     [deg]
#   6 Y_WORLD                Barycenter position along world y axis                     [deg]
#   7 A_WORLD                Profile RMS along major axis (world units)                 [deg]
#   8 B_WORLD                Profile RMS along minor axis (world units)                 [deg]
#   9 THETA_WORLD            Position angle (CCW/world-x)                               [deg]
#  10 FWHM_WORLD             FWHM assuming a gaussian core                              [deg]
#  11 ELONGATION             A_IMAGE/B_IMAGE                                           
#  12 ELLIPTICITY            1 - B_IMAGE/A_IMAGE                                       
         1 -13.8546    246.2277     55.8726   7.1134509986e+01   1.6960721833e+01     7.149159      1.28257 -31.30   0.01943632    5.034    0.801
         2 -11.9614    246.6018     17.9288   6.1943114215e+01   2.1764037996e+01     1.550719    0.6811462 -18.74  0.006167606    3.225    0.690
         3 -11.2017    224.3472     19.2015   6.4241194041e+01   2.6889106230e+01     0.462971    0.3302775 -19.60  0.002474549    1.620    0.383
         4 -12.3615    248.0102    120.6667   8.6467524259e+01   6.7650391844e+00     3.784078    0.5452692 -34.02   0.00906345    6.347    0.842
         5 -11.9246      4.2170      4.8771   1.1753303530e+02   7.3919623021e+01     1.090691    0.7099039  14.07  0.007413018    1.679    0.404
         6 -10.6040     12.6847     12.9422   1.1662783293e+02   7.1973703213e+01    0.3503245    0.2326563 -19.88   0.00241078    1.331    0.249
         7 -11.2747     16.5957      6.5531   1.1148648047e+02   7.2646240007e+01    0.4950854    0.3269645 -20.80  0.002260801    1.251    0.201
         8  -8.6246     15.0058      2.0217   1.0998978230e+02   7.3465461937e+01    0.1556014    0.1011597 -17.72            0    1.290    0.225
         9  -9.9112     29.7324     12.9444   1.0798349587e+02   7.0341459037e+01     0.223849     0.169495 -26.56 0.0003232574    1.092    0.084
        10  -8.8932     19.6266     13.3976   1.1322862245e+02   7.1299849694e+01     0.180893    0.1396637 -25.26 0.0008767614    1.025    0.025
        11 -10.8090    237.1918      9.8960   6.0792618785e+01   2.4854359198e+01     0.354252    0.1748122 -30.40  0.001697609    1.967    0.492
        12  -8.2004    117.7270      8.9812   7.6310024305e+01   5.4935626934e+01     0.181939    0.1663778   4.82 0.0003655048    1.105    0.095
        13  -8.9779    128.0101      7.3123   7.3581005161e+01   5.2631764597e+01    0.1875997    0.1617763  53.18 0.0003578184    1.063    0.059
        14 -10.0527    110.9819      5.0268   7.6150154087e+01   5.6871216563e+01    0.3203205    0.2309582 -44.77 -0.003769674    1.637    0.389
        15  -8.4727    114.4709      3.5491   7.4789390025e+01   5.6194414246e+01    0.2040616    0.1821618  45.34 0.0001279053    1.038    0.037
        16  -7.7678     57.5116      6.5598   9.2619955697e+01   6.7373568543e+01    0.1213676    0.1014975   1.53 9.112254e-05    1.039    0.038
        17  -9.4755     34.2814     10.1709   1.0442848827e+02   7.0220169305e+01    0.2011858    0.1423325 -43.36 0.0006956022    1.613    0.380
        18 -10.4353    242.1020      2.1841   5.8595821253e+01   2.4534126113e+01    0.4388993    0.2470471 -72.58  0.001100781    1.718    0.418
        19  -8.9025    153.5488      3.2942   6.7891211451e+01   4.6600871338e+01    0.2329433    0.1276923 -28.24 0.0005939635    1.913    0.477
        20  -9.6894     50.7497      3.6963   9.3783681469e+01   6.8780617457e+01    0.1969529    0.1661014  -1.84 0.0002293074    1.097    0.088
        21  -9.7292     29.6442      2.4252   1.0256268620e+02   7.1842701997e+01    0.2157619    0.1569678 -24.77  0.001501678    1.181    0.153
        22  -9.5019    168.0653      1.6355   6.5405015765e+01   4.3017741540e+01     0.202434    0.1683769 -80.83  0.001161865    1.186    0.157
        23  -8.1725     81.5174      1.4197   8.1981546876e+01   6.3541088302e+01    0.2143489    0.0931752  44.10 0.0004606958    2.039    0.510
        24  -7.9449     78.3458      1.2649   8.2841821963e+01   6.4181608204e+01    0.2002906    0.1050464  48.87 0.0002810596    1.751    0.429
        25  -9.0207    128.4337      1.5443   7.1289610513e+01   5.3033030510e+01     0.223574    0.1229899  65.91 0.0006072633    1.690    0.408
        26  -8.7535    211.8086    225.8973   1.1357908319e+02  -2.0494080435e+00    0.2831925    0.1485379 -23.87   0.00146287    2.467    0.595
        27  -8.8815    249.4714    249.8767   1.1103742323e+02  -1.0347903049e+01    0.2304244    0.1308542  21.09  0.001144293    1.501    0.334
        28  -9.1229    250.2547    245.0551   1.1018077064e+02  -9.9826266892e+00    0.3343826    0.1725665 -10.42  0.001915992    2.376    0.579
        29  -9.5154    242.5946    246.8009   1.1166723568e+02  -9.0897648575e+00    0.3312006    0.1641559 -22.54  0.001964695    2.294    0.564
        30  -8.8810    224.9069    249.0386   1.1486975951e+02  -6.7796714794e+00     0.299702    0.1432525 -44.50  0.001622605    3.180    0.685
        31  -9.2136    228.4676    246.8312   1.1396216056e+02  -7.0647096259e+00    0.2554852    0.1737628  22.96 0.0009161571    1.187    0.158
        32  -9.1655    232.6296    244.5880   1.1294676444e+02  -7.4327819102e+00    0.3379717    0.1717189 -21.44  0.001943086    2.375    0.579
        33 -10.7308    216.2972    230.9569   1.1359682171e+02  -3.3978034785e+00      1.02611    0.4513321 -20.33  0.004218001    4.245    0.764
        34  -9.3026    210.5066    242.5000   1.1632062483e+02  -3.8777758103e+00    0.2760084     0.192339  13.16  0.001622169    1.463    0.316
        35  -9.0453    213.6286    240.2340   1.1545919095e+02  -4.0929561966e+00     0.216323    0.1883039  21.33  0.001576891    1.157    0.136
        36  -8.3138    201.6895    250.4971   1.1894084365e+02  -3.4602907492e+00    0.1559082    0.0854417  31.93 0.0009219468    1.528    0.345
        37  -9.9181    192.6146    247.7975   1.2011254020e+02  -1.7356792537e+00    0.3081577    0.2656952  76.02  0.002223057    1.668    0.400
        38  -8.3174    184.5256    250.4933   1.2185475060e+02  -8.0621312822e-01    0.1160076   0.08940154  36.12 0.0001087112    1.005    0.005
        39 -10.2230    168.3512    249.6833   1.2453397794e+02   1.8372474000e+00    0.3379145    0.2410686   7.96 0.0001935881    1.980    0.495
        40 -10.0471    169.6936    240.9578   1.2318467239e+02   2.8016282440e+00    0.3477108    0.2297013 -32.96  0.002153374    2.013    0.503
        41  -8.5629    151.1137    249.6555   1.2752084186e+02   4.5572400435e+00    0.1678165    0.1168126  43.20 0.0007499044    1.121    0.108
        42  -8.2148     47.8360    250.1790   1.4505841007e+02   1.9186119417e+01    0.1292579    0.1081094  67.91 0.0006765757    1.326    0.246
        43  -7.9891    160.1500    234.6005   1.2405533544e+02   5.2635866815e+00    0.1735885   0.09572453  34.97 0.0007551868    1.679    0.404
        44  -9.4989    240.1945    231.1312   1.0961493232e+02  -7.0805506371e+00    0.2457332     0.149207 -29.04  0.001341486    1.791    0.442
        45  -8.8572    206.4663    223.5046   1.1413631871e+02  -8.6775534559e-01    0.2889462     0.185677  -5.87  0.001592618    2.092    0.522
        46  -9.8602     18.1835    222.9330   1.4839443172e+02   2.7296246684e+01    0.3569632    0.1791077 -86.68  0.001991684    1.668    0.401
        47  -8.6328    216.7765    221.9355   1.1208156458e+02  -2.3487264451e+00    0.3512553    0.1492532 -42.59  0.001681856    2.939    0.660
        48  -7.6111    130.4428    223.5222   1.2811806211e+02   1.1910104390e+01    0.1231675    0.1023275  52.30 0.0001858392    1.040    0.039
        49  -8.2159    180.5938    221.2001   1.1843563573e+02   3.8010524804e+00    0.1568461    0.1165719 -23.24 0.0009456843    1.668    0.400
        50  -8.8868    223.5606    200.7650   1.0727671885e+02  -6.7383245904e-01    0.2967261    0.1442335 -22.69  0.001339326    2.653    0.623
        51 -10.1505    227.7203    217.0493   1.0938813778e+02  -3.4957343033e+00     0.550113    0.2779168 -37.36  0.002954589    2.235    0.553
        52 -10.2713    229.9539    208.9086   1.0760999354e+02  -2.8231045402e+00     1.044343    0.3283217 -45.72  0.003424048    6.069    0.835
        53  -8.9768    231.2839    192.5268   1.0441959272e+02  -8.6039975740e-01    0.3792795    0.1901019 -23.91  0.001621879    2.288    0.563
        54  -9.1880    210.9474    216.7682   1.1225813394e+02  -7.1581382326e-01    0.3171856    0.1677681 -22.38  0.001564146    2.518    0.603
        55 -10.3510    192.2088    215.2442   1.1538074011e+02   2.6754636299e+00    0.4289461    0.3042202  42.72  0.002389949    1.237    0.192
        56  -9.3453    210.6877    250.5952   1.1744596185e+02  -4.8368251905e+00    0.2273582    0.1921445  -1.22 0.0007816024    1.276    0.216
        57  -8.3555    179.4295    215.7634   1.1781940945e+02   4.8105005184e+00    0.1622895    0.1193536 -24.18 0.0009520336    1.683    0.406
        58  -9.6712    201.4599    211.8170   1.1313774851e+02   1.5736038384e+00     0.371925    0.3027206 -32.39  0.002397646    1.391    0.281
        59 -10.3500    176.1233    209.8732   1.1751625620e+02   6.2972955381e+00    0.3894502    0.2895725  22.76  0.002277659    1.433    0.302
        60 -11.4183      6.9672    206.4275   1.4946662317e+02   3.1504231926e+01    0.5854788    0.2226358  78.43  0.001944214    2.380    0.580
        61 -11.2190      6.4252    196.9951   1.4907490410e+02   3.3392781003e+01    0.4912539    0.2859172 -66.64  0.002475718    1.794    0.442
        62 -10.2458    172.3177    205.1220   1.1748206670e+02   7.7346597090e+00     0.493547    0.2354688 -31.16  0.002038338    3.301    0.697
        63  -8.8965    224.5961    207.0075   1.0820323727e+02  -1.6905859676e+00    0.2557541    0.1161795 -34.71  0.001244236    2.369    0.578
        64  -8.8321    217.4079    203.3662   1.0882626421e+02   1.8846252817e-02    0.2399725    0.1089982 -22.06 0.0009575554    3.429    0.708
        65  -9.6596    213.6855    200.6463   1.0900868026e+02   1.0448833084e+00    0.4357497    0.1597186 -30.17  0.001675686    3.603    0.722
        66  -9.5100    214.5406    196.2665   1.0806717500e+02   1.5239445845e+00    0.2983806    0.2237786 -29.12   0.00109088    1.408    0.290
        67  -8.1433    165.6879    199.6469   1.1788086509e+02   9.8444515535e+00    0.1320052    0.1008249   7.73 0.0007045015    1.728    0.421
        68  -7.6831    132.7753    213.0099   1.2631687372e+02   1.3329838852e+01    0.1425566    0.1048215 -60.20  0.000339546    1.557    0.358
        69  -9.0279    170.3378    195.9161   1.1634875352e+02   9.6252132672e+00    0.1788803    0.1700152 -13.94  0.001136844    1.169    0.144
        70  -8.0335    208.3101    211.3470   1.1182530620e+02   4.6674692506e-01    0.1294919   0.08763753  10.75 0.0007045101    1.708    0.414
        71  -9.2691    185.1460    193.1840   1.1299418717e+02   7.3372489597e+00    0.3581804    0.1845686 -36.13  0.001278815    2.243    0.554
        72  -8.1186    186.3147    188.3349   1.1189928160e+02   7.9174497600e+00    0.1376328    0.1011835   9.19 0.0003072816    1.689    0.408
        73  -9.7251    230.6183    198.5861   1.0565339508e+02  -1.5728955049e+00    0.3830317    0.3165694  33.65  0.002093317    1.190    0.160
        74  -7.8133    193.6520    186.6664   1.1018095920e+02   6.8108505798e+00    0.1416125   0.09981341  11.01 0.0007048484    1.772    0.436
        75  -9.7985     12.8968    183.6430   1.4708081673e+02   3.5496892450e+01    0.2567777    0.1301188 -84.98   0.00155716    1.578    0.366
        76  -8.5028    183.7623    180.9552   1.1103448457e+02   9.6508106064e+00    0.1736672    0.1161899 -39.78 0.0008805416    1.617    0.382
        77  -7.9805    211.3027    180.3457   1.0566422860e+02   4.5061224628e+00    0.1393195     0.098175   7.10 0.0007039732    1.687    0.407
        78  -9.7432    232.4924    173.9665   1.0061187066e+02   1.5730080123e+00    0.6126634    0.2033562 -27.73  0.002024885    4.175    0.760
        79  -9.2616    227.5501    172.4520   1.0116991616e+02   2.7001959947e+00    0.5803529    0.1235032 -36.88  0.001771102    4.672    0.786
        80  -9.3195    228.9913    165.7644   9.9549726353e+01   3.4482462207e+00    0.3830417    0.1999867 -28.12  0.001757523    1.991    0.498
        81  -8.1219    219.3076    175.3100   1.0321279408e+02   3.7925834245e+00    0.1376833   0.09730807   9.17 0.0004206916    1.617    0.382
        82  -8.6254    215.4037    173.5069   1.0356116642e+02   4.8063233917e+00    0.3233762    0.1280067 -32.05  0.001251507    2.833    0.647
        83  -8.8057    223.2990    172.8051   1.0199444535e+02   3.4335604615e+00    0.2751068    0.1759113 -37.47 0.0009639366    1.609    0.379
        84  -8.1112    192.7691    171.9711   1.0753016101e+02   9.4391298852e+00    0.1796091    0.1156446 -38.32 0.0008773532    1.637    0.389
        85  -8.7516    218.5502    167.1027   1.0168658285e+02   5.2184727780e+00    0.3417909    0.1312712 -33.54  0.001314319    2.752    0.637
        86  -8.5275    191.4253    164.2892   1.0623947162e+02   1.1044870663e+01    0.2749008    0.1375759 -35.65  0.001152191    2.166    0.538
        87  -8.8640    199.3351    163.4867   1.0453113522e+02   9.5913554666e+00    0.2751562    0.1750192 -40.66 0.0008430788    1.632    0.387
        88  -8.7363    221.1669    161.2354   9.9991888178e+01   5.6476846779e+00    0.2461497    0.1769437 -20.00    0.0012941    1.435    0.303
        89  -8.4193    205.0230    160.2554   1.0276632316e+02   9.0006950842e+00    0.2660571    0.1826437 -18.44  0.001293121    1.692    0.409
        90  -9.9037    226.4870    156.0042   9.7933479634e+01   5.4476745057e+00    0.4422953    0.2253794 -23.15  0.001843966    2.368    0.578
        91  -8.4076    197.1149    155.7407   1.0332487522e+02   1.1393750078e+01    0.2797621    0.1868517  -8.62  0.001232665    2.128    0.530
        92  -7.6919    216.0000    154.9503   9.9587963717e+01   7.6870660236e+00    0.2299927   0.07753705 -37.16  0.000803563    2.950    0.661
        93  -8.1223    205.6239    154.1866   1.0135404615e+02   9.9165156570e+00    0.2020719    0.1316112 -26.13 0.0009001478    1.666    0.400
        94  -8.5307    214.9706    148.2336   9.8307818591e+01   9.0164442202e+00    0.3139898    0.1764906 -43.08  0.001360642    1.839    0.456
        95  -8.1357    191.0000    148.0030   1.0284131486e+02   1.4066242355e+01    0.2407618   0.08275796 -40.22 0.0008042846    2.955    0.662
        96  -9.5063    234.3611    145.8202   9.4356882795e+01   5.5233303197e+00    0.3929705    0.2281511 -22.18  0.001810901    1.865    0.464
        97  -9.2658    223.2869    146.0236   9.6320044575e+01   7.6929188697e+00    0.3377097    0.1857859 -31.23  0.001519327    1.806    0.446
        98  -8.2533    125.4966    144.9922   1.1661361577e+02   2.8294017021e+01    0.2001887     0.142076 -53.11 -9.573151e-05    1.413    0.292
        99  -9.3592    214.1105    142.0296   9.7075997812e+01   1.0246399542e+01    0.3351207    0.1986416 -36.49 0.0009587159    1.649    0.394
       100  -7.7740    207.6860    143.6857   9.8641729504e+01   1.1307513593e+01    0.1484167    0.1105259   8.65 0.0003033962    1.640    0.390
       101  -8.9396    229.9364    140.4892   9.3923516511e+01   7.2534033675e+00      0.36697    0.1843583 -34.29  0.001601135    1.896    0.473
       102 -10.9281    249.9478    153.2625   9.3398844404e+01   1.4517407330e+00     1.249441    0.2069493 -37.74  0.003503847    5.359    0.813
       103  -8.4401    224.2429    139.9653   9.4792464293e+01   8.4960587253e+00    0.2097647    0.1734781 -25.79  0.001149747    1.152    0.132
       104  -9.7765    218.4040    137.7194   9.5316047053e+01   1.0081345365e+01    0.3514389    0.2395992 -37.36   0.00165651    1.424    0.298
       105  -9.1878    163.8193    243.8701   1.2459561762e+02   3.3450334474e+00    0.2056983    0.1339126 -19.30  0.001144455    2.631    0.620
       106  -8.3135    225.5238    132.9640   9.2967561149e+01   9.3908991500e+00     0.222718    0.1342023 -33.32  0.000757808    1.584    0.369
       107  -8.5868    233.5610    128.2479   9.0515595039e+01   8.4984757220e+00    0.2015683    0.1295318 -22.24  0.000756825    1.621    0.383
       108  -8.8184    227.4908    124.4547   9.0643511808e+01   1.0390129329e+01    0.3007777    0.1345716 -34.70   0.00119513    2.111    0.526
       109  -9.8412    230.3284    114.7261   8.7852799773e+01   1.1392758571e+01    0.4157338    0.1207401 -36.36  0.001350543    3.112    0.679
       110 -10.2117    234.4326    111.3281   8.6375377156e+01   1.1065886434e+01      0.32265    0.2125283 -77.41  0.001342029    2.657    0.624
       111  -9.0155     11.4974    104.4984   1.4009810906e+02   5.3119529468e+01    0.1207044   0.09310675 -77.40 -0.0002633448    1.030    0.029
       112  -8.4146    236.4831    235.0003   1.1084016493e+02  -6.9587793196e+00    0.2197474    0.1397842 -46.33  0.001290246    2.455    0.593
       113  -9.3975     15.1633     96.5967   1.3789675505e+02   5.4666307607e+01    0.1405161    0.1116249 -19.02 0.0008258118    1.641    0.391
       114  -9.1309    217.9591     89.7617   8.3624664676e+01   1.8332688185e+01     0.276691    0.1763684 -48.71 0.0009662434    1.580    0.367
       115  -8.3554    226.0000     87.9157   8.1886885752e+01   1.6759092670e+01    0.2457223   0.07885072 -33.72 0.0007973158    2.907    0.656
       116  -8.8910     17.0326     85.9897   1.3558819311e+02   5.6939554992e+01    0.1491461    0.1158547 -66.05 0.0007956841    1.008    0.008
       117  -7.7247    218.0000     84.9936   8.2377881003e+01   1.9109169650e+01    0.2467981   0.08079505 -33.82 0.0006348747    2.887    0.654
       118  -8.9579      9.6652     84.0047   1.3765544018e+02   5.7873004008e+01    0.1646407    0.1204214 -65.88 0.0004652081    1.048    0.046
       119  -7.5676     76.6691     83.6970   1.1549055842e+02   5.0824272128e+01    0.1410229    0.1051062 -20.80 0.0006537532    1.653    0.395
       120  -7.8271    230.5087     82.5014   7.9836201997e+01   1.6583564676e+01    0.1457215    0.1336187 -45.31 0.0008106107    1.010    0.010
       121  -8.0478     54.4550     80.5485   1.2191290513e+02   5.4594742821e+01    0.1335145    0.1139886 -50.53 6.412323e-05    1.023    0.022
       122 -12.9432    243.8981    182.9108   1.0043794719e+02  -1.6918462115e+00     2.755264     1.158918 -42.34   0.01202299    2.818    0.645
       123  -8.4725     16.7449     75.9996   1.3384029092e+02   5.9193534902e+01    0.1611174   0.08314177 -64.82 0.0004120246    1.520    0.342
       124  -9.2236      4.4892     75.9761   1.3805271904e+02   5.9954817861e+01    0.1644073    0.0842744  85.85 0.0006964111    2.526    0.604
       125 -12.8212    245.6094    162.1727   9.5979900129e+01   9.3409453449e-01     2.998156    0.6263978 -39.92  0.008991378    4.962    0.798
       126  -7.8197     94.3325    244.2692   1.3685970671e+02   1.4014433365e+01   0.09891794   0.08341636  31.50 0.0002801692    1.588    0.370
       127  -8.9466    224.9960    240.0409   1.1352067889e+02  -5.8040803339e+00     0.368769    0.1556813 -35.44  0.001960683    2.765    0.638
       128  -8.2751    195.1815     67.5613   8.1358044080e+01   2.7562281437e+01    0.3012948    0.1052164 -35.99  0.001003217    2.662    0.624
       129  -9.9918    223.6750     67.1035   7.6842501426e+01   2.0585812944e+01    0.2508925    0.1668337 -50.24  0.001192408    1.463    0.317
       130 -10.2423      7.9175     66.1222   1.3503645946e+02   6.1914843904e+01      0.29318     0.141962 -76.47  0.001520085    2.059    0.514
       131  -8.1436    203.1526     66.1431   7.9652710767e+01   2.5780163165e+01    0.2180989    0.1663858 -56.60  0.001061656    1.335    0.251
       132  -9.0597     30.9325     61.8659   1.2541319758e+02   6.1148035868e+01     0.184392    0.1651101  21.37 0.0006158932    1.344    0.256
       133  -8.9332    217.3263     58.7222   7.5508535872e+01   2.3390700805e+01    0.3291956    0.1693545 -29.27  0.001197156    1.963    0.491
       134  -8.8672     26.0493     59.9211   1.2676560554e+02   6.1980977579e+01    0.1820696    0.1483972 -49.95 0.0003705413    1.021    0.020
       135 -10.0347      5.6533     59.8766   1.3460407515e+02   6.3380885518e+01     0.187778    0.1397768 -34.13  0.001080373    1.361    0.265
       136  -8.9911     32.9905     58.0248   1.2356260006e+02   6.1767391831e+01      0.18546    0.1538862 -46.66 0.0003123309    1.024    0.023
       137  -8.6320     65.1917     57.0136   1.1116746824e+02   5.8127206116e+01     0.333457    0.1739096  21.69  0.001165601    2.802    0.643
       138 -11.1902    230.5982     50.4259   7.1601396950e+01   2.1365046964e+01    0.6879564    0.1939967 -38.32  0.002371258    2.910    0.656
       139  -8.3301     91.1654     53.1995   1.0103870993e+02   5.4509498887e+01    0.1807572    0.1604801 -59.68 0.0003000827    1.299    0.230
       140  -9.1127     48.1288     42.9364   1.1262432478e+02   6.3119503956e+01    0.2801713     0.255567 -34.23  0.001895476    1.151    0.131
       141  -9.9583      6.4971     53.0118   1.3274963769e+02   6.4780962437e+01    0.2626733    0.1144592 -51.81  0.001358437    1.669    0.401
       142 -10.3728      2.6509     54.0218   1.3451479691e+02   6.4773356853e+01    0.4956568    0.1515283 -44.74  0.002331095    2.628    0.620
       143 -10.4403      6.7000     38.5527   1.2890009347e+02   6.7706977374e+01    0.2949854    0.1729746 -14.98    0.0011558    1.989    0.497
       144  -7.9980    149.4884     34.5026   7.9319749349e+01   4.4218077928e+01    0.1454943     0.139306  47.66 -6.012244e-05    1.021    0.021
       145  -8.1359     26.5501     33.9685   1.1844911772e+02   6.7107657978e+01     0.172363   0.09490974 -46.92  2.88861e-05    1.467    0.318
       146 -10.4909      4.2107     26.9205   1.2643807340e+02   7.0086787502e+01    0.3298882    0.2260647  48.03  0.002164886    2.272    0.560
       147 -10.8865      8.4518     31.6208   1.2596300189e+02   6.8944879692e+01       0.2752    0.2701096  -7.50 0.0008819089    1.351    0.260
       148 -11.7054     10.2923     26.8733   1.2345727980e+02   6.9713758666e+01    0.6509151    0.3663253  -6.22  0.003894778    2.154    0.536
       149  -9.2099     54.9302     31.1068   1.0520500869e+02   6.4293980639e+01    0.2168712    0.1749976 -40.46 0.0003706551    1.273    0.215
       150  -7.7372     93.2489     30.3012   9.1455459873e+01   5.7801085107e+01    0.1334789   0.09799238   7.47 -0.0001541599    1.495    0.331
       151  -8.5415     42.0747     27.7014   1.0908543923e+02   6.6555209904e+01    0.1889482    0.1581037 -51.56 0.0003579853    1.460    0.315
       152 -10.5716    228.8155     21.7381   6.4456088799e+01   2.5506532019e+01    0.3521144    0.1536447 -40.73  0.001541918    2.011    0.503
       153  -9.6205    237.4107    243.6903   1.1203237252e+02  -8.0306057599e+00     0.379391    0.1665023 -29.04   0.00211055    2.587    0.614
       154  -8.6669    136.8352     24.9166   7.8441882124e+01   4.8600440100e+01    0.2078985    0.1791947  27.38 0.0002658348    1.179    0.152
       155  -7.3980     68.3295     23.3144   9.6670454115e+01   6.3408056467e+01    0.1340949   0.09027743   5.66  0.000704473    1.676    0.403
       156  -8.3724    155.3189     22.6777   7.4205992430e+01   4.4187859276e+01    0.1495643    0.1053798 -64.99 0.0002278971    1.670    0.401
       157  -8.7011     84.9674     21.7232   9.0334530542e+01   6.0602947053e+01    0.2080082    0.1717315 -47.15 0.0004140253    1.473    0.321
       158  -9.8429    239.5027    239.9753   1.1112297705e+02  -7.9401826478e+00    0.2489329    0.1964271 -15.83   0.00102198    1.365    0.267
       159  -7.5806     59.6816     20.7495   9.8732982845e+01   6.5179753194e+01    0.1238135   0.08581364   6.16 0.0002090546    1.529    0.346
       160  -9.3065     27.6126     18.8387   1.1177267445e+02   6.9641793489e+01    0.1922772    0.1626803  -8.82 0.0004297737    1.154    0.134
       161  -9.0108     23.6462     15.8293   1.1233427090e+02   7.0526836155e+01    0.1762009     0.143376  -5.18 0.0005109662    1.178    0.151
       162  -9.1681      2.8121     15.8957   1.2312974677e+02   7.2167079633e+01    0.1685958    0.1233305 -36.76 0.0005793156    1.004    0.004
       163 -10.1184    176.8197    244.4128   1.2238763462e+02   1.1902337562e+00    0.4188058    0.2456049 -26.41  0.002347164    2.581    0.613
       164  -9.0258    194.0067    243.1751   1.1923769738e+02  -1.3824887608e+00    0.2647333    0.1961277  -0.86  0.001325715    1.625    0.385
       165  -8.9714    157.2148    245.5044   1.2595973296e+02   4.1731771868e+00       0.1976    0.1400201   8.69 0.0009810558    2.174    0.540
       166 -10.9354    248.5877    235.3211   1.0892342053e+02  -8.7542921662e+00    0.9505146    0.3045601 -32.26  0.004542167    3.382    0.704
       167  -7.5883     92.2577     15.6993   8.5482476000e+01   5.9880020296e+01    0.1201321    0.1011563 -52.85 0.0002121237    1.507    0.337
       168  -7.9417     45.9440     13.9543   1.0107842821e+02   6.8168714786e+01    0.1446458    0.1132436 -15.93 0.0009550694    1.057    0.054
       169  -9.3781    218.3384    246.6963   1.1561550728e+02  -5.5493925853e+00    0.3513004    0.2033786 -39.12  0.002198043    2.194    0.544
       170  -8.4423    201.9391    240.3529   1.1747149066e+02  -2.2839811996e+00    0.2200189     0.145066  -9.60  0.001325933    1.999    0.500
       171  -7.8040     80.5108     12.9906   8.7779167187e+01   6.2536078750e+01    0.1811303    0.0969986 -46.61 0.0008102481    2.628    0.620
       172 -10.7178    240.1726    207.9021   1.0570041644e+02  -4.3425061467e+00    0.7290851    0.5052822 -59.14  0.003820922    2.974    0.664
       173  -8.5886    219.5597    239.2189   1.1430656231e+02  -4.8856689446e+00    0.1834016    0.1100458 -37.04  0.001132017    2.022    0.505
       174  -7.9917    105.3681    240.2840   1.3455630022e+02   1.3050464237e+01    0.1052784   0.08622336  24.60 0.0007017793    1.696    0.410
       175  -8.4419     17.7588    248.3477   1.4966369408e+02   2.2879384588e+01    0.1217325   0.07935524  43.70 0.0008398754    1.614    0.380
       176  -7.9144    148.7341    237.6586   1.2650349116e+02   6.6743431159e+00    0.1086123   0.08791874  13.46  0.000334564    1.600    0.375
       177  -8.8865    207.7221    231.8526   1.1521256385e+02  -2.1455748444e+00    0.2411731    0.1590815   4.68 0.0009545385    1.870    0.465
       178 -10.4295    189.1981    233.3855   1.1868657163e+02   6.5572197982e-01    0.4008141    0.2861708 -24.31  0.002513577    1.727    0.421
       179  -8.7803    223.2688    226.1054   1.1163800735e+02  -3.9060673564e+00    0.2443798    0.1571402 -19.55  0.001489637    1.730    0.422
       180 -12.6071    247.2616    206.0412   1.0419202674e+02  -5.2301530542e+00     2.140236    0.9112624 -25.62   0.01023924    2.568    0.611
       181  -9.4299    199.1448    225.9511   1.1581276865e+02   1.5019980313e-02    0.3416345    0.1875497 -37.26   0.00189531    2.142    0.533
       182  -8.5936    201.5290    219.9811   1.1445288809e+02   4.2501179904e-01    0.2259177    0.1147692 -27.59  0.001104116    2.576    0.612
       183  -9.2083      1.4227    230.1061   1.5143442539e+02   2.7651820046e+01    0.1943562   0.08877676 -73.15 0.0007455094    2.080    0.519
       184  -9.8636      3.4825    226.9944   1.5098331522e+02   2.8011603217e+01    0.3932469   0.07399955  49.94  0.001968334    3.072    0.674
       185  -7.8644    179.4445    230.5099   1.2001279334e+02   2.6580636472e+00     0.122254   0.09925937  33.66 0.0001592097    1.055    0.052
       186  -8.7834    235.7292    226.0614   1.0953122139e+02  -5.8337660482e+00    0.2024841    0.1377412  -2.04 0.0008380493    1.504    0.335
       187  -8.8931    229.0000    225.8149   1.1061894507e+02  -4.7684019640e+00    0.2803805   0.06478975 -35.78  0.001041116    4.842    0.793
