#   1 NUMBER                 Running object number                                     
#   2 MAG_AUTO               Kron-like elliptical aperture magnitude                    [mag]
#   3 X_IMAGE                Object position along x                                    [pixel]
#   4 Y_IMAGE                Object position along y                                    [pixel]
#   5 X_WORLD                Barycenter position along world x axis                     [deg]
#   6 Y_WORLD                Barycenter position along world y axis                     [deg]
#   7 A_WORLD                Profile RMS along major axis (world units)                 [deg]
#   8 B_WORLD                Profile RMS along minor axis (world units)                 [deg]
#   9 THETA_WORLD            Position angle (CCW/world-x)                               [deg]
#  10 FWHM_WORLD             FWHM assuming a gaussian core                              [deg]
#  11 ELONGATION             A_IMAGE/B_IMAGE                                           
#  12 ELLIPTICITY            1 - B_IMAGE/A_IMAGE                                       
         1  -8.7009     39.7048      1.5871   8.9573391989e+01   7.0335210926e+01    0.2479289    0.1567389  28.86   0.00110797    1.754    0.430
         2  -9.4056     39.5053      7.1589   9.2544207028e+01   6.9481626826e+01    0.3540915    0.3139515  -4.22  0.002233903    1.190    0.160
         3 -10.7921     39.1745     29.5715   1.0228127616e+02   6.5501778983e+01    0.7883524    0.3169972 -53.56  0.003212022    2.181    0.542
         4  -9.6780     66.6645     29.9447   9.1602854106e+01   6.1872611084e+01    0.7890903    0.2283089 -39.72   0.00283059    3.159    0.683
         5 -12.0095     43.5862     20.7210   9.6940769939e+01   6.6660293419e+01     1.192498    0.9263402 -72.12  0.006705372    1.888    0.470
         6 -11.7525    128.6496     14.7095   6.6839676806e+01   5.1593118201e+01     1.384027    0.8880476 -29.93  0.006626098    1.539    0.350
         7 -11.1506    131.5523      3.3075   6.1514216581e+01   5.2107752330e+01     1.311025    0.4688893  64.26  0.004717661    2.790    0.642
         8 -11.6586     77.7748     15.3221   8.1240652589e+01   6.2421033736e+01     1.874327    0.5614436 -31.25  0.006594815    3.302    0.697
         9 -11.7671     84.2115      4.0163   7.3656608027e+01   6.2728413881e+01     1.366748     0.490964  49.40  0.005575418    2.724    0.633
        10 -10.6131     71.6009      5.5142   7.8611354431e+01   6.4899972164e+01    0.5473735    0.4556717  23.13  0.002456609    1.188    0.158
        11 -13.8595    166.7677     11.6050   5.8564792548e+01   4.2124126584e+01     3.631293     2.132056  65.64   0.01616163    1.662    0.398
        12 -11.6549    110.0230      4.4389   6.6723367979e+01   5.7162900301e+01     1.622741    0.7747322  45.58  0.006898111    1.976    0.494
        13 -10.0514    111.8356     15.7961   7.1302899547e+01   5.5413634347e+01    0.5629209    0.2893001  39.36  0.002419065    2.023    0.506
        14 -10.4788    116.5833     18.8247   7.1388388562e+01   5.3941184957e+01    0.7709232    0.3308735 -42.02  0.002939586    2.602    0.616
        15  -9.5168    117.0429     14.2877   6.9352579415e+01   5.4408899758e+01    0.3608843    0.2940366 -25.44  0.001385937    1.209    0.173
        16  -9.7140     94.1881     17.6982   7.7054896023e+01   5.8941725023e+01    0.4496216    0.3955103 -47.08  0.001987004    1.318    0.241
        17 -10.3823    248.7272     14.6121   4.9936591511e+01   2.0583176870e+01    0.4134721    0.3216472   0.91  0.002304713    1.441    0.306
        18  -9.5301     64.6043     16.6721   8.6623434748e+01   6.4436996016e+01    0.3489287    0.2320545 -50.30  0.001665815    1.775    0.437
        19  -8.6253     20.6257     13.4166   1.0444203405e+02   7.0329956182e+01    0.4576046    0.1481911 -44.22   0.00214012    2.352    0.575
        20  -9.4445     69.5130     13.5227   8.3314339963e+01   6.4125021051e+01    0.3847763    0.3322212  70.26  0.002351601    1.680    0.405
        21  -8.2311     64.5906     10.7756   8.3818499175e+01   6.5347841650e+01    0.1928136    0.1525902 -17.26  0.001183379    1.090    0.083
        22 -10.7531    121.1494      3.7591   6.3858275688e+01   5.4617118251e+01    0.7113046    0.4946752  62.44  0.002921789    1.484    0.326
        23  -8.7503     54.2766      7.2949   8.6161366758e+01   6.7466445669e+01    0.3667306    0.2690607  85.97  0.001740773    3.561    0.719
        24 -10.4908     60.2610      2.9948   8.1522156539e+01   6.7160548103e+01    0.8096648    0.4910362 -22.95  0.004080541    1.480    0.324
        25  -9.2064     52.0181      2.3116   8.4501462144e+01   6.8531574831e+01    0.6354152    0.3046296 -16.02  0.002662525    3.030    0.670
        26  -9.8250    249.8016      4.8115   4.7291618861e+01   2.1284240500e+01    0.5909145    0.2292282 -25.45  0.002468755    2.304    0.566
        27 -10.1751    244.2454      2.3036   4.7068406357e+01   2.2844990224e+01    0.3112077     0.290652 -52.09  0.001956029    1.017    0.017
        28 -10.7760    200.2973      8.0000   5.2875190997e+01   3.3507708540e+01    0.6046104    0.1968925  61.90  0.002146831    2.690    0.628
        29  -9.2571    203.9865      3.9267   5.1205177209e+01   3.2915650622e+01    0.3021213    0.2009347 -33.98  0.001481464    1.469    0.319
        30  -9.6227    213.8089      4.9651   5.0504245344e+01   3.0241901921e+01    0.2608701    0.2063769  79.76  0.001401187    1.265    0.210
        31 -11.2844    155.4317     20.5915   6.3739993261e+01   4.4120128284e+01     1.080584    0.4289689  56.99  0.003822127    2.306    0.566
        32  -8.6605     26.1873      2.5433   9.6690624963e+01   7.1732520202e+01    0.2309976    0.1783887 -30.70  0.001622994    1.023    0.022
        33  -8.9627     16.9093      1.7286   1.0116542183e+02   7.2739659841e+01    0.1999981    0.1467777  29.44  0.001404356    1.720    0.419
        34  -9.0203     97.4788     28.1568   8.0568585885e+01   5.6721544021e+01    0.4977125    0.2406016 -23.15  0.001983792    2.423    0.587
        35  -9.3532    227.6814     78.8433   6.9757066178e+01   1.7896527737e+01    0.4517503    0.2936474  14.97  0.002020283    1.934    0.483
        36  -9.1601     45.2781     62.4231   1.0984952719e+02   5.8092873390e+01    0.3349683    0.2774868   9.58  0.002185446    1.514    0.339
        37  -8.7523     70.0076     61.5088   1.0132013024e+02   5.5219498064e+01    0.2161234    0.1610697 -50.80 0.0009166974    1.182    0.154
        38  -8.9377     49.7489     62.0048   1.0822051453e+02   5.7694425071e+01    0.3391497    0.2024478 -53.68  0.001676474    1.395    0.283
        39  -8.6553     93.3435     56.8645   9.2500379781e+01   5.2411183658e+01    0.2885668    0.2271894  83.78  0.001491115    1.777    0.437
        40 -10.9737      4.1165     76.3230   1.2588058760e+02   5.8331982751e+01    0.8431357    0.4553358 -49.65  0.005242724    1.804    0.446
        41  -9.2125    199.0128     54.9845   6.7572376806e+01   2.8233378842e+01    0.3018868    0.2534178  15.98 0.0005164326    1.269    0.212
        42  -9.0698     66.1426     53.3657   1.0015157917e+02   5.7443845808e+01    0.4105253    0.1733071 -56.59  0.001687608    2.471    0.595
        43  -7.9849     35.1007     52.5168   1.1094717008e+02   6.1224049631e+01    0.1540712    0.1228543  21.09  0.000901825    1.547    0.353
        44  -7.8325     23.2128     52.3928   1.1529193719e+02   6.2255981415e+01    0.1473005    0.1055166  43.42 0.0009552373    1.725    0.420
        45 -10.1595     83.4159     47.2665   9.2354321934e+01   5.5985671574e+01    0.6093728    0.5173734  85.65  0.003425206    1.569    0.363
        46  -9.7566     81.7137     37.9756   8.9504476159e+01   5.7997882411e+01    0.5038886    0.4328038 -32.26  0.003013438    1.046    0.044
        47  -8.7227    111.3429     45.8387   8.3414371998e+01   5.0955430168e+01    0.2927902    0.2299771 -20.14  0.001520925    1.295    0.228
        48 -10.3346      3.7408     40.4982   1.2015363763e+02   6.6011082261e+01    0.4419229     0.340366  67.69  0.003148348    1.601    0.375
        49 -10.0314    162.4279    242.5367   1.1193667491e+02   7.9485946006e+00    0.2889488    0.1926649  87.37  0.001810382    2.848    0.649
        50 -10.3872    172.8214    242.2634   1.1027885424e+02   6.4348655312e+00     0.268691    0.1272454  51.89  0.001408877    1.908    0.476
        51 -10.2284     51.3254     36.3377   9.9843601248e+01   6.2790204860e+01    0.6646007    0.4510223 -72.21  0.003511604    2.120    0.528
        52  -9.7246    205.4142    224.7955   1.0296096063e+02   3.3150881279e+00    0.1697963    0.1052399 -33.58  0.001132819    2.060    0.515
        53  -8.8749     69.6825     36.3369   9.3020223037e+01   6.0250072405e+01    0.3056767    0.2381119 -36.79   0.00180139    1.122    0.109
        54  -9.8650    124.0017    206.0014   1.1430815803e+02   1.8594785084e+01    0.1610461    0.1270495  54.39            0    1.004    0.004
        55  -8.8788     27.6720     35.4410   1.0904431371e+02   6.5440870086e+01    0.2353146    0.1858997 -47.94  0.001110964    1.021    0.021
        56  -9.4551     10.8128     34.4864   1.1584061584e+02   6.6870017326e+01    0.5308792    0.3650721 -15.85  0.003358515    1.775    0.437
        57  -9.1049    238.6451    202.6092   9.4391820042e+01   3.0993216950e-01    0.1955428    0.1385432 -21.01  0.001338693    1.564    0.361
        58  -9.9924     86.7309     31.3215   8.5226697186e+01   5.8268877591e+01    0.3521014    0.2859485 -35.11  0.002021547    1.148    0.129
        59 -11.8409     11.0449    141.1220   1.3018644015e+02   4.4256317239e+01    0.6077913    0.3952254  84.80  0.004406211    1.181    0.153
        60 -12.6221    241.1060    132.8814   8.0728062647e+01   7.7940998330e+00     1.436499     1.054077  43.74  0.005577332    1.351    0.260
        61  -9.3601     40.7547    142.2403   1.2384124709e+02   4.1326441368e+01    0.2507091     0.161254  71.72  0.001614746    1.403    0.287
        62 -10.9682     12.0811    128.7907   1.2904209477e+02   4.6673822659e+01    0.4853326    0.2024802 -89.93  0.002594809    2.189    0.543
        63  -7.9282     22.2954    125.3358   1.2638721157e+02   4.6565310318e+01    0.1075855   0.07281904 -54.64 0.0007028857    1.647    0.393
        64  -9.9455     12.8388    119.7382   1.2810848872e+02   4.8492050897e+01    0.2345721    0.1225821 -88.98  0.001419541    1.607    0.378
        65  -8.5657    125.1136     28.6521   7.3270841419e+01   5.0620168505e+01     0.297177    0.2132407 -15.76  0.001450449    1.433    0.302
        66  -7.9180     62.5963     29.1691   9.2801565649e+01   6.2617824520e+01    0.1936768    0.1057591 -34.10 0.0009504583    1.703    0.413
        67  -8.8223     18.4297    118.9883   1.2670014444e+02   4.8215628848e+01    0.1749423    0.1355264 -46.76  0.001251549    1.629    0.386
        68  -9.0027    104.8405     26.0190   7.7534631825e+01   5.5530763140e+01    0.3815334    0.3074415  57.34  0.002077117    1.401    0.286
        69  -8.4866    107.4803     21.7110   7.4990624675e+01   5.5587058954e+01    0.4485224    0.1701454  40.77  0.001606671    2.956    0.662
        70  -8.1980     10.3208     26.2813   1.1380151995e+02   6.8574812405e+01     0.185605    0.1282177 -15.78  0.001254437    1.702    0.412
        71  -8.6299     21.0605     22.9280   1.0782813590e+02   6.8482705969e+01    0.2830555    0.1868176  38.00  0.001811606    1.972    0.493
        72  -7.6199    192.5396    116.5544   8.5456486190e+01   2.0306840154e+01     0.142243    0.1350831  25.70 7.789736e-05    1.035    0.034
        73  -8.8049     14.5058    114.0695   1.2718433260e+02   4.9558048961e+01     0.172459    0.0870274 -77.08 0.0009372514    1.561    0.359
        74  -9.5336     17.1292    104.1551   1.2549739262e+02   5.1473234041e+01    0.3435948    0.2159079  75.10   0.00220965    1.523    0.343
        75  -8.1348     11.0904     21.8210   1.1208156665e+02   6.9417688540e+01    0.2258803    0.1470059  -3.20  0.001477378    1.931    0.482
        76  -7.8771     67.9870    106.0000   1.1220692414e+02   4.5876381770e+01    0.1959627   0.07221027  36.08 0.0008083631    2.984    0.665
        77  -9.0271     30.4776    101.6035   1.2162982357e+02   5.0933909420e+01    0.2580948    0.2059812  67.82  0.001807135    1.260    0.206
        78  -8.0550     63.6258     98.2007   1.1194712872e+02   4.8141557118e+01    0.1904541    0.1005027 -53.16 0.0009506647    1.735    0.424
        79  99.0000     13.0310     15.5369   1.0900022402e+02   7.0513239220e+01    0.5103031     0.229994  25.26  0.002878422    2.709    0.631
        80  -8.6505     56.9591     98.0000   1.1376535731e+02   4.8999912129e+01     0.185551   0.07170505  33.82 0.0007044797    2.946    0.661
        81  -9.2611     19.8886     88.9779   1.2287233765e+02   5.4552379414e+01    0.2462829    0.1423717 -80.28  0.001376496    1.463    0.317
        82  -8.9338      2.2313     88.7885   1.2786905031e+02   5.5760707496e+01    0.3223075    0.1542405 -88.51  0.001713224    1.835    0.455
        83  -8.6069    225.3174     14.3092   5.2056494588e+01   2.6367731363e+01    0.1454311     0.102297  32.81 0.0007032134    1.637    0.389
        84 -11.6484     43.3067     82.0339   1.1476780602e+02   5.4017334095e+01    0.9410472    0.7984763 -25.01  0.006301823    1.467    0.318
        85 -10.3335     24.5662     65.8966   1.1765443562e+02   5.9237220084e+01     1.006505    0.2620801 -51.95  0.004190805    2.992    0.666
        86 -10.9731     14.3843     76.2671   1.2271089921e+02   5.7712973714e+01    0.7715093    0.3378013 -51.62  0.004181654    2.052    0.513
        87  -9.8215     11.7642     71.4277   1.2281044196e+02   5.8935162214e+01    0.3111352    0.2719256 -54.49  0.001921801    1.237    0.192
        88  -8.7545     78.6923     78.5705   1.0325518855e+02   5.0342959611e+01    0.3690984    0.2058749  59.40  0.001624379    2.552    0.608
        89  -7.6057     71.2942     79.6404   1.0573463465e+02   5.1179605893e+01    0.1342754   0.09799209  89.83 0.0007031088    1.700    0.412
        90  -8.2110    136.5852     77.1536   8.7065700261e+01   3.9818484653e+01     0.337009    0.1830636  65.91  0.001231196    2.785    0.641
        91  -9.0725     82.9292     69.4136   9.9518179567e+01   5.1627403917e+01    0.2861967    0.2280758  35.28  0.001562165    1.402    0.287
        92 -10.3471    225.0238     28.7146   5.6204881434e+01   2.4897709303e+01    0.5528022    0.4604929  13.19  0.001739444    1.315    0.240
        93  -9.4437     74.1137     68.7103   1.0204611831e+02   5.3116388536e+01    0.3730354    0.2846958 -57.89  0.002135595    1.207    0.172
        94  -8.1662     77.4993     65.5059   1.0008083655e+02   5.3284114455e+01    0.2137434    0.1142644 -42.17 0.0009868174    1.789    0.441
        95  -7.9374    101.3849     83.7931   9.8108154388e+01   4.5525502008e+01    0.2090669    0.1239339 -40.66  0.000959743    1.716    0.417
        96  -8.2578     33.1139     68.7278   1.1536656558e+02   5.7907509780e+01     0.196347     0.158814  13.27  0.001318734    1.599    0.375
