#   1 NUMBER                 Running object number                                     
#   2 MAG_AUTO               Kron-like elliptical aperture magnitude                    [mag]
#   3 X_IMAGE                Object position along x                                    [pixel]
#   4 Y_IMAGE                Object position along y                                    [pixel]
#   5 X_WORLD                Barycenter position along world x axis                     [deg]
#   6 Y_WORLD                Barycenter position along world y axis                     [deg]
#   7 A_WORLD                Profile RMS along major axis (world units)                 [deg]
#   8 B_WORLD                Profile RMS along minor axis (world units)                 [deg]
#   9 THETA_WORLD            Position angle (CCW/world-x)                               [deg]
#  10 FWHM_WORLD             FWHM assuming a gaussian core                              [deg]
#  11 ELONGATION             A_IMAGE/B_IMAGE                                           
#  12 ELLIPTICITY            1 - B_IMAGE/A_IMAGE                                       
         1 -16.8217     12.1153    122.1299   1.2050710269e+02   4.8375614966e+01     3.349486     1.084071 -72.97   0.01224927    2.459    0.593
         2 -13.1142    214.1593     24.5750   4.3476124928e+01   2.8643909921e+01     1.223381    0.7074062  21.63  0.004275195    3.612    0.723
         3 -14.5273    184.9942     15.5689   4.4479210035e+01   3.6936843123e+01     3.679146     2.742165  -8.31   0.01973291    1.679    0.404
         4 -13.7683    163.6764      6.1744   4.4496365373e+01   4.3297575165e+01     1.374759    0.7375377 -85.12    0.0057401    2.387    0.581
         5 -14.4340    190.1920     57.2084   5.5611209238e+01   3.0155390775e+01     2.569308     1.640351  31.41  0.009857149    2.125    0.529
         6 -14.5989    185.0944     40.4187   5.1615949807e+01   3.3883636120e+01     1.388217     1.231688  69.06  0.005538517    1.087    0.080
         7 -13.6759     54.6607     44.2391   8.7933246156e+01   6.1711073223e+01      1.27577    0.7628173 -48.24  0.004373557    1.684    0.406
         8 -14.3240      6.4790      5.6801   9.4824386589e+01   7.3215777796e+01      1.48148     1.066655   5.78  0.008074655    1.382    0.277
         9 -14.6827      4.1672     42.9356   1.0942583636e+02   6.6577183973e+01     1.734542    0.4623225 -61.54   0.00661355    2.940    0.660
        10 -14.7718     17.7041     34.4394   1.0058681271e+02   6.7406461552e+01      1.71179     1.103477 -17.04  0.007950594    1.524    0.344
        11 -13.9001    124.5077      8.7688   5.1922797558e+01   5.2813911816e+01     1.024117    0.8138784  55.11   0.00310299    1.126    0.112
        12 -14.0495    171.8472     33.6747   5.1724281791e+01   3.8167203365e+01     1.096377    0.9808463 -88.53   0.00448207    1.107    0.096
        13 -12.0957    134.7836      9.2626   5.0120584409e+01   5.0267585304e+01    0.9920346    0.5320183  -6.16  0.004394282    2.435    0.589
        14 -12.8042    223.0881     14.8636   4.0155627634e+01   2.7636807326e+01    0.6974311    0.5762515 -69.24   0.00277804    1.059    0.055
        15 -11.2101    110.7059      1.9801   5.2188628507e+01   5.6660062309e+01    0.4635733    0.2371217  66.39  0.001859121    1.972    0.493
        16 -11.0729    102.8454      1.4171   5.3739261569e+01   5.8493006270e+01    0.9564625   0.08147866  55.42  0.002783926    4.792    0.791
        17 -14.8799    129.3282     31.5320   5.9271018348e+01   4.9129711565e+01     1.834629     1.113935 -36.24   0.00568421    1.728    0.421
        18 -11.4657    196.5367    178.1682   8.4426862997e+01   6.7228446927e+00    0.3910822    0.2678953   9.98   0.00187054    1.806    0.446
        19 -11.6118    226.0625    248.0033   9.1125646050e+01  -8.3005954879e+00    0.4674222    0.2773323   9.54  0.001983168    1.775    0.437
        20 -16.6732    139.5865    241.5955   1.0615715740e+02   5.9615290468e+00     8.425508     2.012965  45.11   0.03061379    3.492    0.714
        21 -13.4933    110.4726    228.0058   1.1017741095e+02   1.2859795820e+01    0.6807726    0.5535483 -50.43  0.002533192    1.534    0.348
        22 -14.5887     90.3120    233.0401   1.1462177901e+02   1.4969809820e+01     3.092126     1.231685 -64.87   0.01497291    2.819    0.645
        23 -14.8217     87.4237    178.2199   1.0878474152e+02   2.6576912359e+01     2.053491     1.235168 -82.01  0.009827275    1.917    0.478
        24 -15.5791    113.1461    202.6569   1.0644157299e+02   1.7266513812e+01      1.78551     1.344226  69.46  0.007619058    1.351    0.260
        25 -15.8208    121.1613    181.2087   1.0143586393e+02   2.0348624605e+01     2.337573       1.4689 -58.58  0.008094367    1.687    0.407
        26 -16.5084     62.4431    240.3226   1.2040748367e+02   1.7459230863e+01     1.961521    0.8422246  61.45  0.009489783    2.216    0.549
        27 -16.5284     63.5915    223.1840   1.1881582222e+02   2.0508672382e+01     1.748367    0.9588619 -87.31   0.00984824    1.908    0.476
        28 -13.8147     10.1883    206.4872   1.2765463536e+02   2.9835340894e+01    0.9422942    0.6213173  24.72  0.006298484    2.160    0.537
        29 -14.9896     20.2505    227.6202   1.2701563553e+02   2.4725551501e+01     0.813851    0.3644901 -78.60  0.003447192    1.991    0.498
        30 -16.7530     10.3185    236.6003   1.2912261090e+02   2.4069372244e+01     2.068777    0.8951408 -88.50   0.01099801    1.995    0.499
        31 -14.5495      2.0861    228.1871   1.3010628051e+02   2.6400780953e+01    0.7945222    0.1772194 -79.22  0.003577717    3.812    0.738
        32 -10.2731     49.0290    177.3878   1.1748228649e+02   3.1970581771e+01    0.2776083    0.1904919 -43.86  0.001169245    1.965    0.491
        33 -10.8773     68.2768    175.2370   1.1283726725e+02   3.0013122062e+01    0.2722645    0.2270359 -40.64 0.0007152823    1.552    0.356
        34  -8.9736     56.4913    176.4253   1.1569006525e+02   3.1279728951e+01    0.1270871     0.109328  84.77 0.0001527788    1.051    0.049
        35 -11.5975     94.0031    166.8471   1.0551967034e+02   2.8133858434e+01    0.5293243    0.4034749 -59.90  0.002436514    1.308    0.235
        36 -12.5622     90.1006     96.8014   9.2043901484e+01   4.5343931430e+01      1.36674    0.5895452 -41.83  0.005078442    2.377    0.579
        37 -11.4353     86.9982    142.5283   1.0314290615e+02   3.4976393807e+01    0.2662845     0.250176 -31.78 0.0004010862    1.228    0.186
        38 -14.3597     97.1180    116.0005   9.4774264095e+01   3.9655088461e+01     1.504805     1.121561  71.60  0.005033585    1.686    0.407
        39 -14.7586     97.4456    145.8987   1.0101596763e+02   3.2474256089e+01     1.949314     1.021128 -59.69  0.006075171    1.881    0.468
        40 -10.3401     77.7805    165.3482   1.0923705933e+02   3.0957440646e+01     0.229457    0.1904241 -63.31 0.0003436009    1.208    0.172
        41 -12.4556    169.8503    158.3589   8.5965334176e+01   1.5748141431e+01    0.8678839    0.5558448 -44.33  0.002781211    1.608    0.378
        42 -13.8529    157.7395    150.1899   8.6935517370e+01   1.9936929819e+01     1.418444    0.9145738 -53.85  0.004143708    1.692    0.409
        43 -12.5632     97.5265    128.3554   9.7449259969e+01   3.6645059053e+01    0.5560542    0.4364201 -55.01  0.001499536    1.214    0.176
        44 -12.5329     65.0734    161.5325   1.1180221463e+02   3.3614934021e+01    0.4525951    0.2609122 -46.48   0.00147526    2.064    0.515
        45 -11.3486     85.2762    159.2282   1.0645381091e+02   3.1272137170e+01    0.5494379    0.4331599 -47.16  0.001790829    1.407    0.289
        46 -10.7247     35.4847    157.9802   1.1854514664e+02   3.7926424782e+01    0.3092617    0.2026429 -85.55  0.001350092    1.324    0.245
        47 -13.1298     31.9785    150.5668   1.1858191527e+02   4.0011612439e+01    0.8013867    0.4986022  48.63  0.003807623    1.642    0.391
        48 -11.5336     17.6652    151.0797   1.2209914693e+02   4.1191882399e+01    0.4163797    0.2197246  34.45  0.002185297    2.095    0.523
        49 -12.8827     62.9748    129.0299   1.0728972714e+02   4.1696630006e+01     1.163785    0.9055053 -39.54  0.004748241    1.437    0.304
        50 -12.3671     68.0067    143.4286   1.0835346047e+02   3.7538631954e+01    0.9151857    0.5613044  71.48  0.003056317    2.025    0.506
        51 -11.1092     71.3023    136.3225   1.0626340137e+02   3.8804870743e+01    0.4862745    0.3089859 -42.42  0.002002455    1.782    0.439
        52 -14.3052     40.2299    114.2077   1.1132793255e+02   4.7900044124e+01     1.820317     1.275259 -75.99   0.01029197    1.303    0.232
        53 -14.9090      6.7805     85.2470   1.1713646744e+02   5.7274805130e+01      1.66014    0.9320687  19.42  0.007709655    2.238    0.553
        54 -10.7680    233.5999    244.0314   8.9197284632e+01  -8.9115022143e+00     0.254144    0.2268214 -12.11  0.001923263    1.426    0.299
        55 -16.1706     24.1991    125.3655   1.1759042515e+02   4.6687652793e+01     2.003482    0.9288015 -82.90  0.007479305    2.180    0.541
        56 -12.6730    236.3821    138.9646   6.8474472551e+01   5.7917033896e+00    0.8603338    0.5236543 -26.16   0.00411526    1.607    0.378
        57 -13.4518    245.6501    135.4993   6.6155938654e+01   4.5982978418e+00     1.331164    0.9207483  -8.19  0.006632182    1.656    0.396
        58 -10.1759    106.6742    131.1881   9.5559833338e+01   3.4355277086e+01    0.4190767    0.2171286  49.31  0.001677789    2.084    0.520
        59 -11.4363    222.1446    120.1783   6.6578015119e+01   1.1898208248e+01    0.5328184    0.3367334 -46.41   0.00211346    1.600    0.375
        60 -13.4512    234.0191    112.5726   6.2761901600e+01   1.0709732069e+01     1.136317    0.6929286 -23.09   0.00474729    1.777    0.437
        61 -12.4740    226.4793    113.4479   6.4215625640e+01   1.2148659133e+01    0.8882729    0.5249821 -35.22  0.002990229    1.561    0.359
        62  -8.9496    205.6514    110.2996   6.7134009188e+01   1.7295657383e+01     0.153762    0.1190687 -74.85 0.0006354631    1.686    0.407
        63 -14.3927     54.9552     87.3217   1.0105196692e+02   5.2658303103e+01     1.586983    0.7409001 -48.63  0.004846388    1.844    0.458
        64 -11.5149     64.4365     71.3156   9.3336367513e+01   5.4987616142e+01     0.768402    0.3502229 -57.10  0.003114894    2.407    0.585
        65 -11.6153    250.1758     90.2166   5.5093067039e+01   1.1013311430e+01    0.5288041    0.2454638 -33.20  0.001813518    1.950    0.487
        66 -12.0868    247.0920     84.2337   5.4107804987e+01   1.2591644910e+01    0.5058882    0.4037467  89.21  0.002829314    1.478    0.323
        67  -9.8501    138.3141     89.0004   7.6056971107e+01   3.7269612002e+01    0.2957916    0.2244353  20.18  0.001328529    1.611    0.379
        68 -11.2557    249.7712     73.4912   5.1245205357e+01   1.3680418796e+01    0.4145613    0.2196443 -43.14  0.001959397    1.643    0.391
        69 -15.7701     26.6848    179.7239   1.2258837846e+02   3.3882920421e+01     2.477343     1.020049  72.01   0.01091077    2.877    0.652
        70 -11.5269    187.7370    224.0360   9.4400310488e+01   7.9623815110e-01    0.3200175    0.2170683   3.89  0.001738305    1.848    0.459
        71 -10.7244     27.1832    213.9026   1.2497178727e+02   2.6655660571e+01    0.2985947    0.1468402  75.50  0.001034405    1.839    0.456
        72 -11.3403    211.2816    207.2526   8.7054589842e+01  -6.3470747464e-01    0.3131256    0.2084896 -20.35  0.001478207    1.608    0.378
        73 -13.5048    206.7733    196.7365   8.5994293215e+01   1.7546791166e+00     1.117496    0.6732711  42.83  0.005159035    1.612    0.380
        74 -10.2206     66.7085     61.1610   8.9289461725e+01   5.6766804631e+01    0.3024549    0.2110752 -33.48  0.001017583    1.320    0.242
        75 -13.0972    226.8709    183.1664   7.9579174505e+01   3.6901582869e-01     1.050644     0.645059 -31.52  0.003868534    1.588    0.370
        76 -11.7273     46.6711     31.1191   8.6079523273e+01   6.5059501108e+01    0.3776475      0.30884  32.64  0.001647766    1.448    0.309
        77 -12.6881    215.4055    193.0638   8.3649719102e+01   8.2374593310e-01    0.5406995    0.4468758 -34.59  0.002144757    1.328    0.247
        78 -13.7831    216.3346    184.9917   8.1908765855e+01   1.9347020859e+00     1.123817    0.8843734 -49.26  0.004689352    1.594    0.372
        79 -11.2702    168.5174    199.1469   9.4118016446e+01   8.2219561790e+00    0.3418433    0.2984778 -45.36  0.002039346    1.288    0.223
        80 -11.2221    175.0290    195.1383   9.2062107852e+01   7.7457412851e+00    0.5714638    0.3376662 -11.67  0.002202629    3.324    0.699
        81 -12.4565    192.8531    188.7376   8.7233488958e+01   5.5783687008e+00    0.7697868    0.4609002 -29.21  0.003684208    1.873    0.466
        82 -10.4028      1.8943    191.5739   1.2838383340e+02   3.3617156856e+01    0.1872333    0.1196067 -79.07  0.000642362    1.331    0.248
        83 -12.9685    162.5309    182.6122   9.2424243553e+01   1.2404776760e+01      1.05702    0.6649863 -17.73  0.003482884    2.572    0.611
        84 -10.9469      7.3632    187.1779   1.2707345052e+02   3.4070355771e+01     0.268089    0.1669448 -84.67 0.0005875755    1.275    0.216
        85 -10.9577     63.4380    181.7651   1.1472931336e+02   2.9186006777e+01    0.4547391    0.3051603 -76.36  0.002589363    1.382    0.276
