#   1 NUMBER                 Running object number                                     
#   2 MAG_AUTO               Kron-like elliptical aperture magnitude                    [mag]
#   3 X_IMAGE                Object position along x                                    [pixel]
#   4 Y_IMAGE                Object position along y                                    [pixel]
#   5 X_WORLD                Barycenter position along world x axis                     [deg]
#   6 Y_WORLD                Barycenter position along world y axis                     [deg]
#   7 A_WORLD                Profile RMS along major axis (world units)                 [deg]
#   8 B_WORLD                Profile RMS along minor axis (world units)                 [deg]
#   9 THETA_WORLD            Position angle (CCW/world-x)                               [deg]
#  10 FWHM_WORLD             FWHM assuming a gaussian core                              [deg]
#  11 ELONGATION             A_IMAGE/B_IMAGE                                           
#  12 ELLIPTICITY            1 - B_IMAGE/A_IMAGE                                       
         1 -13.6448     12.5675     47.8931   6.9894475944e+01   6.7983483754e+01    0.7921702    0.6331986  17.61 0.0006503249    1.430    0.300
         2 -11.9399      5.2086     23.9192   6.5997087368e+01   7.3772167504e+01    0.6278897    0.4834733 -59.88  0.001968125    1.317    0.241
         3 -12.4704     14.8700     18.0462   5.6177431629e+01   7.4124295153e+01     1.008878    0.6394783 -70.95  0.004486462    2.856    0.650
         4 -12.2582      7.6605     14.8694   5.9798493470e+01   7.5384288360e+01    0.3333429    0.2570853 -30.95 0.0005250091    1.043    0.041
         5 -12.6238      3.0406     13.8130   6.2874630813e+01   7.5945037655e+01    0.6341507    0.2551986 -42.97  0.001085838    1.962    0.490
         6 -12.1821    248.9209     20.2875   6.1564597376e-01   2.1885456368e+01    0.5087946    0.1742433 -43.14 0.0004278574    2.042    0.510
         7 -13.2327    241.4377     13.2582   3.5949376992e+02   2.4179669098e+01    0.5606051    0.3707159 -43.19  0.002684582    1.210    0.174
         8 -12.2771    249.0410      8.3917   3.5801917236e+02   2.3193428019e+01    0.6763633    0.3088197 -30.88   0.00358608    1.942    0.485
         9 -12.2480    242.8116      3.3125   3.5721986613e+02   2.4973873742e+01    0.4937824    0.2382307  73.01  0.001995467    2.209    0.547
        10 -12.4826    234.8111      9.6336   3.5905022765e+02   2.5941334550e+01    0.3424557    0.2734414 -48.17  0.002196291    1.118    0.106
        11 -12.2199     28.7421     19.8088   4.7923388919e+01   7.2179128930e+01    0.2707078    0.2076703 -13.08 0.0002969637    1.196    0.164
        12 -11.7668    131.8606     16.8243   1.1193186450e+01   5.0116304063e+01    0.4421355    0.3140373 -57.42  0.002251595    1.482    0.325
        13 -10.6007    100.6048     16.9695   1.7413721619e+01   5.8079243349e+01    0.4557461     0.236202 -47.71  0.001901345    2.297    0.565
        14 -10.6923    137.2018     15.1123   9.7232415579e+00   4.8905492217e+01      0.27029    0.1963904 -46.50 0.0004292501    1.385    0.278
        15 -12.4081     75.9021     10.8978   2.1152067175e+01   6.4607177780e+01    0.6512504     0.454318  19.34  0.002161568    1.546    0.353
        16 -11.1272    159.8269     14.8558   6.6275866035e+00   4.3063639912e+01     0.232197    0.1966892 -72.09 0.0002357159    1.084    0.078
        17 -12.3976     65.2668     11.8830   2.5294993294e+01   6.6839241630e+01    0.2763075    0.2327517  22.97 0.0004125487    1.092    0.084
        18 -10.7195     59.9628     12.1316   2.7468525971e+01   6.7918200234e+01    0.4593156    0.1651484 -31.95  0.001852902    2.725    0.633
        19  -9.0038     54.1675     14.4781   3.1274118793e+01   6.8779398275e+01    0.2269176    0.1946936  63.98 0.0009492104    1.473    0.321
        20  -9.6766    124.3164     14.0955   1.1403645149e+01   5.2357864330e+01    0.3326525    0.2380836  89.71  0.001694987    1.468    0.319
        21 -10.1435    177.7231     12.0516   3.8682259179e+00   3.8822458999e+01    0.1848651    0.1621822 -53.22 0.0003664076    1.097    0.089
        22 -10.0100     27.2490     10.8592   4.3395237226e+01   7.3846318975e+01    0.2584888    0.1549672 -31.12  0.001431117    1.528    0.346
        23 -10.4592    139.7282     10.9251   7.8421552069e+00   4.8668483405e+01    0.2500142    0.1861951  84.04 0.0001840685    1.277    0.217
        24  -9.6438    119.6607     11.0110   1.0976840219e+01   5.3864911640e+01    0.2486551    0.1351623  -9.48  0.001071958    2.321    0.569
        25  -9.9415    100.0567     10.2305   1.4478493980e+01   5.8909862956e+01    0.2446019     0.176264  21.75 0.0008158045    1.555    0.357
        26 -10.1775     36.5532      6.1617   3.4691546298e+01   7.3054156894e+01    0.3472081     0.167659  24.56  0.001350587    2.701    0.630
        27 -11.3088    160.4669      8.6347   4.5522961475e+00   4.3529527756e+01    0.2604727    0.2234441  72.82 0.0006379787    1.145    0.126
        28  -9.6385    113.8624      8.6546   1.1032723444e+01   5.5574356530e+01    0.1973994    0.1632804  74.99 0.0004148373    1.147    0.128
        29  -9.5771    110.4763      5.9390   1.0493409619e+01   5.6680471404e+01     0.245413    0.1501879 -57.31  0.001158784    1.928    0.481
        30  -9.9461    155.2683      8.5068   5.0787663044e+00   4.4876251969e+01    0.2983893     0.126012  74.38  0.001225537    2.216    0.549
        31 -10.9092    145.4729      7.9080   6.0274612428e+00   4.7464264957e+01     0.296571    0.1768784  64.01 0.0009830323    1.550    0.355
        32 -10.6166     98.7696      4.0458   1.1905939660e+01   5.9786587002e+01    0.5614833    0.2569593 -61.64  0.001942087    3.970    0.748
        33 -11.3342     82.2087      6.9421   1.7240716237e+01   6.3543953314e+01    0.2238401     0.173215  50.29 0.0002789256    1.173    0.148
        34 -10.0750    223.1021      5.3627   3.5872307404e+02   2.8889424690e+01    0.1910673    0.1521557 -33.13  0.000630739    1.314    0.239
        35 -10.5334     68.0973      5.2626   2.0539892051e+01   6.6924729262e+01    0.3394196    0.2302822  68.87  0.001523785    1.674    0.403
        36 -11.6217     21.9044      3.2107   4.1666124534e+01   7.5726106483e+01    0.7338588    0.3425941  24.69  0.003472797    2.499    0.600
        37 -11.0840     27.5424      2.5423   3.7450115682e+01   7.4983901467e+01    0.2589919    0.2184928  36.68 0.0006157876    1.370    0.270
        38 -10.6962    164.4311      4.7931   2.9354802578e+00   4.2884511739e+01     0.239988    0.1992968 -73.51 0.0002800611    1.073    0.068
        39  -9.4626     19.9693      8.5269   4.6748656585e+01   7.5189977187e+01    0.1625182    0.1118776  25.22 0.0003405632    1.449    0.310
        40  -8.9908     56.2717      5.6839   2.5079031198e+01   6.9401742319e+01    0.1186159    0.1002203 -54.82 0.0003284603    1.559    0.359
        41 -11.2264    179.7281      3.5857   1.2221430313e+00   3.9168914527e+01    0.4077747    0.1902746  60.85 0.0005393619    2.145    0.534
        42 -10.0055    126.0318      2.7233   6.6902064440e+00   5.2959129761e+01    0.2098015    0.1978266 -23.16  0.000558908    1.169    0.145
        43 -10.1155     90.9840      2.0804   1.2633825201e+01   6.1864574034e+01    0.1974219    0.1745417  47.75            0    1.027    0.026
        44 -10.6477     32.5352      1.9498   3.4001607974e+01   7.4255261699e+01    0.2480158     0.165496  38.42 0.0007544631    1.448    0.309
        45  -9.8651     14.1680      2.0924   4.6518119329e+01   7.6903417642e+01     0.180351    0.1287281 -14.43            0    1.216    0.178
        46  -9.3004    120.9555      1.5294   6.9530706382e+00   5.4364530800e+01    0.2101125    0.1209588  69.01  0.001014208    1.554    0.357
        47 -10.2351     73.7752      1.4043   1.6621712813e+01   6.5995022795e+01    0.2232028    0.1204487  63.70 0.0005169119    1.797    0.444
        48  -9.7257    238.3713    200.7559   4.0468146561e+01  -2.2512091475e+00    0.1601121   0.09112666 -22.82 0.0004435692    1.538    0.350
        49 -12.2129    248.1709    247.3577   4.6453955623e+01  -8.8845383506e+00    0.5631978     0.307088 -11.37  0.003807055    1.620    0.383
        50 -12.0740    225.3843    246.6562   5.0015881306e+01  -6.3138110837e+00    0.6032599    0.3059977 -14.30  0.003543816    2.140    0.533
        51 -10.5976    218.6592    246.9645   5.1186375241e+01  -5.5714334105e+00    0.2235604   0.09183619 -34.87  0.001243035    2.535    0.606
        52  -9.3511    168.6768    250.6873   6.0600732421e+01   1.9173866899e-01    0.1164412   0.07584504   5.87 0.0003485952    1.657    0.397
        53  -9.6297    110.2715    250.0079   7.1797181948e+01   8.1001611438e+00     0.159959    0.1328949  41.72 0.0005715488    1.059    0.056
        54 -11.5806     21.9534    248.6775   8.8905828966e+01   1.8966910710e+01    0.4749451    0.1385549  44.79  0.002400711    2.180    0.541
        55  -9.6078     13.3335    249.6956   9.0535448443e+01   1.9648093039e+01    0.1801822    0.1042311  55.79 0.0006178662    1.222    0.181
        56 -10.1171      6.9558    249.3154   9.1683551148e+01   2.0333033687e+01    0.1964492     0.118481  72.17 0.0006680302    1.330    0.248
        57  -9.9548     10.4874    248.0320   9.1000536029e+01   2.0225954522e+01      0.16783    0.1256563  42.16 0.0005738042    1.303    0.232
        58  -9.4112    185.3389    201.3347   5.0034364920e+01   5.1556821087e+00    0.1365222   0.09037651  -0.47 -0.0001244723    1.751    0.429
        59  -9.5300    120.4704    200.0421   6.3620130231e+01   1.5652309560e+01    0.1863915    0.1341397 -54.27 0.0007336538    1.533    0.348
        60 -10.1934    134.8463    196.4735   5.9830374910e+01   1.4058372376e+01    0.2189866    0.1856819 -48.50 0.0005219659    1.290    0.225
        61  -9.2189     56.4877    197.4950   7.8352503218e+01   2.5436946812e+01    0.1313052    0.1116709  64.73 5.275753e-05    1.023    0.023
        62 -10.1457     40.4748    197.0171   8.2092629864e+01   2.7464782918e+01    0.1849454    0.1144572 -80.79 0.0003687787    1.548    0.354
        63 -12.0556     15.5700    192.1790   8.7576067063e+01   3.1161115218e+01    0.3601835    0.3239121  49.69  0.001645658    1.273    0.215
        64  -9.0280    209.6537    193.2312   4.4032860348e+01   2.7743722153e+00    0.1086654   0.09726293  47.61 0.0002968087    1.554    0.356
        65  -9.4232    186.5055    193.4939   4.8433222905e+01   6.2558556488e+00    0.1322298     0.113068   3.19 6.030617e-05    1.024    0.023
        66 -12.6185     11.4544    209.5161   8.9344681070e+01   2.7724967520e+01    0.5405467    0.3054759 -71.10  0.003208395    1.818    0.450
        67  -9.6320     60.6209    191.7084   7.6794726130e+01   2.6222642220e+01    0.2730317    0.1186813  28.04  0.001141766    2.509    0.601
        68 -11.3296    244.4906    188.3645   3.7265961657e+01  -1.3858824545e+00    0.2506173    0.2069605 -41.42  0.001423715    1.636    0.389
        69  -9.7738    145.2204    190.1270   5.6479517543e+01   1.3589516144e+01    0.2069633    0.1767046  -1.61  0.000701468    1.247    0.198
        70  -9.7974    211.8883    187.1598   4.2515804343e+01   3.3702003507e+00    0.1805805    0.1302544   2.39 0.0005031269    1.346    0.257
        71  -9.4545      2.3360    187.2929   9.0382559069e+01   3.3450616210e+01    0.1098623   0.08694245 -53.52 0.0004189855    1.642    0.391
        72 -10.0298     61.8876    184.6856   7.5740793605e+01   2.7687959333e+01    0.2225571    0.1762047 -66.64 0.0009037064    1.317    0.241
        73 -12.1223     15.6835    182.3998   8.6987135349e+01   3.3416590626e+01    0.4859329    0.2407229  60.51  0.002491421    1.749    0.428
        74 -10.6114    249.6973    181.0052   3.5100185885e+01  -1.0709704363e+00    0.1758732    0.1279707 -19.45  0.001040242    1.088    0.081
        75  -9.7448    187.2942    189.3778   4.7535822001e+01   6.8168689616e+00    0.1396784    0.0935357  -6.00 0.0007022339    1.746    0.427
        76 -11.0327     23.0842    180.1043   8.5031023726e+01   3.3254113665e+01     0.396049    0.1484977  55.67  0.001382483    2.445    0.591
        77 -10.0095      1.5008    180.4767   9.0274568589e+01   3.5093741102e+01    0.1709859   0.09683367 -74.15 0.0004916347    1.631    0.387
        78 -10.7060      4.3432    179.3195   8.9544474204e+01   3.5133403395e+01    0.1717922    0.1624984 -22.36  0.001209682    1.494    0.330
        79  -9.6354     54.0174    174.9762   7.6691369640e+01   3.1029049771e+01    0.2017476    0.1599813 -40.31 0.0007146468    1.618    0.382
        80 -11.9063      7.8868    172.7371   8.8335671418e+01   3.6404433772e+01    0.3085003    0.1837514 -84.16  0.001120696    1.432    0.302
        81 -10.7115     18.0180    173.0206   8.5810384770e+01   3.5443712124e+01    0.2196429     0.118116  63.12 0.0006683905    1.655    0.396
        82 -10.1398     67.5663    165.7236   7.1950710740e+01   3.1512666419e+01    0.2557177    0.1280718 -62.84 0.0004808464    1.924    0.480
        83  -8.9121    200.3324    161.6958   3.9635037858e+01   9.3949466522e+00    0.1266559    0.1110018 -77.64 0.0007037327    1.659    0.397
        84  -9.2099    117.2827    161.6947   5.8080526573e+01   2.4495982733e+01    0.1477661    0.1141785  75.61  0.000201123    1.559    0.358
        85  -9.2998     55.2973    159.6585   7.4535845072e+01   3.4687735409e+01     0.152473   0.09568148  68.48 0.0007033528    1.665    0.399
        86  -9.4293     67.4557    157.5696   7.0840084111e+01   3.3579837576e+01     0.144421    0.1306283  79.45 8.066739e-05    1.009    0.009
        87 -10.1059    250.6632    155.8300   3.0093275714e+01   2.3414167811e+00    0.2624194   0.09494479 -29.19   0.00109768    2.577    0.612
        88 -10.4065    216.3403    154.4174   3.5243255912e+01   7.9119624296e+00    0.2789675    0.1873764 -30.63  0.001168491    1.310    0.237
        89 -10.0071    158.6616    153.7139   4.6498146521e+01   1.8527412944e+01    0.2706247    0.1791905  29.34  0.001238903    1.645    0.392
        90 -10.1058     10.5687    152.5869   8.6353108805e+01   4.1166225227e+01    0.3375685    0.1261796  42.23  0.001493365    2.397    0.583
        91  -9.5794     40.5131    151.9669   7.7801189046e+01   3.8450184325e+01    0.2069071     0.124575 -74.30  0.000404985    1.502    0.334
        92  -9.6605    222.0241    151.1763   3.3599351066e+01   7.4968681658e+00    0.1985207    0.1621608 -89.35  0.001082694    2.098    0.523
        93  -9.5766    143.7382    148.6309   4.8864105807e+01   2.2494526228e+01    0.1524363    0.1505581 -65.50  0.000832203    1.047    0.045
        94 -11.3926     26.1969    148.0334   8.1528676317e+01   4.0963279197e+01    0.4001883    0.2050461 -83.32  0.001436712    1.777    0.437
        95  -9.2304     82.0018    150.2194   6.5549846267e+01   3.3275443451e+01    0.1977188    0.1201552  36.01 0.0008696817    1.668    0.400
        96 -12.0968     13.8318    147.8715   8.5078226066e+01   4.2104473370e+01    0.2898124    0.2030765  87.09 0.0003018307    1.194    0.163
        97  -9.6965    233.8342    146.6328   3.0742367207e+01   6.2938709940e+00    0.2448122   0.08298061 -34.11 0.0006999112    2.570    0.611
        98 -10.2097     52.5405    147.4978   7.3713203903e+01   3.8179794016e+01    0.1441768    0.1288404 -87.65 -4.860941e-06    1.036    0.035
        99 -10.6596     38.4650    145.4735   7.7633914965e+01   4.0372178156e+01    0.2576424    0.1294817  33.54  0.001109038    2.021    0.505
       100 -10.4137    217.1564    145.0352   3.3105406729e+01   9.3363551569e+00    0.3113344     0.173899  25.51  0.001287496    2.387    0.581
       101 -11.3125     17.4899    143.5046   8.3647507272e+01   4.2926817613e+01    0.3924771    0.1848666  63.95  0.001725891    2.184    0.542
       102 -10.7945     13.9994    140.0044   8.4370864126e+01   4.4124788540e+01     0.263962    0.1666548 -49.04  0.001163395    1.780    0.438
       103 -10.9010      6.9127    145.1839   8.6849420169e+01   4.3333164907e+01    0.3259951    0.1689702  27.95  0.001390192    2.096    0.523
       104  -9.7938    155.6982    144.6752   4.5191073047e+01   2.0994307445e+01    0.1535652    0.1176142  -6.78 0.0003450353    1.637    0.389
       105 -10.5766    239.9394    140.0763   2.8434467046e+01   6.3359548292e+00    0.2029332    0.1625756 -22.28 0.0005858415    1.033    0.032
       106  -9.8344    189.0604    139.8600   3.7047452665e+01   1.5399222065e+01    0.2092101    0.1932227 -60.28 0.0004674927    1.243    0.195
       107 -10.7572     44.0148    137.7580   7.4943571122e+01   4.1784136366e+01    0.3424349    0.1906904 -71.07   0.00155915    1.619    0.382
       108 -10.2477    235.6296    138.0751   2.8653517461e+01   7.3485426996e+00    0.1905604    0.1749256 -31.88 0.0003932063    1.200    0.167
       109 -13.0965     37.4992    135.0341   7.6609973323e+01   4.3238582584e+01    0.4598145    0.2787211 -83.43  0.001569502    1.556    0.357
       110  -9.5756    144.4542    136.5193   4.5969818518e+01   2.5022900286e+01    0.1553884    0.1459271 -15.08 -1.036952e-05    1.099    0.090
       111 -11.1827    241.3643    134.5309   2.7048459970e+01   6.9651945404e+00    0.2305521    0.2134337 -19.29 0.0008410712    1.179    0.152
       112  -9.9150     20.5179    135.0441   8.1917962705e+01   4.4882539734e+01     0.218597    0.1167931 -76.46  0.001034309    1.596    0.374
       113 -11.2219     16.8467    130.9299   8.2643232348e+01   4.6275287765e+01    0.4012334    0.2526885  48.07  0.002112556    1.598    0.374
       114 -11.4528     57.6624    132.5655   6.9856171266e+01   4.1459518286e+01    0.3645532    0.3050446 -13.09 0.0007786552    1.550    0.355
       115 -10.7596     53.0683    132.9748   7.1381158519e+01   4.1952939048e+01    0.2644956    0.2202917 -62.25 0.0003831424    1.159    0.137
       116 -11.8011     74.3095    128.9363   6.3924856407e+01   4.0001385405e+01    0.3923324    0.3512021 -45.01  0.001213136    1.196    0.164
       117 -12.5157     81.4753    124.8340   6.0825388589e+01   3.9916921157e+01    0.8720748    0.5532928 -55.69       0.0025    1.492    0.330
       118 -10.0603     64.4673    130.9809   6.7421454012e+01   4.0936582742e+01    0.2315622    0.1381678 -63.86 0.0006608221    1.555    0.357
       119 -11.7589      4.8653    129.8578   8.6292911936e+01   4.7436688382e+01    0.3156336     0.195332 -79.19 0.0003136455    1.323    0.244
       120 -10.0423    217.0382    129.2906   2.9639360052e+01   1.2019417661e+01    0.1853302    0.1701716 -18.28 0.0004121148    1.082    0.075
       121 -10.9291     24.7292    127.5105   7.9741217345e+01   4.6509571514e+01    0.3585001    0.1958968 -71.11  0.001704499    1.556    0.357
       122 -11.9419     47.0424    124.2846   7.1920635364e+01   4.5029700650e+01    0.2748314     0.268888   4.86 0.0003438903    1.206    0.171
       123 -10.2517    229.5713    124.7434   2.6650801928e+01   1.0519921791e+01    0.1971501    0.1090799 -42.29 0.0009511543    1.613    0.380
       124 -10.4915     30.2898    124.0155   7.7465160033e+01   4.6924064674e+01    0.2017627    0.1627275 -80.87 0.0003490439    1.069    0.065
       125  -9.5865     14.5518    124.9506   8.2763518599e+01   4.8037000363e+01     0.201682    0.1138025 -76.55 -1.936478e-05    1.480    0.324
       126 -11.2501     10.1668    122.1906   8.3916180676e+01   4.9087752507e+01    0.2810294    0.2010165  61.87 0.0007077858    1.372    0.271
       127 -11.2476      7.5145    119.0235   8.4482855671e+01   5.0103251271e+01    0.2523772    0.1966861 -77.22 0.0007115687    1.076    0.071
       128 -11.0857     61.0709    121.4805   6.6742975051e+01   4.3948033540e+01    0.2810922    0.2170871 -41.42 0.0006205997    1.419    0.295
       129 -11.3863     68.6567    121.6674   6.4275289546e+01   4.2790017586e+01    0.3764331    0.2510764  27.63  0.001711824    1.709    0.415
       130 -11.5235     39.5039    126.4894   7.4764363334e+01   4.5306149440e+01    0.3987202    0.2106727  24.21  0.001750356    2.201    0.546
       131 -10.8281      2.0134    118.5782   8.6264386994e+01   5.0561884433e+01    0.2882844    0.1852255  65.61  0.001233855    1.502    0.334
       132 -11.2917    249.0754    117.7447   2.2373206781e+01   8.2795393734e+00    0.2899175    0.1912179 -14.50  0.001575105    1.671    0.402
       133 -10.8167     20.5635    108.2834   7.8671836677e+01   5.2007398625e+01     0.303679    0.2128431 -10.26  0.001238359    1.900    0.474
       134 -11.0550     15.9812    115.3055   8.1208147046e+01   5.0491365674e+01    0.2502858    0.2252218 -85.05 0.0004112817    1.086    0.079
       135 -12.1623     13.6936    110.3739   8.1415155415e+01   5.1972494348e+01    0.4455265     0.345677  56.66   0.00116064    1.347    0.257
       136 -10.5290    182.1095    114.6530   3.2355890329e+01   2.1626405960e+01    0.2756471    0.2287208 -54.21 0.0005462581    1.232    0.188
       137 -10.9240     56.8362    121.0579   6.8076187947e+01   4.4644780606e+01    0.2946523    0.2281878  84.91 0.0003300716    1.335    0.251
       138 -10.4778     70.4660    114.3368   6.2109650837e+01   4.4448104544e+01    0.2829874    0.1789552  56.60  0.001208533    1.831    0.454
       139 -10.5460     36.2958    102.4443   7.1871986697e+01   5.2110742426e+01    0.2998311    0.2155097  76.87   0.00140047    1.534    0.348
       140 -11.5586     31.7323    108.0980   7.4569795507e+01   5.1059566615e+01    0.5665179    0.3228604 -78.93   0.00259031    1.671    0.402
       141  -9.9148     35.7168    107.6500   7.3034666887e+01   5.0777337619e+01    0.3276381    0.1734104 -30.68  0.001050815    2.783    0.641
       142  -9.2953    101.5006    111.0683   5.1329209358e+01   3.9779645917e+01    0.2238698    0.1525948 -52.62  0.000970573    1.410    0.291
       143 -11.4786     55.2046    109.6548   6.6376691317e+01   4.7912270253e+01    0.3507978      0.24741 -58.17 0.0006256676    1.288    0.224
       144 -11.4640     62.4679    106.8108   6.3176518836e+01   4.7644314215e+01    0.3577896    0.3331931  82.54  0.001899875    1.088    0.081
       145 -10.5657      3.3130    105.4295   8.4570543330e+01   5.3939245245e+01     0.325994    0.2327361 -85.07  0.001550123    1.168    0.144
       146 -10.6831     76.2531     97.6073   5.6006585767e+01   4.7833740195e+01     0.414838    0.1978652 -40.81  0.001486304    2.389    0.581
       147 -10.9766     74.9446    104.1192   5.8160396414e+01   4.6390047817e+01    0.3642792    0.2228167 -53.89 0.0002946297    1.519    0.342
       148 -11.2507     71.1922    101.5946   5.8832067065e+01   4.7658584975e+01    0.4392155    0.2778543   7.42  0.001693745    2.625    0.619
       149  -9.9595     80.9636    103.7456   5.6008880176e+01   4.5455446861e+01    0.2220146    0.2120504 -87.15  0.001174542    1.052    0.049
       150 -10.4958     50.4425    103.9208   6.6885736111e+01   5.0064862811e+01    0.3037532    0.2369166  17.95 0.0008035546    1.517    0.341
       151  -9.0852     42.5320    103.9952   6.9832795371e+01   5.1008661552e+01    0.2177503    0.1306959 -66.49 0.0004307163    1.483    0.326
       152 -10.2065     23.5164    100.2517   7.6352069951e+01   5.3907677381e+01    0.4310238    0.1403653 -53.22  0.001601793    2.612    0.617
       153 -11.2928     61.7859     98.9472   6.1558602672e+01   4.9806285813e+01    0.4264497    0.3484772 -34.40  0.002170511    1.324    0.244
       154 -10.4135     57.2617     96.0431   6.2526907315e+01   5.1218589644e+01    0.2272845    0.1960767  87.09 0.0002934447    1.231    0.188
       155  -9.3811    108.8183    100.5927   4.6268090686e+01   4.0827794716e+01    0.2125439    0.1516999  57.25 0.0002619749    1.554    0.356
       156  -9.3179      9.9760     99.0551   8.1355101796e+01   5.5224005697e+01    0.1611194    0.1270994 -75.97 0.0009368709    1.048    0.046
       157 -10.1045     66.8867     98.0703   5.9474379365e+01   4.9255028723e+01    0.2203681    0.1962484  87.23  0.001150843    1.181    0.153
       158  -9.9058     52.1939     97.0745   6.4694853777e+01   5.1644920792e+01    0.2233202    0.1763064 -46.30 0.0002566387    1.232    0.189
       159 -10.5756     15.7967     96.2980   7.8719253753e+01   5.5560374669e+01    0.3296035    0.2206584 -27.12  0.001711976    1.806    0.446
       160  -9.7464    101.4635     94.9609   4.6876399156e+01   4.3695977830e+01    0.2340942    0.1524732 -50.01 0.0003526366    1.476    0.323
       161  -9.7437    226.4704     93.3355   1.9826407545e+01   1.6200965071e+01    0.2133958    0.1592631 -76.72 0.0006425327    1.714    0.417
       162  -9.7908     31.6361     92.8972   7.1831127065e+01   5.5120814688e+01    0.1987866    0.1587018 -70.66 0.0004291544    1.107    0.097
       163  -8.9132    115.6846     92.3094   4.1826934510e+01   4.1260693697e+01    0.1628911     0.126889 -85.46 0.0007030416    1.632    0.387
       164 -11.8411     57.3598     90.6652   6.1121718220e+01   5.2595029462e+01    0.3909941    0.3240196 -27.10 0.0007058599    1.337    0.252
       165 -10.5334     12.9882     91.6970   7.9133651892e+01   5.6968159687e+01    0.2854974     0.179089  53.23  0.001457214    1.803    0.445
       166  -9.4706    104.9823     91.0169   4.4606813196e+01   4.3882521334e+01    0.1989913    0.1823288 -50.85 0.0008042739    1.049    0.046
       167 -10.1545     35.2315     90.4804   6.9876755994e+01   5.5393101618e+01     0.242579     0.222479 -71.42 0.0004476814    1.054    0.051
       168  -9.1167     38.2829     88.6736   6.8232377855e+01   5.5538190068e+01     0.143835    0.1059637  76.83 0.0002717063    1.601    0.375
       169 -10.3623     23.6686     89.7734   7.4459698301e+01   5.6670101115e+01     0.389899    0.1992214  57.56  0.001624325    2.579    0.612
       170 -11.0406     73.9425     89.0912   5.4449440014e+01   5.0366970966e+01    0.2554251     0.208576 -48.89  0.001271949    1.151    0.131
       171 -10.6505     96.4483     88.9077   4.6648134779e+01   4.6154954642e+01    0.3988614    0.2277014  49.57 0.0009933549    1.891    0.471
       172 -10.4408    109.7702     86.1272   4.1645524241e+01   4.3957515576e+01    0.2396464    0.2152219 -79.66   0.00118823    1.195    0.163
       173  -9.8770    239.3044     85.3216   1.6322084763e+01   1.4973409288e+01     0.127111   0.09880269  -3.75 0.0003236598    1.635    0.388
       174 -10.4176    184.8684     85.1229   2.4063782697e+01   2.6511643684e+01    0.2199099    0.1964138 -48.55 0.0003340602    1.021    0.021
       175 -10.7939     64.5163     82.6580   5.6102926771e+01   5.3525946037e+01    0.5646569    0.2590265 -61.94  0.002040314    2.442    0.591
       176 -10.4207     30.5187     83.8377   7.0379490662e+01   5.7601531042e+01    0.4743617    0.1748199 -66.68  0.001771449    2.440    0.590
       177  -9.7801      8.5482     84.9972   7.9930509193e+01   5.8997443879e+01    0.2104313    0.1139297 -76.64  0.001016502    1.588    0.370
       178 -10.7770    117.2160     82.5672   3.8355846705e+01   4.3062915128e+01    0.3794475    0.2452968  -8.32  0.001305824    2.997    0.666
       179 -11.5981     77.1022     82.2664   5.1236673051e+01   5.1472145480e+01    0.3807266    0.2724559  37.66 0.0009185654    1.486    0.327
       180  -9.7536     41.9372     83.4837   6.5473266807e+01   5.6464136563e+01     0.205103    0.1455058  27.21  0.001028336    1.578    0.366
       181 -10.2413     21.6130     81.7063   7.3753703043e+01   5.8946015457e+01    0.2618794    0.1917564   1.39  0.001297031    1.660    0.398
       182  -9.7104      1.8807     80.4948   8.2096851683e+01   6.0512171134e+01     0.325426    0.1036099 -55.63  0.001332232    2.377    0.579
       183 -12.6832     88.2960     77.3150   4.5655652546e+01   5.0486068185e+01    0.3821817    0.3507282  19.93 0.0003888868    1.172    0.147
       184 -10.8452     84.5923     75.1514   4.6219442690e+01   5.1713230877e+01      0.27925     0.244313  11.47  0.000670274    1.285    0.222
       185  -9.7960     41.3756     79.7622   6.4750151291e+01   5.7480439601e+01    0.2541763    0.1653467  40.22 0.0008056621    1.712    0.416
       186  -9.9951      8.0351     80.1392   7.9378092686e+01   6.0285098413e+01    0.2081719    0.1474164 -52.01 0.0004770212    1.257    0.204
       187 -10.8950     49.0935     77.4280   6.0820722854e+01   5.7093125628e+01    0.3784348    0.2829957  16.76  0.001391367    1.553    0.356
       188 -10.4073     54.2779     75.3926   5.8034371250e+01   5.6871792666e+01    0.2609871    0.1474262  25.46 0.0006044123    2.076    0.518
       189 -10.9699    168.1610     73.9637   2.3879095123e+01   3.2460519724e+01    0.4944399    0.2408368 -46.54  0.001471547    1.988    0.497
       190 -10.5759    166.0220     68.4273   2.2621154368e+01   3.3952966404e+01    0.4514396    0.2710485  85.54  0.001140902    2.454    0.592
       191 -10.3362    107.2427     72.0455   3.7750766560e+01   4.7564395122e+01    0.2372934    0.2289222  72.00  0.000338641    1.070    0.065
       192 -10.6878     99.7194     76.0719   4.1453869029e+01   4.8376046965e+01    0.3554422    0.2310949 -52.55  0.001260921    1.572    0.364
       193 -11.5480    102.8098     70.4860   3.8557816835e+01   4.8887008851e+01    0.5690882    0.2745021 -39.19  0.001448818    2.074    0.518
       194 -11.2544     22.7890     75.9830   7.2011641959e+01   6.0321832828e+01    0.3722722    0.3220314  70.97  0.001556969    1.300    0.231
       195 -10.6835     75.1834     75.2605   4.9683846841e+01   5.3473835787e+01    0.4076014    0.2999538  17.54  0.001888158    1.681    0.405
       196  -9.8583     36.8772     76.4857   6.5838901157e+01   5.8825510901e+01    0.1905392    0.1429393  24.53 0.0006177484    1.500    0.334
       197 -10.4372    139.8478     72.1369   2.9176490715e+01   3.9763780035e+01    0.4782604    0.2691564 -26.52  0.001552857    2.162    0.537
       198  -9.9091     61.5999     73.2617   5.4337931715e+01   5.6270038226e+01    0.2845212    0.1386205 -56.03  0.001116775    2.011    0.503
       199 -11.8234     50.3222     68.1316   5.7435104132e+01   5.9188513202e+01    0.3390254    0.2670969 -35.17 0.0005244515    1.234    0.190
       200  -9.3401     44.4666     74.4047   6.1932890853e+01   5.8446496005e+01    0.2264015     0.176485 -64.71  0.000111821    1.236    0.191
       201 -10.9429     45.0375     70.8836   6.0636038008e+01   5.9239216552e+01    0.2462043    0.2359311 -75.56 0.0003779874    1.125    0.111
       202 -10.4629      7.0392     73.2877   7.8653474958e+01   6.2096117512e+01    0.2851695    0.1770175 -21.38 0.0008248553    1.893    0.472
       203 -14.0055     16.3882     67.2528   7.3009647134e+01   6.3028035416e+01    0.6367663    0.4937512  75.73  0.001055841    1.514    0.339
       204 -10.8488      6.3681     68.0953   7.8011452708e+01   6.3445632393e+01    0.2522654    0.2000988 -80.27 0.0003662593    1.190    0.160
       205 -12.0675      3.2436     62.3519   7.8430175014e+01   6.5036255357e+01      1.90631    0.3257439 -71.08  0.005632796    4.646    0.785
       206 -11.6629     13.0687     53.1796   7.1143203087e+01   6.6702153469e+01    0.5930163    0.2942784 -23.84  0.002672412    2.462    0.594
       207  -9.8386     83.9008    248.4896   7.6888886386e+01   1.1805095602e+01    0.1792638   0.09174055  37.55 0.0005883677    1.530    0.347
       208 -10.5011    113.0756     60.8812   3.2094188538e+01   4.8413874610e+01    0.4497679    0.1969724  42.21    0.0015574    2.594    0.614
       209 -12.8828     30.3275     63.3567   6.5203612705e+01   6.2773494871e+01    0.4583783    0.4295635 -56.62  0.001122948    1.097    0.089
       210  -9.7109    147.1285     65.8299   2.5527761146e+01   3.9112345430e+01    0.2426949    0.1927903 -61.17 0.0006093081    1.303    0.233
       211  -9.4057    235.7245     65.6640   1.2117479817e+01   1.8594570873e+01    0.1238377   0.09963838  -5.21  0.000456411    1.606    0.377
       212  -9.4493    131.2175     64.9767   2.8837523171e+01   4.3232869141e+01    0.2075649    0.1246382 -38.18 0.0003940646    1.627    0.385
       213 -10.4506     81.6884     64.8986   4.3636055668e+01   5.4544827889e+01    0.4050173    0.2409781  54.93  0.001034088    2.017    0.504
       214 -10.2776    160.2741     63.5341   2.2186396170e+01   3.6218029008e+01     0.377331    0.2625337  -7.69 0.0008476279    2.058    0.514
       215 -10.4980    155.1598     63.5934   2.3181201524e+01   3.7489341791e+01    0.2707573    0.2105283 -41.39 0.0005816082    1.227    0.185
       216 -10.2867    122.9849     63.3357   3.0320665181e+01   4.5560982628e+01    0.2692811    0.2090099 -40.86  0.001280139    1.262    0.207
       217 -10.0301    209.9400     63.0028   1.4421901359e+01   2.4443800346e+01     0.210764    0.1815508 -48.69 0.0003377656    1.016    0.015
       218  -9.4707     75.4232     62.9037   4.5228715946e+01   5.6193703202e+01    0.2046465    0.1300822 -68.35 0.0008029875    2.376    0.579
       219 -10.4577    119.0286     61.0287   3.0533890859e+01   4.6952407267e+01    0.2380339    0.2256409 -60.90 0.0003884948    1.051    0.049
       220 -10.9627     89.0448     53.5361   3.6666652200e+01   5.5301735163e+01    0.5423353    0.2441521 -39.42  0.001977129    2.180    0.541
       221 -10.3874     90.2825     60.9072   3.9120553092e+01   5.3594242627e+01    0.2795673    0.2218844  40.36 0.0006533192    1.298    0.229
       222 -10.2430     92.9809     57.9682   3.7093014163e+01   5.3590587349e+01    0.3099177    0.2487079  86.42  0.001014415    1.630    0.386
       223 -11.7890     46.4922     59.5461   5.6243511029e+01   6.1728368468e+01    0.5415066    0.3710018 -38.89  0.001851171    1.372    0.271
       224 -10.2414    136.3329     59.0077   2.5609124252e+01   4.3023442896e+01    0.4694926    0.2702684  82.93  0.001655456    2.847    0.649
       225  -9.6729    193.7690     57.9849   1.5188370912e+01   2.8920800084e+01    0.2091047    0.1914581  -0.41 0.0008888764    1.321    0.243
       226  -9.0070    175.6878     70.2854   2.1459260577e+01   3.1271239884e+01     0.154752    0.1102013 -67.34 0.0003183044    1.577    0.366
       227 -12.4840    115.7546     55.3247   2.9321666333e+01   4.8781216700e+01     0.353296    0.2906082  82.89 0.0006790672    1.389    0.280
       228  -9.8500     80.1659     56.4558   4.0968048401e+01   5.6599211675e+01    0.3750869    0.2517094  -3.84  0.001532092    2.343    0.573
       229 -10.1773     68.8589     56.9512   4.5523362770e+01   5.8684107567e+01    0.2169857    0.2068102 -32.12 0.0004912779    1.042    0.040
       230  -9.9183    176.9164     56.2544   1.7141222371e+01   3.3260182993e+01    0.2027399    0.1828065  74.80 0.0004479069    1.150    0.130
       231 -10.3856    145.5372     54.0061   2.1960194204e+01   4.1530087987e+01    0.3226342    0.2598689  16.52 0.0006984598    1.587    0.370
       232 -11.4270    149.4126     51.4595   2.0353137535e+01   4.0948615681e+01    0.3242615    0.2841521 -55.69  0.001706938    1.099    0.090
       233 -11.8388    105.3638     52.5076   3.1137475509e+01   5.1777597548e+01    0.3682229    0.2938144  51.71 0.0001061463    1.259    0.206
       234 -10.9566     39.0916     50.3353   5.6425787251e+01   6.4786443322e+01    0.5365414    0.2885956 -41.74  0.002489565    1.702    0.412
       235 -10.5922     50.2060     42.9695   4.7886312776e+01   6.4735105895e+01    0.4319241     0.392755  30.65  0.002572431    1.195    0.163
       236  -9.7430     46.7338     52.3220   5.3441071958e+01   6.3309015208e+01    0.2165641    0.2038728  57.49 0.0003694981    1.267    0.211
       237 -10.9388     46.4094     48.7923   5.2191330209e+01   6.4115372701e+01    0.3700937    0.2305393 -22.48   0.00144738    1.963    0.491
       238 -12.2121     44.2375     43.8786   5.1206675851e+01   6.5458173106e+01    0.5394211    0.2966541 -46.89 0.0003302211    1.679    0.404
       239  -9.9902    133.7409     50.8793   2.3354636690e+01   4.5044377701e+01    0.2951932    0.1966338 -81.31  0.001224314    2.055    0.513
       240  -9.9433    127.1192     50.8982   2.4859599024e+01   4.6717925935e+01    0.2400283     0.201948 -61.11 0.0007092849    1.238    0.192
       241 -10.1536     62.5346     50.4929   4.5539533872e+01   6.1154939966e+01     0.281596    0.1350122 -44.31 -8.464853e-06    1.979    0.495
       242 -11.0292     92.6706     67.7112   4.0832783649e+01   5.1682219731e+01    0.2903676    0.2653921  -6.73 0.0005414917    1.169    0.144
       243  -9.9944     78.0724     48.1944   3.8362040191e+01   5.8626656986e+01    0.3429212    0.2167728 -12.89  0.001399046    2.330    0.571
       244 -10.8424     82.7306     48.3766   3.6744291505e+01   5.7620724908e+01    0.3956008    0.2670074 -50.79 0.0009692988    1.624    0.384
       245  -9.1504     85.3221     46.6538   3.5109810980e+01   5.7377215128e+01    0.2024245    0.1415594 -28.21 0.0001983039    1.480    0.324
       246 -12.3101     54.8748     48.8128   4.8218490442e+01   6.2801676700e+01    0.8634037    0.3795458 -45.09  0.002090534    2.120    0.528
       247 -11.4802     55.4715     37.4665   4.2891516442e+01   6.4910255039e+01    0.5065651    0.2495843 -39.28  0.002218938    1.937    0.484
       248 -11.1100     57.8123     34.3821   4.0346537892e+01   6.5045830186e+01    0.5142735    0.2233835  38.89  0.001792495    2.387    0.581
       249 -10.2367    180.3415     47.3540   1.4010103598e+01   3.3754118114e+01    0.3351693    0.1915911 -53.42 0.0001532354    1.732    0.423
       250  -9.6636    157.0284     47.9934   1.7834001716e+01   3.9535385581e+01    0.2195329    0.2053633 -54.97  0.000336765    1.042    0.040
       251 -11.4655    248.1434     36.2466   4.2108957346e+00   2.0111316396e+01    0.2302626    0.2100551 -70.18 0.0002976939    1.227    0.185
       252 -11.4450    246.2741     41.9744   5.6447187308e+00   1.9748092271e+01    0.4568186    0.1417581 -44.40  0.001941811    2.367    0.578
       253  -9.9283    192.0578     46.0172   1.2076523386e+01   3.1090716415e+01    0.2143208    0.1872913 -57.50 0.0003531033    1.005    0.005
       254  -9.1941    135.4204     46.1982   2.1332956583e+01   4.5356709023e+01    0.2051966    0.1344537 -45.83 0.0003182595    1.523    0.343
       255  -9.6733    237.2149     44.7962   7.0472548463e+00   2.1193517994e+01    0.1539074    0.1460555 -22.17 0.0003864625    1.307    0.235
       256 -10.3009    163.9154     44.6950   1.5639897243e+01   3.8265829154e+01    0.2055172    0.1815709 -75.92 0.0004995187    1.082    0.076
       257 -11.5522    121.7978     43.0883   2.3204341518e+01   4.9304877984e+01    0.4183034    0.3357283 -64.55  0.001375926    1.367    0.269
       258  -9.9767    116.0186     40.4629   2.3573442671e+01   5.1157996591e+01    0.3029042    0.2164905  33.97  0.000892967    1.590    0.371
       259  -9.8423    112.1567     45.2328   2.6422400852e+01   5.1371200072e+01    0.2184403    0.1993827  20.77 0.0005228884    1.168    0.144
       260  -9.3380     91.6044     45.5472   3.2543209320e+01   5.6180931584e+01    0.1460003     0.139538  -5.98 4.943765e-05    1.030    0.029
       261 -10.8293     72.3667     42.9793   3.8272291607e+01   6.0740988216e+01    0.3225475    0.2111386  37.41 0.0005679409    1.570    0.363
       262 -11.6706     67.8793     41.3213   3.9314874095e+01   6.1924134621e+01     0.594199    0.2806292 -49.94  0.002311439    2.538    0.606
       263 -10.1287    131.2791     41.9928   2.0685731718e+01   4.7056040680e+01    0.2978166    0.2067583 -14.41   0.00134963    1.756    0.431
       264 -10.9040     97.3586     41.3769   2.8999220864e+01   5.5552089959e+01     0.412391    0.2669188  64.12  0.001464593    1.742    0.426
       265  -9.8211    102.6602     40.7481   2.7196732479e+01   5.4393765537e+01    0.2113782    0.1918676 -29.18 0.0004105453    1.112    0.100
       266 -10.0667    186.9996     41.0532   1.1300140139e+01   3.3008568427e+01    0.2095332    0.1870465 -59.72  0.001205947    1.021    0.021
       267 -11.1087    149.4154     40.6061   1.6710780486e+01   4.2578385674e+01     0.318806    0.2411639 -53.22  0.000461027    1.305    0.234
       268  -9.7047     90.1800     41.5503   3.1305772748e+01   5.7178921160e+01    0.2820108    0.1459236  57.32  0.001136331    2.111    0.526
       269 -10.1923     61.3874     41.2475   4.2008311876e+01   6.3158450188e+01    0.2648371    0.1744225  26.81  0.001272031    1.683    0.406
       270 -10.0140     23.5552     40.2683   6.0904256579e+01   6.8769002216e+01    0.2733204    0.1570862 -47.79   0.00140613    1.475    0.322
       271 -12.2775     27.7090     37.6682   5.7426221555e+01   6.8879996708e+01    0.2569275    0.2328449  -3.24 0.0002607321    1.138    0.121
       272 -10.8491     24.4619     34.5667   5.7989667731e+01   6.9881793926e+01    0.2427609    0.1872253 -31.90  0.000515183    1.124    0.110
       273 -10.8946    234.0786     39.6991   6.1134976179e+00   2.2508324980e+01    0.3198099    0.1409738 -87.26  0.001280706    3.412    0.707
       274 -11.2753    222.9455     37.0368   6.4347406657e+00   2.5221015225e+01    0.2330041    0.1723287 -70.54 0.0008085649    1.274    0.215
       275  -9.8147    109.5661     40.4133   2.5184735217e+01   5.2766977225e+01     0.381078    0.1235139  52.20  0.001260383    2.873    0.652
       276 -11.7566     84.1109     36.9757   3.1296190754e+01   5.9282974805e+01    0.6668977    0.4554605  17.16  0.002609595    1.888    0.470
       277 -11.7276     76.7175     34.4795   3.2741269309e+01   6.1288512911e+01    0.4282871    0.4127788 -29.94  0.001895355    1.106    0.095
       278  -9.9342    165.8313     37.4671   1.3068235283e+01   3.8792653460e+01    0.3530435    0.2010157 -68.87  0.001465009    2.146    0.534
       279 -11.9524    139.1486     36.1761   1.7021103768e+01   4.5857563305e+01    0.6195393    0.3556242  71.02  0.001762455    1.810    0.447
       280 -10.9774     65.0227     36.6343   3.8317290616e+01   6.3305433327e+01    0.2488803    0.1952381 -33.48 0.0001626218    1.234    0.190
       281 -10.7227    110.8352     65.5468   3.4410932172e+01   4.8048436728e+01    0.4185526    0.2685838 -64.33  0.001172082    2.115    0.527
       282 -10.5218    111.0132     34.3252   2.2343943913e+01   5.3306393222e+01    0.3194513    0.2173467  61.34  0.001287198    1.451    0.311
       283  -9.7905    101.2370     29.7529   2.2920915904e+01   5.6351428083e+01    0.4316411    0.2352009  24.35  0.001587806    2.967    0.663
       284 -10.7850     98.8390     25.9256   2.1874806442e+01   5.7442367016e+01    0.3157458    0.2633683 -21.88 0.0002818688    1.243    0.196
       285  -9.7584     92.6440     34.0948   2.7271840728e+01   5.7784915727e+01    0.2264457    0.1700314 -47.44  0.001134582    1.446    0.309
       286 -10.1059     34.0159     33.5864   5.1983012566e+01   6.8937203404e+01    0.2296284     0.172958 -39.25  0.000839066    1.196    0.164
       287 -10.0150      8.2764     33.1482   6.7575500740e+01   7.1604657588e+01    0.2258886    0.1524007  49.92  0.001250933    2.092    0.522
       288 -10.3364     15.9663     32.0087   6.2149141176e+01   7.1247278999e+01    0.2401674     0.166453 -15.39 0.0008072815    1.468    0.319
       289 -10.2559     19.3935     31.1749   5.9608412302e+01   7.1101312194e+01    0.2381947    0.1929656 -44.09 0.0008542808    1.129    0.114
       290 -10.6425    241.9876     35.0332   4.3941719195e+00   2.1486642842e+01    0.1975867    0.1581154 -52.37 0.0005584572    1.031    0.030
       291 -10.9381     11.8097     29.3979   6.3759432206e+01   7.2144985787e+01    0.2523906    0.1946829 -39.01 0.0004939624    1.062    0.058
       292 -10.1066     16.0443     25.9191   5.9371723707e+01   7.2488623966e+01    0.3794932    0.2079315 -72.33  0.001573943    3.496    0.714
       293 -10.3442     10.9650     24.5138   6.2184332003e+01   7.3220035198e+01     0.296654    0.1873417 -27.47 0.0008535491    1.462    0.316
       294  -9.7974    182.7923    246.6332   5.7457530699e+01  -1.1054021891e+00    0.1653691   0.08698399  37.80 0.0009522793    1.722    0.419
       295 -10.9092     73.1825    244.6060   7.8715735517e+01   1.3841140943e+01    0.2725065    0.2147215  30.41  0.001114041    1.309    0.236
       296 -12.3164     74.6787    239.7468   7.8027760099e+01   1.4524760466e+01     0.501439    0.4209141 -64.47  0.003288149    1.458    0.314
       297 -10.1432     45.5602    244.2853   8.4174736662e+01   1.7212258026e+01    0.2115827   0.09820659  45.11 0.0004794864    1.588    0.370
       298 -12.0791    214.4149     25.8103   4.3619126837e+00   2.8517901175e+01    0.5172876    0.3572518  32.57  0.002684315    2.246    0.555
       299 -10.9200    202.8543     28.0930   5.9826704646e+00   3.0896473872e+01    0.2256977    0.1865803  88.49 0.0004191958    1.199    0.166
       300 -10.9444    198.0450     28.2255   6.4822404719e+00   3.2014988915e+01    0.3344692    0.2125205  88.45  0.001262663    1.615    0.381
       301 -10.0554     79.5769     27.4877   2.8397824667e+01   6.1721843367e+01    0.3169909    0.1795638 -19.39  0.001385854    2.053    0.513
       302 -10.3613    133.5091     27.3032   1.4827457061e+01   4.8481751333e+01    0.2400883    0.2091623  61.67 0.0002319093    1.117    0.105
       303 -11.0493    119.5486     27.2956   1.7551342681e+01   5.2086729956e+01    0.2832504    0.2331117  60.39 0.0002820145    1.163    0.140
       304 -11.0783    112.1921     26.8780   1.8996208844e+01   5.4009189589e+01    0.3896698    0.2766129   1.67  0.001134779    1.776    0.437
       305 -10.0023     72.8281     26.7942   3.0441751847e+01   6.3287949898e+01    0.3652057    0.1740011 -15.34  0.001263433    3.504    0.715
       306  -9.9753     49.6436     28.2652   4.1072495474e+01   6.7536135045e+01    0.3251679    0.1697891  19.56  0.001259262    3.062    0.673
       307 -12.1309    231.6475     26.3437   3.1424275192e+00   2.4691738101e+01    0.3400927    0.2277824 -81.42 0.0008681988    1.487    0.327
       308 -10.6510    176.6290     26.5065   8.2857783838e+00   3.7464975102e+01    0.2899462    0.2027606 -51.43 0.0001239023    1.314    0.239
       309  -9.9454     61.0965     26.6548   3.5010688016e+01   6.5699669076e+01    0.1950519    0.1678916  17.76 0.0009463598    1.103    0.093
       310 -11.6560    240.1839     25.8468   2.4210444470e+00   2.2980463521e+01    0.2399235    0.1743022 -51.99  0.001510389    1.070    0.065
       311 -10.0288     91.2118     24.9202   2.3528782135e+01   5.9402191990e+01    0.3515341    0.1517765  47.83  0.001400456    2.190    0.543
       312  -9.7189      4.6478    244.0851   9.1947710262e+01   2.1502988560e+01    0.1470836    0.1031725  70.71 0.0004558825    1.143    0.125
       313  -9.2238    102.2969    243.6490   7.2764989542e+01   1.0216308221e+01    0.1227173   0.07695064  58.95 0.0007034611    1.686    0.407
       314  -9.7730    116.0000    240.9357   6.9712711622e+01   8.8078351327e+00     0.167346   0.07008298 -57.66 0.0008021006    2.940    0.660
       315 -10.2975     88.9279    241.0739   7.5235529227e+01   1.2440646707e+01    0.1732845      0.14224  -9.54   0.00113146    1.727    0.421
       316  -9.6226    129.0502     24.3242   1.4521081525e+01   5.0001276068e+01    0.2006729     0.173855  72.29 0.0003501244    1.102    0.092
       317 -10.4724    224.2522     22.9818   2.8840686526e+00   2.6678245158e+01    0.1873251    0.1445133 -47.54 0.0004946106    1.092    0.085
       318  -9.9948    224.3311     19.0588   1.9284456884e+00   2.7119328697e+01    0.2572345   0.06941181 -40.62 0.0009901575    2.580    0.612
       319 -11.8947     34.1456     22.6811   4.6303687550e+01   7.0932679928e+01    0.2396324    0.1915871  -3.97 0.0002410667    1.173    0.147
       320 -10.2871     82.1950     21.4625   2.4593602383e+01   6.1943384170e+01    0.2945775    0.2050572 -49.14 0.0007879615    1.699    0.412
       321 -10.5207     68.7252     21.2842   2.9139898343e+01   6.4929814069e+01    0.2143974     0.205421 -47.50 0.0007236815    1.218    0.179
       322 -10.2597     59.8136    240.6004   8.1106435186e+01   1.6214450664e+01     0.178017   0.07942063  43.80 0.0005893089    1.690    0.408
       323 -10.9187    193.2734     20.7834   4.8971292685e+00   3.4046641991e+01    0.2326723    0.2168168 -76.09 0.0002170739    1.131    0.116
       324  -9.2529    193.5300     16.4884   3.6891618855e+00   3.4471998938e+01    0.2794526    0.1594821 -73.60  0.001341638    1.771    0.435
       325 -10.3847    122.0553     20.2021   1.4225688365e+01   5.2288213244e+01    0.4097089    0.2207247  33.80  0.001034094    2.424    0.588
       326  -9.7973     58.9817     21.4511   3.3136528199e+01   6.6886735457e+01     0.197033    0.1269003  44.74 0.0005209772    1.530    0.347
       327  -9.7022     32.8629     15.4005   4.2808200036e+01   7.2322805528e+01    0.2149748     0.156887 -15.47 0.0003806319    1.281    0.220
       328 -10.2727    195.8912    238.3268   5.3905033801e+01  -1.7113224788e+00    0.2054139    0.1509419 -16.40 0.0009907939    1.325    0.245
       329 -10.1209     24.5912     20.1846   5.0760301610e+01   7.2647030300e+01    0.2122174    0.1669423  -8.10 0.0005545983    1.168    0.144
       330 -10.3952    230.6463     20.0487   1.7268283615e+00   2.5648793210e+01    0.1786758    0.1411469 -47.17 0.0004626995    1.098    0.090
       331 -10.7045    170.0100     18.3631   6.5668398454e+00   4.0082702194e+01    0.2791141    0.1830263 -40.92  0.001428661    1.431    0.301
       332  -9.6091     13.1551    238.8760   9.0185327213e+01   2.1659909252e+01    0.1357742     0.113299  87.11  0.001043903    1.327    0.246
       333 -10.9939     63.9393     17.8274   2.9116576767e+01   6.6387742625e+01    0.2425672    0.2096482 -24.37 0.0006798716    1.181    0.153
       334 -10.1858    156.0293     21.6886   9.3417639548e+00   4.3292030111e+01    0.1966938    0.1719394  85.68 0.0004539007    1.075    0.069
       335 -10.1485      3.6164    238.4449   9.1969974294e+01   2.2649816757e+01    0.1936855    0.1078132 -87.66 0.0009105651    1.686    0.407
       336 -10.6195    216.7743     16.0595   1.7317875767e+00   2.9126049104e+01    0.4128636    0.1562458  62.20  0.001804453    2.799    0.643
       337  -9.0995    165.2719     17.3087   6.7763532914e+00   4.1404918943e+01     0.131715    0.1043268  36.03 0.0002317333    1.545    0.353
       338 -10.1088    118.4821     16.8887   1.3574592931e+01   5.3571515823e+01    0.2682181    0.1845215 -89.12    0.0010933    1.637    0.389
       339 -10.5727    109.0697     16.6773   1.5381132562e+01   5.5993672040e+01    0.2790491    0.2033673  68.83 0.0008377401    1.329    0.248
       340 -11.2492     39.8511    236.9921   8.4885341005e+01   1.9217515427e+01    0.3579231    0.1631001  59.88  0.001380329    1.902    0.474
       341 -11.0428     76.7937     15.9961   2.3551336786e+01   6.3836428323e+01    0.2399178     0.186697  51.10 0.0002537637    1.229    0.186
       342 -11.0385     34.9663    237.9520   8.5909257262e+01   1.9575648956e+01    0.2704691    0.1244019  51.83    0.0015331    1.648    0.393
       343 -10.9177     30.4984    234.2305   8.6603486291e+01   2.0770911294e+01    0.3549968    0.1750905  68.67  0.001408777    1.829    0.453
       344  -9.9277     66.9411    236.3043   7.9339230280e+01   1.6134698217e+01    0.1759028    0.1299366  43.38  0.001155681    1.126    0.112
       345 -11.0432    183.0125    233.6642   5.5593921135e+01   6.2167690192e-01    0.3369009    0.2331627 -33.74  0.001650698    1.577    0.366
       346 -10.6900    161.2553    234.2489   5.9841200760e+01   3.5373303850e+00    0.2969324    0.2159619 -34.87  0.001911049    1.554    0.356
       347  -9.4497    150.0055    240.2295   6.2834440144e+01   4.2023080556e+00    0.1591647   0.08248519  33.49 0.0004207112    1.578    0.366
       348 -10.6476    165.6912     13.0686   5.3966900070e+00   4.1749656802e+01    0.2499496     0.176377 -82.27  0.001318706    1.361    0.265
       349  -9.8191    146.0203     13.0685   7.7513715533e+00   4.6819624921e+01    0.2578299    0.1033324 -45.60 0.0009997196    2.503    0.600
       350 -10.6597     55.0538    231.6170   8.1446315775e+01   1.8483580568e+01    0.2135434    0.1688831 -78.04  0.001124408    1.398    0.285
       351 -10.2706    236.7026    230.0881   4.5634755730e+01  -5.7119714596e+00    0.1618625    0.1281878 -23.60    0.0012089    1.443    0.307
       352  -9.6115    171.4720     11.4669   4.3015693981e+00   4.0449834184e+01    0.1356727     0.121374 -77.66 0.0002159001    1.035    0.034
       353 -10.9470    248.5215    228.5832   4.3510722896e+01  -6.8824418973e+00    0.2076867   0.08924937 -31.55  0.001196127    2.119    0.528
       354  -9.8019    192.4987    227.4894   5.2909029584e+01   1.9909351396e-01    0.1209501   0.09556979   9.82 0.0008104801    1.024    0.024
       355 -10.3727      4.5149    225.7883   9.1393960897e+01   2.5018157325e+01    0.2620876    0.1502979  24.12  0.001591678    2.077    0.518
       356 -10.3889     79.4274    223.1526   7.5570731183e+01   1.7037146111e+01    0.2479245    0.1897201   4.78  0.001452145    1.850    0.460
       357 -10.0047     16.2494    222.0372   8.8898222713e+01   2.4655660247e+01    0.1620521    0.1200903  69.49 0.0004610454    1.071    0.066
       358  -9.5560    126.0530    220.5281   6.5198030430e+01   1.0903652434e+01    0.1890329   0.08809081  51.48 0.0008091438    2.526    0.604
       359 -11.7518     49.0246    218.4865   8.1780527984e+01   2.1826067650e+01    0.5064338    0.2550253  34.28  0.002082777    1.788    0.441
       360 -10.2204     39.5853    229.1515   8.4481694843e+01   2.0764987525e+01    0.2173382     0.121836  46.59 0.0009938572    1.385    0.278
       361  -9.6073    211.8068    218.7914   4.8042588231e+01  -1.1951569264e+00    0.1466077    0.1330416   5.88 0.0008649995    1.338    0.253
       362 -10.1189     38.4478    217.0213   8.3966465585e+01   2.3350642254e+01    0.1889186    0.1319306  46.84 0.0004687896    1.201    0.168
       363  -9.1725    204.6308    216.6912   4.8983293363e+01   5.8759862413e-02    0.1289703    0.0793818   2.89 0.0007035496    1.762    0.432
       364  -9.4113     23.9839    216.0007   8.6998618558e+01   2.5120340772e+01    0.1454799    0.1106757  66.96 0.0004029073    1.034    0.033
       365 -12.3083      5.2433    210.6830   9.0702366051e+01   2.8049299004e+01    0.6311194    0.2241552  86.32  0.002869227    2.645    0.622
       366 -10.1723     20.4303    211.7579   8.7535310920e+01   2.6375259354e+01    0.2540362    0.1216687  67.99  0.001269567    1.830    0.454
       367 -10.5001    217.3857    209.1731   4.5461307641e+01  -6.2513061892e-01    0.3793726    0.1529843 -32.34  0.001620393    2.415    0.586
       368  -9.6560    110.5071    211.0474   6.7366477339e+01   1.5002184435e+01    0.1831416    0.1302506 -58.21 0.0007291781    1.588    0.370
       369  -9.1243    132.3073    209.3239   6.2320210780e+01   1.2007089575e+01    0.1300724   0.09880502  -3.67  0.000620117    1.647    0.393
       370 -10.6196     72.6459    208.4368   7.5646375109e+01   2.0944081727e+01    0.2962745    0.2038575  16.80  0.001586299    1.881    0.468
       371  -9.4283    202.0000    207.0152   4.7851267860e+01   1.8189975831e+00    0.1915665   0.06563472 -39.49 0.0008028657    2.945    0.660
       372 -11.2479     19.3678    202.8943   8.7300760007e+01   2.8395694087e+01    0.6158765    0.1042499 -67.09  0.002147097    4.731    0.789
       373 -10.2574     23.4855    198.5060   8.6125170732e+01   2.8957302011e+01     0.185469    0.1493161  65.59  0.001225613    1.046    0.044
       374 -10.2442     28.4462    205.4931   8.5431578887e+01   2.6899679329e+01    0.1272676   0.09538864  64.97 0.0001958076    1.054    0.051
       375 -10.0940    175.0345    202.0339   5.2191608624e+01   6.6257434992e+00    0.1972933    0.1670081  13.64 0.0004316198    1.037    0.035
       376 -10.7767    219.0243     25.2268   3.8389087099e+00   2.7558051771e+01    0.2669711    0.1725775  73.01   0.00079394    1.633    0.388
       377 -10.5575    159.9732     22.9411   9.2301440297e+00   4.2129189549e+01    0.4200938    0.2709175  14.94  0.001849168    2.425    0.588
       378  -9.3141     67.9784    203.0000   7.6180782022e+01   2.2733551035e+01    0.2181552   0.06718366  32.64 1.527164e-05    2.985    0.665
