#   1 NUMBER                 Running object number                                     
#   2 MAG_AUTO               Kron-like elliptical aperture magnitude                    [mag]
#   3 X_IMAGE                Object position along x                                    [pixel]
#   4 Y_IMAGE                Object position along y                                    [pixel]
#   5 X_WORLD                Barycenter position along world x axis                     [deg]
#   6 Y_WORLD                Barycenter position along world y axis                     [deg]
#   7 A_WORLD                Profile RMS along major axis (world units)                 [deg]
#   8 B_WORLD                Profile RMS along minor axis (world units)                 [deg]
#   9 THETA_WORLD            Position angle (CCW/world-x)                               [deg]
#  10 FWHM_WORLD             FWHM assuming a gaussian core                              [deg]
#  11 ELONGATION             A_IMAGE/B_IMAGE                                           
#  12 ELLIPTICITY            1 - B_IMAGE/A_IMAGE                                       
         1 -13.7563      5.4883     75.6115   1.1959263888e+02   5.8291433910e+01     1.821872    0.5441612 -60.56  0.008493694    2.618    0.618
         2 -15.5019      9.1449     26.0369   1.0557075849e+02   6.6627519658e+01      2.38668    0.8631561 -41.38   0.01361562    2.090    0.522
         3 -13.4032     30.9424     10.3471   9.1260301447e+01   6.6834262940e+01     1.277207    0.4397193 -29.87  0.006510687    2.787    0.641
         4 -14.0021     24.6748     49.0429   1.0659582237e+02   6.1845713000e+01     1.104184    0.6034712 -24.59  0.006601206    1.750    0.429
         5 -15.5037     96.7900     71.2601   8.9404126822e+01   4.8842928044e+01     2.744232     1.866882  21.11   0.01408966    1.661    0.398
         6 -15.5559     60.8742     71.0576   1.0040400570e+02   5.4252580522e+01     2.231785     1.230498  30.85   0.01089158    1.935    0.483
         7 -15.1092     44.4158     41.6659   9.7209872812e+01   6.1147403767e+01     2.470155     1.358734 -32.01  0.008642801    1.601    0.375
         8 -14.5978     37.3471     85.0906   1.1152037277e+02   5.4086542485e+01     2.003046     1.131562 -41.59   0.01128039    1.508    0.337
         9 -11.7028     73.2137      1.5341   7.3318642973e+01   6.2020026638e+01    0.2420742    0.1250175  45.40 0.0005635586    1.692    0.409
        10 -13.2125     83.5879     22.6543   7.7803592198e+01   5.8186636777e+01    0.5787547    0.4219056  41.47 0.0005302092    1.311    0.237
        11 -13.1748    123.7418     10.2967   6.3752650491e+01   5.1811189855e+01    0.9342216    0.3935618  42.60 0.0002875991    2.171    0.539
        12 -14.8379     86.1451      7.0547   7.1649347047e+01   5.9344333852e+01     2.293552    0.9321832  50.37   0.01155143    2.198    0.545
        13 -12.3404     75.7631     13.4753   7.6900405154e+01   6.0472576069e+01    0.3009125     0.244696  34.08 0.0008921133    1.202    0.168
        14 -11.7761     64.5791     17.8827   8.2001493551e+01   6.1724790928e+01     0.399157    0.2397676  28.71  0.001393433    1.478    0.324
        15 -12.8973    110.6795      4.7367   6.4827102297e+01   5.4958010823e+01     0.675735    0.4824724  27.52  0.003183488    1.341    0.254
        16 -12.6674    185.9336     11.8843   5.3812236996e+01   3.7840025465e+01    0.5193921    0.3223327  71.42  0.002463679    1.376    0.274
        17 -11.2280    149.7337      8.6110   5.8400940598e+01   4.6366598661e+01    0.4501292    0.2129882  68.58  0.002153924    2.027    0.507
        18 -11.8592    193.3328      7.7118   5.1907644883e+01   3.6586628315e+01    0.3109246    0.1841729  66.65 0.0009134578    1.407    0.289
        19 -11.8239    192.5135      4.5274   5.1288106411e+01   3.7096110664e+01     0.380343    0.2122438  73.45  0.001636222    1.520    0.342
        20 -11.2512    175.0328     14.0243   5.5842244699e+01   4.0112805909e+01    0.2658031    0.1996445 -13.18  0.001585541    1.788    0.441
        21 -12.3733    138.2390      4.4587   5.9243330454e+01   4.9258408797e+01    0.6735421    0.2925991  51.49  0.002375536    1.855    0.461
        22 -10.4633     49.1028      4.4495   8.2203705103e+01   6.5314519037e+01    0.2169483    0.1381415 -24.30  0.001499331    1.539    0.350
        23 -11.2311    122.2699    127.4063   9.7039733231e+01   3.2638158324e+01    0.3927149    0.3698037  59.42  0.001312457    1.088    0.081
        24 -12.8605    218.7540    121.1016   7.4144225926e+01   1.3050457822e+01    0.5320419    0.3171202  44.85  0.002369271    1.832    0.454
        25 -10.3293    190.8379    112.1576   7.7409197872e+01   2.1052918378e+01    0.2018213     0.184658  12.31 0.0003935452    1.293    0.227
        26 -10.4284    246.6732    249.3269   9.4416477173e+01  -1.4571219742e+01    0.1039933   0.09584932  64.08 0.0007050114    1.699    0.412
        27 -10.1744     33.4911    177.4986   1.2758238546e+02   3.3884409763e+01     0.125332   0.09977338 -83.36 -4.920951e-06    1.004    0.004
        28 -11.8338    203.5739    171.8060   8.8167692482e+01   6.0341182889e+00    0.4215043     0.328035 -17.24  0.002091616    1.515    0.340
        29 -10.2310    185.5076    167.4663   9.1039996839e+01   1.0620084082e+01    0.1476882    0.1473207  79.73  0.000132015    1.004    0.004
        30 -11.8383    215.4793    162.2560   8.3781086957e+01   5.5599154215e+00    0.3679362    0.2618223  12.01  0.001668348    1.988    0.497
        31 -11.1008    114.0984     96.8695   9.1637301035e+01   4.0808904174e+01    0.3828565    0.2683502 -59.56  0.001732704    1.638    0.389
        32 -11.4598    199.5616    155.4546   8.5514042959e+01   1.0207935772e+01     0.452099    0.2584068 -59.54  0.001787857    2.214    0.548
        33 -10.8978    188.3516     94.2886   7.3580249329e+01   2.5098955393e+01     0.371843    0.2709844 -72.48  0.001404087    1.623    0.384
        34 -11.9107    232.9685    153.8030   7.8689107528e+01   3.7538644408e+00    0.3560641    0.2390997  37.09  0.001371421    1.662    0.398
        35 -14.3287     68.5512     53.9467   9.2868885555e+01   5.6199531646e+01     1.517303    0.8900704  40.46  0.005453618    1.861    0.463
        36 -11.7444    118.2468     90.5611   8.8837095840e+01   4.1273643295e+01     0.361291    0.2278738  43.81   0.00168925    1.599    0.375
        37 -12.3373    141.5889     97.3081   8.4655311790e+01   3.5132394797e+01    0.7279053    0.4029079 -30.54  0.002872129    2.265    0.559
        38 -10.5350    213.9314     87.9753   6.7434050397e+01   2.0349101565e+01    0.2136142    0.1934713 -77.54 0.0003218808    1.017    0.017
        39 -10.3800    249.8126     86.5441   6.1673549723e+01   1.2763190878e+01    0.2723265     0.201091 -63.02  0.001243635    1.250    0.200
        40 -12.9168    128.2206     81.4341   8.3725916231e+01   4.1007313234e+01    0.4674881    0.4092788   5.27  0.002568122    1.245    0.197
        41 -13.7642    127.4589     72.4642   8.1405555250e+01   4.2770868763e+01    0.8394468    0.5377147  45.50  0.004073013    1.513    0.339
        42 -12.6898    117.9234     67.7485   8.2518428313e+01   4.5513674438e+01    0.4983955    0.3558328 -20.71  0.001843547    1.586    0.370
        43 -12.4888    119.0606     73.6421   8.3915910908e+01   4.4270271983e+01    0.5637477    0.3031248  27.83  0.001680722    2.565    0.610
        44 -12.8226    121.3971     80.3399   8.5191274536e+01   4.2596955642e+01    0.5628578    0.4066205 -11.98  0.002713584    1.776    0.437
        45 -13.1535    115.7955     78.6116   8.6197020307e+01   4.4019422073e+01    0.6515955    0.4406252  52.28  0.003214327    1.593    0.372
        46 -10.7896    149.2119     79.4137   7.8069077764e+01   3.6849189434e+01    0.3797561    0.2169517 -22.94  0.001488248    2.559    0.609
        47 -12.7076    144.1109     75.3136   7.8138286215e+01   3.8707439574e+01       0.4983    0.4004002 -42.18  0.001325686    1.287    0.223
        48 -12.4852    137.8595     93.6188   8.4601755966e+01   3.6661586046e+01    0.5309016    0.3741261  46.98   0.00254985    1.410    0.291
        49  -9.5398    234.4558     76.5107   6.1693368284e+01   1.7738091007e+01    0.1406358    0.1197795 -72.84 0.0002050761    1.046    0.044
        50 -10.0314    182.6684     72.0488   6.9146737028e+01   3.0400041631e+01     0.190157    0.1800357 -67.39 0.0004283179    1.071    0.066
        51 -11.1690    152.0945     71.9043   7.5380354178e+01   3.7512924687e+01    0.3248471    0.2192255 -82.54  0.001375903    2.371    0.578
        52 -10.6334    147.0904     66.1318   7.4920099255e+01   3.9600316743e+01    0.2279402    0.1969842  20.57  0.001253025    1.276    0.216
        53 -11.1549    134.9080     98.5246   8.6632881092e+01   3.6308924305e+01    0.5526898    0.3379732  32.88  0.001204579    1.906    0.475
        54 -10.9128    214.5865     60.9398   6.1132679888e+01   2.4738296435e+01    0.3531181     0.241093 -34.18  0.001225442    1.656    0.396
        55 -10.4342    169.8538     63.1543   6.9324648149e+01   3.4862930126e+01    0.2513067    0.1995217  47.18 0.0004474146    1.252    0.201
        56 -10.2695    166.1311     62.8372   6.9978086309e+01   3.5780945648e+01    0.2698311    0.1901872  51.50 0.0003543562    1.345    0.256
        57 -12.5852    124.4512     57.5003   7.7837170165e+01   4.5849723641e+01    0.3974925    0.2855535  46.58 0.0006913423    1.318    0.241
        58 -11.2453    174.7743     56.5440   6.6671326024e+01   3.4737167794e+01    0.2405758    0.2244639  82.80 0.0003413066    1.029    0.029
        59 -12.3156    134.2676     53.9946   7.4433524525e+01   4.4311917771e+01    0.5133196    0.2838939  59.54 0.0007219273    1.951    0.487
        60 -11.0636    153.9271     53.3554   6.9911068594e+01   4.0044359619e+01    0.5220864    0.1989984  43.35  0.001891114    2.878    0.653
        61 -12.0095     89.8377     48.5490   8.4539171340e+01   5.3737184262e+01    0.5069579    0.2353806  54.70  0.002043382    3.310    0.698
        62 -11.4709     92.8912     52.8852   8.5003645019e+01   5.2560097762e+01    0.2719484    0.2165693   3.38 0.0003579127    1.255    0.203
        63 -11.7707     99.1296     50.1809   8.2361396990e+01   5.1868120243e+01    0.5314428    0.2393705  33.94  0.002269226    2.442    0.591
        64 -11.3903    145.4688     50.6464   7.0951093671e+01   4.2346642040e+01    0.2939103    0.2738927  62.71 0.0006906487    1.059    0.055
        65 -10.9741    190.1005    153.6712   8.7098480069e+01   1.2580249911e+01    0.2858723    0.2106571 -55.82  0.001345653    1.411    0.291
        66 -10.3301    137.1177     47.8996   7.2013573642e+01   4.4578816804e+01    0.1989555     0.181217 -89.58 0.0005016698    1.247    0.198
        67 -10.8729    176.3458     45.8141   6.3635804863e+01   3.5930700570e+01    0.3220383    0.2360207  33.03 0.0009595467    1.680    0.405
        68 -11.2792    157.3648     43.7464   6.6591196565e+01   4.0620536971e+01    0.2841735     0.243713  44.17 0.0006058213    1.146    0.127
        69 -10.3428    121.8044     44.3596   7.4570992088e+01   4.8312044939e+01    0.2484355    0.1993906  10.32  0.001021815    1.352    0.260
        70 -10.6107    181.8378     43.4417   6.2102001724e+01   3.4971684448e+01    0.2688536    0.2089953  62.38 0.0003825387    1.168    0.144
        71 -10.5564    139.5130     43.6338   7.0250235885e+01   4.4644665111e+01    0.3830615    0.2016667  65.82  0.001651909    2.286    0.563
        72  -9.8256    203.6396     43.7282   5.8789662474e+01   2.9829309676e+01    0.1326531   0.09807838  41.75 0.0003052447    1.652    0.395
        73 -10.6661    196.9967     41.0277   5.9132130957e+01   3.1750980503e+01    0.2406641    0.1851666 -57.10 0.0007237386    1.313    0.238
        74 -11.9927    216.7745     38.7930   5.5880209263e+01   2.7486573895e+01    0.4564819    0.2654523  58.12  0.001727827    1.660    0.398
        75  -9.4942     90.2878     40.6505   8.1868511979e+01   5.4788887437e+01    0.1144979    0.1015941 -71.58 0.0007023684    1.661    0.398
        76 -10.8919    205.3264     37.3550   5.7086919258e+01   3.0311567841e+01    0.4354852    0.2172456  77.53  0.001909731    2.237    0.553
        77 -10.4689    160.0458     36.2990   6.4068150505e+01   4.0984930303e+01    0.1903107    0.1728088  38.91  0.000239953    1.156    0.135
        78 -12.9913     80.7486     31.8796   8.1805258739e+01   5.7545106279e+01     0.699823    0.5011192  42.26  0.001746705    1.417    0.294
        79 -10.3852     29.5860    153.7793   1.2559021318e+02   3.9692147931e+01    0.1791369    0.1007762 -78.90  0.000947428    1.629    0.386
        80 -10.9295     19.5126    153.5017   1.2787598379e+02   4.0661995055e+01    0.1829339    0.1204222   1.44  0.001041505    2.486    0.598
        81 -12.5313    247.8068    145.3447   7.4315767911e+01   2.5087544375e+00    0.9491032    0.4447484 -45.72  0.004065395    1.963    0.491
        82 -11.5659     58.6729    144.3496   1.1709207316e+02   3.8737469572e+01    0.4997588    0.3315279 -88.70  0.002556824    1.757    0.431
        83  -9.3567    240.5075     34.4554   5.2157864899e+01   2.2798390552e+01    0.1271545    0.1045483 -82.47 0.0001053033    1.024    0.024
        84  -9.4347    224.1723     34.6537   5.4065252915e+01   2.6373712041e+01    0.1726511    0.1043455  60.71 0.0002755025    1.588    0.370
        85 -10.9727    176.7349     33.4194   6.0423787482e+01   3.7484717390e+01    0.2609575    0.2077602  70.05 0.0006397132    1.117    0.105
        86 -10.1322     97.2581     33.9462   7.7696884116e+01   5.4439405675e+01    0.1764176    0.1520606   0.48  0.001117217    1.109    0.098
        87 -13.0194     49.3141    142.0025   1.1908105399e+02   4.0380656345e+01    0.7786177    0.5905316  30.47  0.004483041    1.569    0.363
        88 -10.3144    107.6141     29.1774   7.3398535861e+01   5.3078248586e+01    0.4673528    0.1564755  39.62  0.001796049    3.090    0.676
        89  -9.2774    216.3452     28.3140   5.3655030153e+01   2.8968493398e+01    0.1247366   0.09371389  43.30  0.000704728    1.713    0.416
        90 -11.4216    241.8827     23.0337   4.9765099672e+01   2.4002174010e+01     0.375552    0.2345275 -75.46  0.001483987    1.487    0.327
        91 -11.3086    150.7457     21.0185   6.1616235047e+01   4.4891226821e+01     0.455581    0.2089989  52.16  0.002056793    1.849    0.459
        92 -10.1555    139.8394     21.0840   6.3689102818e+01   4.7300440502e+01    0.2602012    0.1517405  61.75 0.0009387956    1.567    0.362
        93 -10.6499    208.7518     18.7873   5.2503747471e+01   3.1857535618e+01     0.270592    0.1959411 -64.01  0.001053438    1.345    0.256
        94  -9.8539     90.3884    145.7674   1.0922881251e+02   3.3960907168e+01    0.2082521    0.1227282 -48.83 0.0009458686    1.633    0.388
        95 -11.9206    213.8785    142.3595   7.9791986395e+01   9.8734907840e+00     0.772999    0.3662346  56.70  0.002895633    2.576    0.612
        96 -12.1303     76.0410    138.9488   1.1163994638e+02   3.7716028263e+01    0.6369773    0.2399141 -57.22  0.002466539    2.371    0.578
        97 -13.4735    204.2529    125.3431   7.7833179107e+01   1.5384395605e+01    0.8628686    0.6921152 -52.40   0.00437098    1.209    0.173
        98 -11.8603     34.4110    135.7588   1.2188258945e+02   4.3356207783e+01    0.3477137    0.1985624  21.11  0.001857235    2.309    0.567
        99 -11.1903    223.9443    134.2624   7.6123941922e+01   9.3712865949e+00    0.4409909    0.2432172  51.21  0.001914851    1.934    0.483
       100 -11.5670     82.0247    134.1928   1.0913140846e+02   3.7962622858e+01       0.2763    0.1947787 -57.52  0.001423934    1.294    0.227
       101 -10.1516    138.7744    152.4097   9.8491883503e+01   2.3639188121e+01    0.2125678    0.1481211  32.49 0.0008431016    1.627    0.385
