#   1 NUMBER                 Running object number                                     
#   2 MAG_AUTO               Kron-like elliptical aperture magnitude                    [mag]
#   3 X_IMAGE                Object position along x                                    [pixel]
#   4 Y_IMAGE                Object position along y                                    [pixel]
#   5 X_WORLD                Barycenter position along world x axis                     [deg]
#   6 Y_WORLD                Barycenter position along world y axis                     [deg]
#   7 A_WORLD                Profile RMS along major axis (world units)                 [deg]
#   8 B_WORLD                Profile RMS along minor axis (world units)                 [deg]
#   9 THETA_WORLD            Position angle (CCW/world-x)                               [deg]
#  10 FWHM_WORLD             FWHM assuming a gaussian core                              [deg]
#  11 ELONGATION             A_IMAGE/B_IMAGE                                           
#  12 ELLIPTICITY            1 - B_IMAGE/A_IMAGE                                       
         1 -13.2405     57.3517    130.0066   1.0075763660e+02   4.2464875849e+01     3.248794    0.9808584 -71.14  0.006503998    8.956    0.888
         2 -13.9425     68.3293    144.7404   1.0014565221e+02   3.7236416499e+01      3.89595     1.800757  65.72  0.009992557    6.189    0.838
         3 -13.7768    235.8686     17.0082   3.2390946223e+01   2.5528475998e+01    0.8177088    0.7164774 -52.40  0.002614673    1.252    0.201
         4 -14.4299    218.5777     32.8077   3.7313261098e+01   2.7304427957e+01     2.482658     1.464606  36.66   0.01152447    2.999    0.667
         5 -11.3397      3.5681     15.0093   9.1183503554e+01   7.2433936520e+01    0.2584744    0.1680719  25.21  0.001373106    1.773    0.436
         6 -11.2488      2.7747      3.8373   8.6345716931e+01   7.4193643696e+01    0.3413545    0.1957671 -26.50  0.002251463    1.376    0.273
         7  -9.8871     28.8607     52.8806   9.2375883403e+01   6.3530801216e+01    0.1900668    0.1729533   4.72 0.0004487206    1.239    0.193
         8 -13.0763     44.8737    217.6321   1.1533966860e+02   2.2553609219e+01     1.022744    0.6447937  19.46  0.001643497    2.170    0.539
         9 -15.1383      5.1125    178.7216   1.2108535566e+02   3.5452211458e+01     8.777319    0.8162113 -76.64   0.01893297   10.170    0.902
        10 -13.0195     85.9414    222.4884   1.0683938509e+02   1.6089364374e+01     1.535762    0.8248698  65.00 0.0006420785    2.326    0.570
        11 -15.8478     34.4415    190.3423   1.1522985727e+02   2.9966148905e+01     8.524017     3.232282  62.22   0.03144321    3.526    0.716
        12 -14.7179      9.5740    207.6230   1.2203686481e+02   2.8465705896e+01      1.60635      1.15892  85.96  0.005465006    1.119    0.106
        13 -11.3478     24.5481    214.2771   1.1937494499e+02   2.5543007526e+01    0.4106559    0.2908685  12.61  0.002073312    2.097    0.523
        14 -10.6869    193.3044    195.1875   7.8505692082e+01   3.9470707565e+00     0.634259    0.3230611 -60.76  0.002032668    4.836    0.793
        15  -9.8784    209.1819    198.1824   7.5881195282e+01   8.0647825285e-01     0.174184    0.1616886 -43.21 0.0007861377    1.352    0.260
        16  -9.6128     57.0076    194.0416   1.1025616115e+02   2.6448445632e+01    0.2116079    0.1713346  72.00 0.0005437749    1.125    0.111
        17 -13.1376     26.1057    204.9833   1.1835848342e+02   2.7450698150e+01    0.4720426    0.3917587 -45.94  0.001039502    1.579    0.367
        18  -9.0236     99.4871    180.9974   9.7852380362e+01   2.3415722193e+01    0.2118886     0.141782 -58.37 0.0005282118    1.501    0.334
        19 -12.0034     55.9691    178.0725   1.0860238275e+02   3.0439953155e+01    0.4550575    0.2997578 -34.92  0.002198186    2.082    0.520
        20 -11.9841     61.7533    172.5378   1.0637210621e+02   3.1070803558e+01    0.3501649    0.2801216 -41.12  0.001023182    1.445    0.308
        21 -11.7251     72.3615    163.0891   1.0211686124e+02   3.1995927267e+01    0.3707534    0.3151879  86.54 0.0004166735    1.165    0.142
        22 -12.2345     68.4569    129.6464   9.7219352371e+01   4.1074112943e+01    0.8416302    0.5400642  72.80  0.003530482    2.286    0.563
        23 -11.3985     31.0720    233.0876   1.1934777156e+02   2.0847447589e+01    0.3793133    0.1766876  67.60  0.001946077    2.096    0.523
        24  -9.6259    170.8937    233.5050   8.9878149807e+01   7.9679064533e-01    0.1899897    0.1640754 -24.43 0.0005184484    1.233    0.189
        25  -9.1482     40.9864    165.0057   1.1086926698e+02   3.5450794179e+01    0.1884233    0.1424342  72.45   0.00104534    1.299    0.230
        26 -12.1852     34.4830    158.6572   1.1183239159e+02   3.7729183820e+01    0.7606261    0.3563816  68.11  0.002443946    3.004    0.667
        27 -13.4491     58.9336    159.1541   1.0520413184e+02   3.4806560092e+01    0.5544591    0.3209649 -44.17  0.001438587    1.935    0.483
        28  -8.6998     89.6241    174.2887   9.9304567368e+01   2.6618968678e+01     0.156894    0.1059968  65.44 0.0007019299    1.727    0.421
        29  -8.8143    174.7301    149.3477   7.2910807587e+01   1.6528249369e+01    0.1504849    0.1217267 -75.73 0.0003142653    1.620    0.383
        30 -11.3301     23.5934    147.7369   1.1350538843e+02   4.1502484619e+01    0.2872663    0.2125991  89.80  0.001171019    1.241    0.194
        31 -14.6404      7.8724    245.3641   1.2437958444e+02   2.0802385285e+01     2.423665     1.128834  38.47   0.01463245    1.913    0.477
        32  -9.1111    178.0021    143.9566   7.0953822018e+01   1.6995030536e+01    0.2714241      0.15853 -62.27   0.00100194    2.568    0.611
        33  -9.8034    133.4551    142.6511   8.1340035899e+01   2.6441766743e+01    0.4822245    0.1529976 -56.71  0.001154779    5.155    0.806
        34 -10.9613     96.1303    141.7652   9.1435336440e+01   3.3665227775e+01    0.6770473    0.4307152 -20.52  0.002606741    2.516    0.603
        35 -12.3510     83.1726    141.0223   9.5062013090e+01   3.5984312810e+01    0.3313774    0.2738868 -52.58 0.0005238277    1.156    0.135
        36  -9.7800     28.4775    143.4813   1.1159690185e+02   4.2141584795e+01    0.1357918    0.1150493 -71.07 0.0008096805    1.037    0.036
        37  -9.5415    197.9588    139.4900   6.5774523590e+01   1.3852997995e+01    0.2976551    0.1946507 -56.27  0.001327437    1.786    0.440
        38  -9.1406    131.2384    137.2427   8.0659816285e+01   2.8158348965e+01    0.2088571    0.1825933  85.41 0.0003182536    1.332    0.249
        39 -10.8031    106.8664    131.1862   8.5972040258e+01   3.4365193041e+01    0.3971053    0.3455706  34.06  0.001082254    1.190    0.160
        40 -10.1753     47.5598    168.7184   1.0959749906e+02   3.3780135121e+01    0.2631592    0.1971788  64.44 0.0008953268    1.328    0.247
        41 -11.1034     94.4994    127.6431   8.8787701133e+01   3.7466356838e+01    0.2934616    0.2612939 -39.01 0.0004502883    1.112    0.101
        42 -10.8735     15.5970    128.8232   1.1348716706e+02   4.6892065408e+01    0.2581434     0.171956  77.79 0.0007650935    1.614    0.381
        43  -9.7728    114.8587    125.2790   8.2258969567e+01   3.4264283209e+01    0.3052154    0.2018181 -23.26  0.001214731    2.061    0.515
        44 -10.4003     20.1113    121.3718   1.1107478916e+02   4.8419626255e+01    0.2500104    0.1502377  43.22  0.001296883    1.907    0.476
        45  -9.7096    105.3281    119.8404   8.3669480087e+01   3.7401102465e+01    0.2265426    0.2107454  52.78 0.0003140708    1.132    0.116
        46  -9.4938    230.3253    166.6608   6.5631573062e+01   2.8649178052e+00    0.1296934    0.1067474 -66.14 0.0007051355    1.727    0.421
        47  -9.2128    167.9272    112.9031   6.5586467580e+01   2.5642424382e+01    0.2524581     0.191943 -78.21  0.001124019    1.742    0.426
        48 -10.0554    205.1798    110.6636   5.7647444832e+01   1.7910534355e+01    0.3235677    0.2549181  32.49  0.001280574    1.490    0.329
        49  -9.2247     73.7304    109.4065   9.0991497921e+01   4.5352196025e+01    0.3870301    0.2235201  73.60  0.001168716    4.614    0.783
        50 -13.1449      2.3858     82.8290   1.1106405740e+02   5.8836674581e+01     1.939527          nan -65.76  0.004450429    8.325    0.880
        51  -8.6294    130.6943     96.3010   7.0100749709e+01   3.7476645868e+01    0.1549465    0.1254811 -85.51 0.0003628994    1.595    0.373
        52 -10.9783     52.1193     90.2305   9.3719637873e+01   5.2909969754e+01    0.3632582    0.2992638  65.37  0.001981639    1.580    0.367
        53  -9.9054     41.6938     92.1459   9.8071191624e+01   5.3657840530e+01    0.2474588    0.1969044  29.88 0.0004626936    1.412    0.292
        54 -10.5906     45.8340     91.6065   9.6400288190e+01   5.3331269164e+01    0.2613345    0.2347325  41.13  0.001551982    1.294    0.227
        55  -9.9219    161.8644     83.0724   5.8889461051e+01   3.2869111130e+01    0.2376102    0.2052981 -71.78 0.0005817223    1.241    0.194
        56 -12.8008     79.7317    156.8166   9.9022835375e+01   3.2504260774e+01     0.937097    0.7379664 -67.40  0.001266907    1.221    0.181
        57 -10.8134     13.4583     60.2080   1.0154013068e+02   6.3268180891e+01    0.2252569    0.1851462 -39.84 0.0004001198    1.046    0.044
        58 -11.0763     59.3245    230.3406   1.1339165556e+02   1.8057283680e+01    0.3045768    0.2236559 -66.43 0.0009642333    1.461    0.316
        59 -11.7167    206.9682     41.2153   4.0536243249e+01   2.8804188833e+01     0.506578    0.3806208  58.83  0.001451223    1.416    0.294
        60 -13.4467     11.3113    232.6595   1.2312179419e+02   2.2988567749e+01    0.9226939    0.5003482  86.34  0.003196326    1.595    0.373
        61 -10.7990     11.4341     52.7139   1.0040616300e+02   6.4966621016e+01    0.2138745    0.1696705 -39.36  0.001274849    1.041    0.039
        62 -10.8840    129.8085     37.3423   5.1879117785e+01   4.7784810258e+01     0.332661    0.2508101 -70.05 0.0006370878    1.668    0.400
        63 -10.5069    189.4473     15.1277   3.6164655445e+01   3.5992835992e+01    0.2486016    0.1667734  86.61 0.0007745276    1.362    0.266
        64 -14.9664     59.2629    248.6186   1.1494579127e+02   1.4402479665e+01     10.30619     3.075022  25.72   0.01932905   17.326    0.942
        65 -12.8364     58.4402    242.9867   1.1465467650e+02   1.5604364153e+01    0.4886096     0.344434  49.55 0.0007722998    1.180    0.153
