#   1 NUMBER                 Running object number                                     
#   2 MAG_AUTO               Kron-like elliptical aperture magnitude                    [mag]
#   3 X_IMAGE                Object position along x                                    [pixel]
#   4 Y_IMAGE                Object position along y                                    [pixel]
#   5 X_WORLD                Barycenter position along world x axis                     [deg]
#   6 Y_WORLD                Barycenter position along world y axis                     [deg]
#   7 A_WORLD                Profile RMS along major axis (world units)                 [deg]
#   8 B_WORLD                Profile RMS along minor axis (world units)                 [deg]
#   9 THETA_WORLD            Position angle (CCW/world-x)                               [deg]
#  10 FWHM_WORLD             FWHM assuming a gaussian core                              [deg]
#  11 ELONGATION             A_IMAGE/B_IMAGE                                           
#  12 ELLIPTICITY            1 - B_IMAGE/A_IMAGE                                       
         1 -12.9954    237.4587     30.3398   2.8928142126e+02   5.9810548175e+00    0.1053021   0.03534359 -65.91  0.007302273    3.533    0.717
         2 -12.3658    223.9556     16.9227   2.8935844176e+02   6.2176238460e+00    0.1378978   0.06424535 -30.76  0.009654405    3.757    0.734
         3 -12.9703    248.5284     22.5447   2.8910324950e+02   6.0020961896e+00    0.1452181   0.05883965 -70.15    0.0106491    3.263    0.694
         4 -13.7497    248.5502     79.9260   2.8945414852e+02   5.3452932120e+00    0.3045345   0.02017105 -59.54   0.01395239    7.774    0.871
         5 -13.1824    246.6528     45.5321   2.8926608662e+02   5.7506511207e+00    0.2016584          nan -53.31  0.009027667    8.067    0.876
         6 -12.2621    224.1661     82.6819   2.8975827750e+02   5.4636009731e+00     0.139843    0.0323283 -44.05  0.006629632    7.520    0.867
         7 -12.9818    235.7355     87.5475   2.8965169300e+02   5.3367888461e+00    0.1692161   0.05818655 -74.94   0.00687082   11.095    0.910
         8 -10.6286     15.5078     11.8978   2.9179152755e+02   7.5511675407e+00   0.01952859   0.00959783 -46.71   0.00171988    2.111    0.526
         9 -10.0287    110.9473      5.0806   2.9062045915e+02   7.0467163912e+00   0.01053379  0.009482657 -38.07  0.001256505    1.136    0.120
        10  -8.1184     64.3856      4.7345   2.9116916993e+02   7.3353025811e+00  0.007155275  0.004782258  54.30 0.0006983883    1.696    0.410
        11  -9.6169     50.9166      3.7937   2.9132284666e+02   7.4282590596e+00   0.01027588  0.009324794 -54.11 0.0003015452    1.118    0.105
        12  -9.0078      1.9942      2.4997   2.9189426942e+02   7.7409793610e+00   0.01043467  0.004609918  47.68 0.0008106327    2.651    0.623
        13 -10.1612     20.7597      6.9142   2.9169894168e+02   7.5762780344e+00   0.01365384   0.01068144  75.73 0.0008982132    1.517    0.341
        14 -10.4411     12.1779      5.5076   2.9179199326e+02   7.6446079298e+00   0.01155984   0.01103633 -62.55 0.0002743288    1.073    0.068
        15  -9.5117    190.2769    225.9711   2.9103118715e+02   4.0289377975e+00    0.0193224  0.009184459 -65.87  0.001121218    2.290    0.563
        16  -9.3186    224.5170    249.3940   2.9077055897e+02   3.5507924233e+00   0.01541375   0.01117508 -83.48  0.001608985    1.642    0.391
        17 -10.2389    218.3861    247.5611   2.9083155584e+02   3.6093351391e+00   0.02335552   0.01364393 -75.13  0.001919007    2.089    0.521
        18  -9.0226    201.5027    221.1430   2.9086962827e+02   4.0155821218e+00   0.01016741  0.006618985 -61.72   0.00102532    1.567    0.362
        19  -9.1652    202.5308    249.7370   2.9103138835e+02   3.6814318559e+00   0.01513168  0.008241859 -34.87   0.00131042    2.309    0.567
        20  -9.8800    198.3987    226.9468   2.9094147955e+02   3.9680359417e+00   0.02447332   0.01502675 -36.95  0.002354085    1.859    0.462
        21 -10.3934    206.4197    225.7574   2.9083980507e+02   3.9325669559e+00   0.02981814   0.01400281 -72.04  0.002391589    2.731    0.634
        22 -11.2067    209.2874    247.5982   2.9093886190e+02   3.6646036017e+00   0.03216947   0.02685095 -68.89  0.003708921    1.254    0.202
        23 -10.1294    202.0184    242.2787   2.9099208544e+02   3.7700817718e+00   0.02515537   0.01431056 -76.32  0.001971914    2.224    0.550
        24 -10.5238    206.0829    236.7299   2.9091050349e+02   3.8088238923e+00    0.0224279   0.01935927 -86.86  0.001633601    1.272    0.214
        25 -10.0815    202.7790    232.2950   2.9092242960e+02   3.8798968535e+00    0.0163217   0.01276056 -87.57  0.001071251    1.486    0.327
        26 -10.8217    193.5845    247.4898   2.9112304516e+02   3.7619399425e+00   0.03224723   0.01731663 -64.62  0.002974316    1.961    0.490
        27  -9.7482    186.9455    247.3662   2.9120045849e+02   3.8039739977e+00   0.01635461   0.01006187 -60.13  0.001375008    1.641    0.391
        28  -9.8416    163.4812    246.0862   2.9146900757e+02   3.9621539719e+00   0.01973809  0.008817335 -68.94  0.001577246    2.667    0.625
        29 -10.1843    168.3490    249.4495   2.9143209784e+02   3.8938158870e+00   0.02303686   0.01393666 -22.70 0.0006962182    2.309    0.567
        30 -10.4879    169.6314    241.6247   2.9136947339e+02   3.9757196333e+00   0.02132944   0.01347768 -61.85  0.002054855    1.615    0.381
        31  -9.0593    242.3582    248.0486   2.9055248978e+02   3.4569663266e+00  0.009539569  0.008657851 -61.08 0.0009350347    1.126    0.112
        32  -8.8738    250.5981    245.2154   2.9043833967e+02   3.4389653096e+00  0.009635982  0.005956989 -49.90 0.0006207071    1.627    0.385
        33  -8.9797    243.4708    236.5095   2.9046919158e+02   3.5823926656e+00   0.01183209  0.008631076 -78.64  0.001005614    1.571    0.364
        34  -9.1766    240.3995    231.9434   2.9047753299e+02   3.6535388090e+00   0.01566273   0.01094569 -88.30  0.001096645    1.805    0.446
        35  -8.2793    229.6711    236.3422   2.9063052761e+02   3.6688374067e+00  0.007190448  0.004976149  61.98 0.0007051247    1.744    0.427
        36 -11.9235    232.9947    158.2948   2.9011595708e+02   4.5430586103e+00    0.2335003   0.02218652 -62.14  0.009008815   11.101    0.910
        37 -10.8460    176.4842    246.3883   2.9131770155e+02   3.8791763618e+00   0.02871481   0.01810791 -58.09  0.002905899    1.588    0.370
        38  -9.5701    156.7550    246.7760   2.9155242224e+02   3.9953595064e+00   0.01727032  0.007208022 -54.96  0.001434553    2.304    0.566
        39 -11.1672    238.6603    160.3119   2.9006155217e+02   4.4851787042e+00   0.06955388   0.02702707 -74.68  0.004257033    4.845    0.794
        40 -11.7550    247.6418    213.9330   2.9028267269e+02   3.8155704317e+00   0.06339508    0.0208186 -65.97  0.004328555    3.633    0.725
        41  -8.8323    237.6652    244.8332   2.9058813187e+02   3.5225575791e+00  0.009547186  0.006320389 -78.70 0.0009315779    1.815    0.449
        42  -9.1591    113.8093    246.3912   2.9205609547e+02   4.2621049749e+00   0.01262888   0.00543533 -65.89  0.001006856    2.565    0.610
        43  -9.4607    225.0564    242.9906   2.9072526998e+02   3.6208886435e+00   0.01728312  0.009552217 -67.64  0.001590587    1.985    0.496
        44 -11.4548    241.6695    180.5087   2.9014928600e+02   4.2352540158e+00   0.04121019   0.02051288 -68.79  0.003557432    2.306    0.566
        45 -11.4689    249.4902    150.7409   2.8987566706e+02   4.5283861279e+00   0.06865934   0.02259224 -71.02  0.003884846    5.515    0.819
        46 -11.4587    248.7326    133.2079   2.8977756425e+02   4.7339168030e+00   0.07047655   0.02146489 -69.46  0.003922599    5.629    0.822
        47 -12.6485    246.3397    163.0328   2.8998774695e+02   4.4068748579e+00    0.1301618    0.0291951 -65.59  0.006625602    6.534    0.847
        48 -11.3558    243.2670    150.5950   2.8994803649e+02   4.5682581732e+00   0.03667299    0.0185159 -49.45  0.003317961    1.991    0.498
        49 -10.2744    215.8044    233.5439   2.9077669420e+02   3.7858324519e+00   0.02119711   0.01527344 -80.47  0.001683863    1.622    0.383
        50  -9.1276    170.5663    234.7270   2.9131655731e+02   4.0491154439e+00   0.01286896  0.006222367 -57.51   0.00113495    2.030    0.507
        51  -9.2679    152.7024    233.7195   2.9152088643e+02   4.1699036681e+00   0.01258482  0.007513253 -51.07 0.0009009328    1.675    0.403
        52 -10.4551    250.0629    200.3285   2.9017130960e+02   3.9566371664e+00   0.03413153  0.009832456 -59.64  0.002391967    3.303    0.697
        53  -9.0676    145.4710    230.7002   2.9158775958e+02   4.2487437894e+00  0.009511773  0.006052645 -48.82 0.0009457257    1.590    0.371
        54  -9.2715    235.5622    227.6500   2.9050831500e+02   3.7323824085e+00   0.01989985  0.006180314 -60.01  0.001428825    3.114    0.679
        55  -8.8371    138.6696    228.4533   2.9165426773e+02   4.3160871080e+00   0.01196274  0.006181585 -61.18  0.001079248    1.958    0.489
        56  -9.6585    211.7423    227.6201   2.9078847480e+02   3.8786198498e+00   0.01270609   0.01213071 -67.51 0.0008583699    1.078    0.072
        57  -8.9874    184.5667    227.2530   2.9110623031e+02   4.0491831662e+00   0.01235342  0.006747635 -66.72  0.001125662    1.983    0.496
        58  -8.9010    151.2052    249.7957   2.9163612691e+02   3.9946410075e+00  0.009519221   0.00769984 -27.32 0.0009777127    1.346    0.257
        59  -9.6541    216.7958    223.3119   2.9070277409e+02   3.8970647298e+00   0.01750571   0.01161385  88.98  0.001622799    2.027    0.507
        60  -9.5151    180.5585    222.1877   2.9112264548e+02   4.1318025294e+00   0.02167132  0.006875555 -57.13  0.001598808    2.932    0.659
        61  -9.4855    179.5682    216.6744   2.9110078745e+02   4.2010936635e+00   0.01585048  0.006756191 -64.08  0.001283837    2.490    0.598
        62  -9.3318    185.7696    221.2449   2.9105553170e+02   4.1107235183e+00   0.01593916  0.005344867 -60.41  0.001176403    2.926    0.658
        63 -10.0792    193.4358    217.9639   2.9094528716e+02   4.1014243234e+00    0.0303071   0.01169488 -59.48  0.002424123    2.536    0.606
        64  -9.8381    193.0403    209.6763   2.9089952607e+02   4.1988825209e+00   0.01904409   0.01143024 -73.95  0.001794981    1.969    0.492
        65  -9.2701    210.8923    218.4306   2.9074257037e+02   3.9891840902e+00   0.01503098  0.009568557 -65.98  0.001430253    1.658    0.397
        66  -9.2617    219.4558    216.8725   2.9063227391e+02   3.9545953152e+00   0.01494602  0.009593617 -76.92  0.001307948    1.862    0.463
        67  -9.7156    216.9459    211.6527   2.9063004891e+02   4.0298116887e+00   0.02039014   0.01070984 -67.50   0.00152275    2.103    0.524
        68  -9.3169    224.6575    207.8074   2.9051585509e+02   4.0266461251e+00   0.01700504  0.009901071 -80.86  0.001417549    2.327    0.570
        69  -9.1002    227.6887    216.5229   2.9053323953e+02   3.9081646418e+00   0.01272134  0.009257275 -62.96 0.0007375518    1.411    0.292
        70  -8.6456    225.7726    213.0112   2.9053441373e+02   3.9601595473e+00   0.01251832   0.00836735 -68.82 0.0007861997    1.613    0.380
        71  -8.9193    205.4488    217.0730   2.9079840171e+02   4.0380867115e+00   0.01031139  0.006559937 -60.98  0.001029057    1.596    0.373
        72  -8.7021    170.5320    216.9891   2.9120915591e+02   4.2527751912e+00   0.01027222  0.006603416 -61.69 0.0009104484    1.586    0.370
        73  -9.1226    200.6398    214.8683   2.9084161470e+02   4.0928138632e+00  0.009539806  0.006443379 -77.64 0.0009470813    1.740    0.425
        74  -8.7037    132.3713    213.3096   2.9163653977e+02   4.5283237820e+00   0.00721188  0.005004395 -21.90 0.0007033995    1.770    0.435
        75  -8.8458    200.4420    210.5007   2.9081736825e+02   4.1441057657e+00   0.01152811  0.006701354 -78.31  0.000801103    2.226    0.551
        76  -9.1407    176.7677    209.8071   2.9109201610e+02   4.2969944487e+00   0.02001975  0.004871899 -59.27  0.001302835    3.761    0.734
        77  -8.7285    186.5937    210.2190   2.9097876363e+02   4.2321268897e+00  0.009713483  0.005934911 -49.64 0.0009475221    1.648    0.393
        78  -9.8571    224.2064    191.8897   2.9042421940e+02   4.2118823543e+00   0.02041843   0.01088668 -65.82  0.001859887    2.012    0.503
        79  -9.8355    229.4113    206.7324   2.9045335284e+02   4.0098369786e+00   0.02254411      0.01069 -66.94  0.001908685    2.351    0.575
        80 -10.0084    227.6301    201.2123   2.9044070066e+02   4.0840307019e+00   0.01576388  0.006275676 -59.79  0.001019195    2.475    0.596
        81  -9.6067    206.1400    206.4926   2.9072587296e+02   4.1551671285e+00   0.02610999  0.008292941 -56.76  0.001933252    2.923    0.658
        82  -9.5193    197.2423    203.9473   2.9081517114e+02   4.2388471909e+00   0.01965819  0.008357758 -53.71  0.001647968    2.272    0.560
        83  -9.3519    192.7128    202.1252   2.9085743426e+02   4.2874799408e+00    0.0128197  0.006308903 -71.21  0.001060245    2.480    0.597
        84  -8.7753    186.6443    202.8918   2.9093358774e+02   4.3158462100e+00   0.00974446   0.00642954 -77.85 0.0009517333    1.805    0.446
        85  -9.4878    223.5521    201.2730   2.9048907620e+02   4.1083269753e+00   0.01531202  0.006294575 -59.28   0.00125077    2.388    0.581
        86  -9.8799    230.0697    180.6823   2.9028689555e+02   4.3044044507e+00   0.02331848  0.008475271 -44.46   0.00168431    3.177    0.685
        87  -9.5889    230.6973    198.4669   2.9038787328e+02   4.0967009046e+00   0.01469048   0.01113466 -80.80  0.001584851    1.508    0.337
        88  -9.9536    231.2164    193.1370   2.9034929194e+02   4.1546121494e+00   0.02265843  0.009827678 -59.68  0.001502013    2.282    0.562
        89  -8.8190    210.2291    200.0043   2.9063822017e+02   4.2045095245e+00  0.009592861  0.008792568 -54.72 0.0006312159    1.108    0.097
        90  -9.3710    202.0945    197.1540   2.9071666787e+02   4.2870242362e+00   0.01459322  0.009804459 -70.68  0.001385402    1.632    0.387
        91  -9.2415    176.5098    197.2595   2.9101872449e+02   4.4424845292e+00   0.01556324  0.006354063 -59.58  0.001266215    2.410    0.585
        92  -8.8365    215.3616    197.2395   2.9056094695e+02   4.2047601761e+00  0.009394895  0.006455967 -76.63 0.0009455625    1.681    0.405
        93  -9.3351    184.6467    195.3903   2.9091147218e+02   4.4141058239e+00   0.02065073   0.00605957 -51.59  0.001455788    3.206    0.688
        94  -9.1804    209.1248    194.3068   2.9061653119e+02   4.2765993317e+00   0.01185226  0.008844295 -50.77 0.0008250591    1.350    0.259
        95  -9.2627    215.0000    191.9379   2.9053291605e+02   4.2677560372e+00   0.01075189  0.003823723 -62.03 0.0007920246    2.871    0.652
        96  -8.7879    198.6803    190.5531   2.9071669420e+02   4.3836271745e+00   0.01194321  0.006198677 -62.38  0.001075447    1.976    0.494
        97  -9.1128    178.9025    188.6082   2.9093788082e+02   4.5270576496e+00   0.01440178  0.009056278 -69.07  0.001416922    1.736    0.424
        98  -8.8758    220.4039    187.3329   2.9044123062e+02   4.2874277778e+00   0.01227268  0.006163623 -57.07  0.001060047    1.958    0.489
        99  -9.4211    223.3235    172.9879   2.9031943161e+02   4.4339700122e+00   0.01781787   0.01089397 -78.60  0.001303231    2.056    0.514
       100  -9.5575    223.8280    183.5958   2.9037814153e+02   4.3092775961e+00   0.01477324   0.01050402 -71.67  0.001042002    1.537    0.349
       101 -10.0319    226.6158    177.2862   2.9030686303e+02   4.3645109169e+00    0.0259534   0.01034661 -46.10  0.002029915    2.691    0.628
       102  -9.6423    227.5761    171.3001   2.9025906534e+02   4.4272372051e+00   0.01545301   0.01000885 -73.60 0.0009244088    1.765    0.434
       103  -9.3088    203.5516    183.0067   2.9061335279e+02   4.4403095353e+00    0.0147431  0.006611595 -62.30  0.001238672    2.287    0.563
       104  -8.3491    173.3075    184.6727   2.9097986560e+02   4.6064476097e+00  0.007009297  0.005019674  62.44 0.0003322555    1.655    0.396
       105  -8.8778    217.8376    182.9845   2.9044495706e+02   4.3530085155e+00    0.0120277  0.008919795 -65.06 0.0009661676    1.400    0.286
       106  -9.9912    211.1165    180.9961   2.9051199719e+02   4.4170013378e+00   0.02359571  0.008461143 -54.14  0.001814833    2.634    0.620
       107  -9.5213    210.5317    175.4725   2.9048523082e+02   4.4839125689e+00   0.01799152  0.009309348 -59.88  0.001304418    1.935    0.483
       108  -8.8048    210.4182    188.9531   2.9056869341e+02   4.3300552717e+00   0.01015224  0.006571907 -63.24 0.0006583448    1.592    0.372
       109  -8.6891    190.7677    179.0009   2.9073956808e+02   4.5645665940e+00  0.009177249  0.005594828 -61.92 0.0008902766    1.675    0.403
       110  -8.9695    218.8387    177.5457   2.9040002596e+02   4.4092203083e+00   0.01307251  0.004506641 -58.86 0.0009804574    2.784    0.641
       111  -9.4376    215.3914    173.1859   2.9041405553e+02   4.4803353038e+00   0.01222226  0.009826539 -74.73 0.0008769719    1.345    0.256
       112  -9.3298    205.0000    176.4476   2.9055633318e+02   4.5066376584e+00   0.01417264  0.003823929 -62.06  0.000915864    3.784    0.736
       113  -8.8228    197.5343    176.0551   2.9064189612e+02   4.5568881858e+00   0.01024798  0.006610475 -61.94  0.001028424    1.584    0.369
       114  -9.6517    230.0366    187.1193   2.9032651432e+02   4.2308233119e+00   0.01747377   0.01271024 -65.56  0.001030146    1.433    0.302
       115  -8.8729    124.5159    174.5336   2.9149351309e+02   5.0212366498e+00  0.006643571  0.006448581  -1.42  0.000274264    1.029    0.029
       116  -9.1473    222.0000    156.4501   2.9023418736e+02   4.6316506994e+00   0.01891952  0.004677001 -63.03  0.001118646    4.367    0.771
       117  -9.1313    221.2466    151.9673   2.9021572124e+02   4.6876534764e+00   0.01516287  0.008482623 -53.40  0.001063285    1.768    0.434
       118  -9.9122    218.6741    167.4247   2.9034027574e+02   4.5262505050e+00   0.02038142   0.01447299 -48.54   0.00199863    1.426    0.299
       119  -9.5964    221.2708    161.4740   2.9027341186e+02   4.5785379754e+00   0.01630414  0.008825191 -55.04  0.001063061    1.820    0.451
       120  -9.0259    205.0829    168.6456   2.9050781609e+02   4.5955803174e+00   0.01198444  0.009277386 -77.68  0.001309786    1.436    0.304
       121  -8.9993    228.8751    165.6646   2.9020941066e+02   4.4838637554e+00   0.01219723  0.008464428 -51.04  0.001206205    1.448    0.309
       122  -9.9625    212.9760    162.7960   2.9037917613e+02   4.6142515803e+00   0.02126505  0.009522065 -59.25     0.001819    2.206    0.547
       123  -8.6823    199.5664    164.7099   2.9054882717e+02   4.6745158704e+00   0.01304749  0.006110657 -56.49  0.001134804    2.082    0.520
       124  -8.7766    191.4922    165.0063   2.9064577993e+02   4.7205993390e+00    0.0104155  0.006566547 -60.21  0.001035855    1.603    0.376
       125  -9.5880    205.5281    160.4931   2.9045288054e+02   4.6863164242e+00   0.02008026   0.01086167 -47.23   0.00186075    1.899    0.473
       126  -9.7488    226.4961    156.4314   2.9018111926e+02   4.6042839662e+00    0.0234518  0.009043468 -64.11  0.001807308    2.785    0.641
       127  -9.9197    228.4203    150.0915   2.9011978576e+02   4.6651407032e+00   0.02686079   0.00831187 -53.20   0.00196248    3.001    0.667
       128  -9.0013    176.6127    159.0018   2.9078458125e+02   4.8806122124e+00   0.01479194  0.006406526 -61.50  0.001182088    2.338    0.572
       129  -9.1242    216.1924    156.1579   2.9030081409e+02   4.6706213603e+00   0.01460274  0.008963835 -63.56  0.001437676    1.686    0.407
       130  -9.1893    197.2527    156.0184   2.9052311698e+02   4.7883467115e+00   0.01610599  0.006154077 -49.01  0.001254004    2.637    0.621
       131  -9.0859    215.3393    148.4450   2.9026382611e+02   4.7642619690e+00   0.01323712  0.008476946 -68.47  0.001315859    1.690    0.408
       132  -8.9731    152.4980    161.4871   2.9108406740e+02   4.9997577881e+00  0.006642841  0.006466119   0.20 0.0003070012    1.024    0.024
       133 -10.0512    229.6714    140.5237   2.9004667507e+02   4.7671132458e+00   0.02578438   0.01179147 -58.29  0.002052609    2.147    0.534
       134 -10.2501    223.4059    145.8157   2.9015276212e+02   4.7449116050e+00   0.02044323   0.01386247 -47.04   0.00131251    1.505    0.335
       135  -9.9270    224.2803    139.8201   2.9010588122e+02   4.8082612488e+00   0.01981368  0.009756453 -58.89  0.001286139    2.013    0.503
       136  -8.9256    207.9893    144.5251   2.9032651695e+02   4.8542749447e+00   0.01095859  0.008886375 -59.70  0.001050503    1.253    0.202
       137  -9.4842    218.5974    143.7808   2.9019699200e+02   4.7977365287e+00   0.01673632  0.009862559 -45.07  0.001320703    1.773    0.436
       138 -10.6214    218.6158    137.9043   2.9016092214e+02   4.8649748722e+00   0.02007943   0.01206471 -57.72  0.001394745    1.660    0.398
       139  -9.0899    155.5086    143.5136   2.9093909083e+02   5.1874722701e+00   0.01162979  0.006740256 -78.56  0.001029992    2.248    0.555
       140  -9.6902    138.7664    142.8462   2.9113254300e+02   5.2975972502e+00   0.01687478  0.007180316 -55.14  0.001413263    2.264    0.558
       141  -8.7152    214.0000    142.0090   2.9024034658e+02   4.8462479803e+00   0.01091223  0.003823703 -62.01 0.0007982649    2.914    0.657
       142  -9.4883    208.2985    137.1423   2.9027783846e+02   4.9370042730e+00   0.01631139  0.008724381 -59.70   0.00135643    1.872    0.466
       143  -7.8868    192.6679    136.6641   2.9045914744e+02   5.0383412781e+00  0.007192759  0.004985292 -25.44 0.0007052154    1.735    0.424
       144  -9.7593    225.5889    133.0515   2.9004916028e+02   4.8777981002e+00   0.01563803   0.01227548 -39.54  0.001044497    1.331    0.249
       145  -9.9902    221.1179    129.6538   2.9008109519e+02   4.9441756967e+00   0.02699496   0.01075157 -68.72  0.001996391    3.134    0.681
       146  -9.4898    142.6432    131.0408   2.9101488186e+02   5.4092710956e+00   0.01533763  0.006346723 -62.06  0.001239647    2.468    0.595
       147  -9.8060    205.4279    128.8221   2.9026090600e+02   5.0499788998e+00    0.0235172  0.008425808 -65.01   0.00171708    3.119    0.679
       148  -7.9919    192.2967    128.3668   2.9041291342e+02   5.1357332677e+00  0.007189437  0.004912933 -29.25 0.0006912101    1.724    0.420
       149 -10.5115    134.9463    125.6625   2.9107294610e+02   5.5180547099e+00   0.01997213   0.01119738 -57.43  0.001905706    1.770    0.435
       150  -9.7968    227.6378    124.4032   2.8997223473e+02   4.9643223188e+00    0.0167753   0.01168718 -64.60  0.001151063    1.490    0.329
       151  -9.2144    179.5596    123.7216   2.9053476345e+02   5.2670732797e+00   0.01311118  0.006110323 -56.43  0.001137974    2.092    0.522
       152 -11.4302    230.7412    115.5299   2.8988149458e+02   5.0469366488e+00   0.04323384   0.01250812 -66.20  0.002665727    4.453    0.775
       153 -10.0795    224.2876    116.9416   2.8996614514e+02   5.0703863532e+00   0.02278057  0.003808197 -56.59  0.001335361    4.606    0.783
       154  -9.2589    140.4943    116.9912   2.9095461820e+02   5.5835397082e+00   0.01043644  0.006557473 -60.01   0.00103662    1.607    0.378
       155  -8.4033    218.6123    109.1990   2.8998573818e+02   5.1939431205e+00  0.009785133   0.00588701 -50.02 0.0009479187    1.670    0.401
       156  -9.3591    133.5593    108.6751   2.9098578247e+02   5.7213446381e+00   0.01327606  0.006108528 -56.60  0.001145839    2.117    0.528
       157  -9.1713    222.4597    104.4135   2.8991117216e+02   5.2251489440e+00   0.01718063  0.006539909 -61.44  0.001242676    2.653    0.623
       158 -10.8917    225.0109     99.2226   2.8984939926e+02   5.2689484688e+00   0.01445276   0.00925498 -56.19 0.0006746181    1.558    0.358
       159 -11.9835    229.6598    102.5441   2.8981491642e+02   5.2023457464e+00   0.02621098   0.02211776 -28.14  0.003037412    1.263    0.209
       160  -9.1102     42.8787    243.8114   2.9287665736e+02   4.7240843561e+00   0.01023482  0.009043359 -13.56  0.000618971    1.199    0.166
       161  -8.8288    142.6050    243.1993   2.9169741000e+02   4.1228652782e+00  0.009793319  0.005914066 -50.19 0.0009507875    1.663    0.399
       162 -10.5958    240.4368    208.3316   2.9033333209e+02   3.9239312790e+00   0.02902886   0.01676665 -87.83  0.002148459    2.677    0.626
       163 -11.3185    245.5365    191.6748   2.9017183663e+02   4.0835669619e+00   0.04035868   0.02774977 -77.73  0.004134259    1.698    0.411
       164 -11.3999    224.9663     92.6981   2.8981006139e+02   5.3439609104e+00   0.02167721   0.01284999 -56.65  0.002127245    1.677    0.404
       165 -10.7169    230.9868     90.4858   2.8972559978e+02   5.3323154972e+00   0.02739231   0.01122353 -49.12  0.002220402    2.457    0.593
       166  -9.9853    110.8063     95.1792   2.9117219457e+02   6.0152851478e+00    0.0157716  0.007240745 -48.32  0.001343365    2.218    0.549
       167 -11.8653    234.3344     95.9327   2.8971944760e+02   5.2493606011e+00   0.03147916    0.0175398 -41.65  0.002910124    1.977    0.494
       168  -8.2397    188.3018     86.3464   2.9020352202e+02   5.6418191663e+00  0.007111141  0.004959632 -27.96 0.0003934315    1.686    0.407
       169  -8.7733    217.6697     84.7858   2.8984770307e+02   5.4794106732e+00  0.009229603  0.006339803 -73.90 0.0008036509    1.639    0.390
       170  -9.3202    140.8111    102.3988   2.9086190405e+02   5.7489154187e+00   0.01291468  0.005422729 -65.61  0.001016734    2.629    0.620
       171  -8.6253    143.0000     79.9800   2.9069927899e+02   5.9924998650e+00     0.011097  0.003823209 -62.04  0.000805536    2.964    0.663
       172 -10.5225    119.5806     78.1869   2.9096492480e+02   6.1564225703e+00    0.0201902   0.01044396 -54.17  0.001723571    1.899    0.473
       173 -10.2062    225.9998     87.5076   2.8976616202e+02   5.3970649228e+00   0.01637653  0.009767419 -56.09 0.0009269949    1.666    0.400
       174  -8.5015    206.2908     73.3605   2.8991202397e+02   5.6801601537e+00  0.007128403  0.004922917 -29.42 0.0003198217    1.694    0.410
       175  -9.5728    200.9953     77.2478   2.8999822629e+02   5.6681494303e+00   0.01739462  0.009520067 -58.36  0.001275051    1.818    0.450
       176  -9.0791    162.4941     70.9820   2.9041419782e+02   5.9761520122e+00   0.01244764  0.009034546  -0.22  0.001287822    1.629    0.386
       177  -8.5575     70.5731     71.5010   2.9150332844e+02   6.5325637275e+00  0.006597493  0.006432331 -13.45 4.676493e-05    1.030    0.029
       178  -8.5990    194.6837     66.6818   2.9000809023e+02   5.8279255168e+00  0.007024668  0.005016849 -25.15 0.0007039367    1.654    0.395
       179  -8.0396    208.3037     63.3718   2.8982722425e+02   5.7821940072e+00  0.007239294  0.004905527 -28.86 0.0003913913    1.755    0.430
       180  -8.3663     30.9685     62.0480   2.9191413440e+02   6.8823924490e+00  0.007818349  0.007574961  23.94            0    1.011    0.011
       181  -8.4162    206.5055     58.4837   2.8981854075e+02   5.8492137592e+00  0.006625456   0.00647518  11.17 0.0008104247    1.010    0.010
       182  -8.3837     32.9808     58.0016   2.9186568495e+02   6.9165252737e+00  0.007742539  0.007595552  17.07            0    1.003    0.003
       183 -12.5351    231.6199     80.3951   2.8965646154e+02   5.4439903097e+00    0.0562112   0.02259645 -46.48  0.004450513    2.643    0.622
       184  -8.7450     99.9698     54.2916   2.9105085286e+02   6.5502390510e+00  0.009057567  0.008526139  12.50 0.0002420236    1.055    0.052
       185 -10.0562    230.9910     50.6862   2.8948217626e+02   5.7879979743e+00  0.009596948  0.008881124  30.96 0.0008153145    1.057    0.054
       186 -10.7138    221.2711     40.1370   2.8953220107e+02   5.9685053534e+00   0.01881579   0.00986551 -50.58  0.001731766    1.903    0.475
       187 -12.9369    242.7804    136.8832   2.8987008113e+02   4.7283589768e+00     0.149859   0.05850908 -76.32  0.008477449    5.757    0.826
       188  -9.0966    109.2699     31.3249   2.9080068610e+02   6.7564756820e+00   0.01091937  0.009368901 -74.52  0.000596137    1.239    0.193
       189  -9.0053      1.4688     31.5181   2.9207733475e+02   7.4117850181e+00  0.006607369  0.006461778  29.14 4.727345e-05    1.013    0.013
       190 -11.9308    236.4025    191.1523   2.9027615337e+02   4.1455658850e+00    0.1280078   0.02082822 -61.93  0.006610021    6.187    0.838
       191  -8.7206     42.2702     28.0270   2.9157307007e+02   7.2034335277e+00  0.008783392  0.008548474 -76.00 0.0002719045    1.061    0.058
       192  -8.5012     57.9496     25.9820   2.9137504722e+02   7.1312473214e+00   0.00807059  0.007343437  25.00 0.0004075922    1.076    0.071
       193  -9.0256     84.5975     21.7035   2.9103366989e+02   7.0175412118e+00   0.01171499  0.007560385  49.08 0.0007649499    1.666    0.400
       194  -8.4999     59.9544     21.0104   2.9132098440e+02   7.1759619988e+00  0.007959431  0.007593126  23.93  0.000452571    1.026    0.025
       195 -10.6687    242.8882    200.3328   2.9025575889e+02   4.0005785890e+00   0.02987095   0.01509926 -60.00  0.001937889    1.981    0.495
       196  -8.9705     23.3020     15.9393   2.9172388445e+02   7.4574424955e+00  0.009185251  0.008616168 -48.95 0.0004728472    1.080    0.074
       197  -9.5121     29.7181     13.0085   2.9163004390e+02   7.4519408129e+00   0.01074886  0.009302814  22.01 0.0003107186    1.141    0.124
       198  -9.2190    239.9537    240.4723   2.9053467871e+02   3.5585206450e+00   0.01263575  0.009389554  84.76 0.0008949023    1.661    0.398
       199 -11.9513    240.2480    220.2795   2.9040831274e+02   3.7881493210e+00   0.09469888   0.05105684  71.28  0.006977624    3.592    0.722
       200  -9.2436    214.1194    240.7400   2.9084029230e+02   3.7136504602e+00   0.01119119  0.009376876  89.78 0.0007856499    1.341    0.254
       201  -9.6018    183.3610    239.7384   2.9119631809e+02   3.9133753609e+00   0.01893719   0.01208559 -82.48  0.001511941    2.011    0.503
       202  -8.9828    248.2611    240.1798   2.9043518192e+02   3.5109855958e+00  0.009869384  0.008870521 -44.89  0.000929761    1.129    0.114
       203  -8.9772    219.5520    239.5620   2.9076919196e+02   3.6938949469e+00   0.01365078   0.00663485 -62.74   0.00119123    2.122    0.529
       204 -10.5259    190.6502    234.8045   2.9108049597e+02   3.9253566754e+00   0.03355209   0.01999166 -83.92  0.002998683    2.338    0.572
