#   1 NUMBER                 Running object number                                     
#   2 MAG_AUTO               Kron-like elliptical aperture magnitude                    [mag]
#   3 X_IMAGE                Object position along x                                    [pixel]
#   4 Y_IMAGE                Object position along y                                    [pixel]
#   5 X_WORLD                Barycenter position along world x axis                     [deg]
#   6 Y_WORLD                Barycenter position along world y axis                     [deg]
#   7 A_WORLD                Profile RMS along major axis (world units)                 [deg]
#   8 B_WORLD                Profile RMS along minor axis (world units)                 [deg]
#   9 THETA_WORLD            Position angle (CCW/world-x)                               [deg]
#  10 FWHM_WORLD             FWHM assuming a gaussian core                              [deg]
#  11 ELONGATION             A_IMAGE/B_IMAGE                                           
#  12 ELLIPTICITY            1 - B_IMAGE/A_IMAGE                                       
         1 -13.7262      6.8554     14.4591   1.2331953118e+02   7.1319173962e+01     2.679749    0.6524581 -54.31   0.01208296    2.606    0.616
         2 -14.0087    201.2135     10.0296   6.6617317719e+01   3.2899156117e+01       2.1428       1.1982  42.70  0.009309363    1.937    0.484
         3 -13.4503    188.9176     27.7436   7.3889106719e+01   3.4236140235e+01     1.287281     1.172699  45.16  0.005622305    1.107    0.097
         4 -14.5431     54.5729    210.0185   1.3811710950e+02   2.7820476109e+01     7.805342     1.145524  51.28   0.03110014    4.721    0.788
         5 -10.6990    249.1184    248.6929   1.1208799478e+02  -3.6971555350e+00    0.1871947     0.141776 -11.05  0.001663709    1.570    0.363
         6 -11.3199    140.4737    250.0187   1.2781002558e+02   1.1296593115e+01     0.379432     0.116183  44.50   0.00208384    2.286    0.562
         7 -10.5942     98.9770    249.4951   1.3390255971e+02   1.6849241848e+01    0.2419003    0.1090886  53.91   0.00128793    1.636    0.389
         8 -10.7115    102.7096    248.0059   1.3324395149e+02   1.6559270525e+01    0.2165289    0.1148978  53.47 0.0009045583    1.350    0.259
         9  -9.5811     74.3483    250.3498   1.3755622089e+02   1.9749034966e+01    0.1192992    0.1014512  38.92  0.001033042    1.652    0.395
        10 -10.4415     67.3996    250.1620   1.3854912854e+02   2.0581569571e+01    0.1895627    0.1191653  47.70 0.0008442181    1.291    0.225
        11  -9.2127     63.2508    250.6392   1.3917134539e+02   2.0992783362e+01    0.1197326    0.0670547  42.17 0.0002942455    1.589    0.371
        12 -13.5427     33.7823    246.7898   1.4318116683e+02   2.4677842739e+01     1.838246    0.7028912  36.43   0.01173092    2.830    0.647
        13 -10.2690    152.0925    248.3221   1.2593294088e+02   9.8740457250e+00    0.1473628   0.09398092  46.01 0.0004831259    1.104    0.094
        14 -14.8663     18.0164    169.7230   1.4200771817e+02   3.8472698325e+01     5.075509     1.367567  87.84   0.01795079    6.250    0.840
        15 -10.9362     83.8653    244.6843   1.3580884173e+02   1.9343900817e+01    0.3538826    0.1226131  57.78  0.002012984    2.602    0.616
        16 -10.9063    196.4227    242.1447   1.1873013317e+02   4.1753120841e+00    0.4012764    0.2458925 -67.86  0.002037743    5.563    0.820
        17  -9.8201     75.2001    243.8568   1.3704077652e+02   2.0498964955e+01    0.1480786   0.08820651  62.29 0.0007143107    1.260    0.206
        18 -13.5270     10.1618    206.7919   1.4511029431e+02   3.2874245929e+01    0.7068691    0.5547625  75.17   0.00268386    1.262    0.208
        19 -12.5812     44.0379    233.4967   1.4109878346e+02   2.5463740427e+01    0.2424871    0.1961454  73.22 0.0007635789    1.304    0.233
        20 -10.1902     66.4130    242.8157   1.3827743318e+02   2.1670390154e+01    0.1742258    0.1104184  63.30 0.0006144311    1.142    0.125
        21 -12.4090     27.5849    203.7448   1.4217969406e+02   3.1709201248e+01     0.406886    0.1643523  49.83  0.001307614    1.810    0.448
        22 -10.1066     21.0239    238.9966   1.4468852255e+02   2.7022394872e+01    0.1326135   0.06668031  63.08 0.0005262837    1.337    0.252
        23 -13.2848      6.5203    187.1468   1.4491208548e+02   3.6431353177e+01     1.350025    0.5510562 -75.01  0.001814783    2.193    0.544
        24 -11.0245    233.0775    235.9963   1.1267681824e+02  -5.4416733126e-01    0.2853239     0.217902 -69.00   0.00187101    3.523    0.716
        25  -9.6760    183.2365    238.5855   1.2027262072e+02   6.4337071244e+00    0.1485909    0.0720572  37.92 0.0005955729    1.599    0.375
        26  -9.5837     34.7856    229.7611   1.4230320689e+02   2.6975710344e+01    0.1764018   0.09445635  61.93 0.0005120221    1.300    0.231
        27 -10.5441     19.9715    227.7115   1.4442027438e+02   2.8750754375e+01    0.1299294   0.08220267  61.56 0.0006282934    1.064    0.061
        28 -10.9881    173.6411    222.1043   1.1981236283e+02   9.6295128113e+00    0.3280769    0.2411259  68.97  0.002335526    1.753    0.430
        29 -13.9244     50.0737    224.3714   1.3969995900e+02   2.6136341037e+01    0.8579104    0.5248924  69.76  0.006034628    1.257    0.205
        30  -9.6449     27.6873    221.7213   1.4301345897e+02   2.8889009426e+01    0.1696536    0.1042367  64.20 0.0003794752    1.105    0.095
        31 -10.7704     46.2894    248.5348   1.4148758031e+02   2.3138517693e+01    0.2538811   0.09847134  59.91 0.0007557028    1.900    0.474
        32  -8.7810    152.4924    212.8894   1.2210449889e+02   1.3993263069e+01     0.123774    0.1101907 -58.72 0.0003636421    1.437    0.304
        33 -11.3773     68.3477    198.7364   1.3498103607e+02   2.7992086550e+01    0.2598607    0.1997544 -52.69  0.001748071    1.898    0.473
        34  -9.7517    192.3595    193.8475   1.1297854966e+02   9.9304870732e+00     0.421219    0.2041637 -58.67  0.001505374    6.775    0.852
        35 -11.6083     73.5423    190.9900   1.3341865034e+02   2.8620885346e+01    0.2078554    0.1882153 -85.78 0.0007606807    1.359    0.264
        36  -8.5151    105.0790    181.0430   1.2662885591e+02   2.5947886476e+01    0.1299723    0.1070635  64.16 0.0009231499    1.017    0.017
        37 -13.2432     69.9594    176.1222   1.3271490900e+02   3.1640928866e+01    0.3775472    0.2438282 -47.36  0.001840409    2.303    0.566
        38 -10.8047     82.4600    178.3405   1.3057234371e+02   2.9613226399e+01    0.1940036     0.165101  68.20  0.000340059    1.119    0.106
        39  -8.8608    171.9747    173.9419   1.1336059951e+02   1.6037566458e+01    0.1801123    0.1387968  72.21 0.0005199169    1.620    0.383
        40 -11.8887     89.0596    168.6213   1.2823464533e+02   3.0420379635e+01     0.542008    0.4506014  75.36  0.003904605    1.044    0.043
        41 -12.8077     66.4956    143.5263   1.2988827145e+02   3.8217222795e+01     1.221511    0.5843847  79.67  0.003978503    3.240    0.691
        42 -10.4563    193.0300    156.7530   1.0665755674e+02   1.4593215379e+01    0.3282056    0.2479721 -75.09  0.001155555    2.158    0.537
        43  -9.7607    100.9869    152.4138   1.2373002399e+02   3.1626537407e+01    0.2262418    0.2019068  80.08 0.0007356024    1.068    0.064
        44 -11.9293     89.8759    151.8611   1.2596871607e+02   3.3395775782e+01    0.2224076    0.2177865 -81.69 0.0005704545    1.309    0.236
        45 -14.7814      3.3315    234.5644   1.4704965282e+02   2.9289945985e+01     7.585209    0.6103915 -76.61   0.03134867    7.960    0.874
        46  -9.0795    103.7454    148.0978   1.2252196966e+02   3.2004898303e+01    0.1816066    0.1408676 -30.91  0.001057014    1.910    0.476
        47 -11.8140     28.9732    139.6754   1.3765725356e+02   4.3178341667e+01    0.3158539     0.171182  73.37  0.001934588    1.693    0.409
        48 -10.0314    174.5111    137.9373   1.0638569169e+02   2.0961973481e+01    0.3295953    0.2397313  89.75  0.001632677    2.175    0.540
        49  -9.6214    111.2511    137.3428   1.1920029559e+02   3.2828128278e+01    0.2522732    0.2101543 -14.11  0.001412866    1.789    0.441
        50  -8.5763    192.0282    143.9837   1.0437742572e+02   1.6586368566e+01    0.1526354    0.1414602  18.04 0.0004002892    1.057    0.054
        51 -10.7308     98.9101    135.0301   1.2152434826e+02   3.5278659184e+01    0.2768936    0.2107284 -49.04 0.0008072761    1.483    0.326
        52  -9.7857    167.9131    131.9232   1.0642104644e+02   2.3247263075e+01    0.2263202    0.1859818  66.37  0.000580668    1.324    0.245
        53  -9.1356    108.1012    124.1603   1.1755714590e+02   3.5922497052e+01    0.1722002    0.1674284  70.56 0.0002784374    1.144    0.126
        54 -11.2275     53.8058    119.7297   1.2971750416e+02   4.4644368268e+01    0.3828297    0.1605388 -70.03  0.001846232    2.200    0.546
        55  -9.6318    155.7469    120.9375   1.0651450884e+02   2.7571186688e+01    0.4092785    0.2588515  82.52  0.001635782    3.011    0.668
        56 -10.6360    168.0817    113.3262   1.0229468465e+02   2.6309743417e+01    0.3413048    0.2789292 -79.35  0.001005656    1.546    0.353
        57  -9.2509    203.5498    111.2396   9.5177645749e+01   1.8972650824e+01    0.1935989    0.1316039 -13.66 0.0009403598    1.663    0.399
        58 -10.5800     43.1932    109.3946   1.3093745672e+02   4.8024184077e+01    0.2851672     0.195529  50.32  0.001472182    1.501    0.334
        59  -9.3425     29.5638     91.0026   1.3197688046e+02   5.3337699900e+01     0.274453    0.1063683  48.71   0.00130992    2.878    0.653
        60  -9.4588    155.3792     75.7622   9.5133044856e+01   3.5607457751e+01    0.2096954    0.1409296 -24.79 0.0006617385    1.638    0.390
        61 -10.0514     20.3629     67.5792   1.3099965563e+02   5.9216988714e+01    0.2421581    0.1639553  58.24 0.0008697099    1.690    0.408
        62 -10.9340     18.2921     56.9188   1.2969914928e+02   6.1687861161e+01    0.4622551    0.1668304  39.32  0.001704649    3.203    0.688
        63  -9.9741    161.8190    249.3108   1.2459173982e+02   8.4065013581e+00    0.1327153    0.1036743  50.13 0.0006829954    1.154    0.134
        64 -10.6025     81.5977    248.6429   1.3639728458e+02   1.9105688469e+01      0.20072    0.1247341  63.83 0.0008761616    1.250    0.200
