#   1 NUMBER                 Running object number                                     
#   2 MAG_AUTO               Kron-like elliptical aperture magnitude                    [mag]
#   3 X_IMAGE                Object position along x                                    [pixel]
#   4 Y_IMAGE                Object position along y                                    [pixel]
#   5 X_WORLD                Barycenter position along world x axis                     [deg]
#   6 Y_WORLD                Barycenter position along world y axis                     [deg]
#   7 A_WORLD                Profile RMS along major axis (world units)                 [deg]
#   8 B_WORLD                Profile RMS along minor axis (world units)                 [deg]
#   9 THETA_WORLD            Position angle (CCW/world-x)                               [deg]
#  10 FWHM_WORLD             FWHM assuming a gaussian core                              [deg]
#  11 ELONGATION             A_IMAGE/B_IMAGE                                           
#  12 ELLIPTICITY            1 - B_IMAGE/A_IMAGE                                       
         1 -14.6118     68.4390    144.2626   1.1041628987e+02   3.7365212432e+01     5.395173     2.485791  66.37  0.003773918    3.924    0.745
         2 -14.3980    201.1059     32.8581   4.9630920048e+01   3.0748848204e+01     2.157881     1.538154  10.77  0.008498163    2.014    0.503
         3 -12.4473    209.4981     24.0541   4.6187208077e+01   2.9720987091e+01    0.4625499    0.3650194  30.78  0.001098296    1.600    0.375
         4 -14.1679    215.2332     17.6209   4.3864418705e+01   2.9048254719e+01     1.275578     1.070223  24.02  0.003233442    1.537    0.350
         5 -12.4752      3.2767     23.9473   1.0630323683e+02   7.0153398330e+01     0.586355    0.3598525 -65.92  0.003682285    1.817    0.450
         6 -12.7110      4.3869      6.1324   9.8711273964e+01   7.3192164257e+01    0.8458034    0.4006976 -38.65  0.005203431    1.559    0.358
         7  -9.7417     49.6651      7.3052   7.6461655728e+01   6.8124605931e+01    0.1041425   0.09732004 -49.91 0.0002284241    1.667    0.400
         8 -10.2758     42.6113      3.7863   7.7721361217e+01   6.9578283696e+01    0.1597314    0.0978221 -34.87  0.000486872    1.666    0.400
         9  -8.9415    107.5894    203.4653   1.0978594908e+02   1.8443177493e+01    0.1303723    0.1089619  65.28 0.0001769381    1.042    0.040
        10 -15.5858     83.1348    246.1889   1.1889949582e+02   1.4323379219e+01      8.46143     2.723129  33.70   0.01973753    4.656    0.785
        11 -15.1074     51.2500    198.5252   1.2076929894e+02   2.7478388885e+01     2.181364     1.289259  65.93   0.00862604    1.495    0.331
        12  -9.7779     96.6976    200.6840   1.1169781738e+02   2.0716838295e+01    0.2936666    0.2205275 -25.48  0.001233945    2.292    0.564
        13 -16.3865     12.1004    241.6687   1.3043366213e+02   2.3626190391e+01     2.969773     2.047662  28.73   0.02200249    2.192    0.544
        14  -9.7959     96.8803    190.7986   1.1040290658e+02   2.2709476580e+01    0.2243948    0.2049977 -72.42 0.0008119651    1.215    0.177
        15 -11.6947    193.2262    193.6842   9.0642336025e+01   4.9796633990e+00    0.7589048    0.4585423 -58.00  0.003473463    2.574    0.612
        16 -12.2346     67.6269    180.2799   1.1547548872e+02   2.9251803006e+01    0.4115018    0.2912343 -39.85  0.001459425    2.065    0.516
        17 -12.0030     72.2735    174.7789   1.1377343028e+02   2.9826158549e+01    0.2840459     0.245931 -52.68 0.0005720136    1.393    0.282
        18 -10.3210    206.0629    180.8152   8.5698176268e+01   4.6934129079e+00    0.2034823    0.1876144  56.31  0.001048357    1.302    0.232
        19  -9.6453     99.6299    180.7028   1.0840987949e+02   2.4405538253e+01    0.2049982    0.2005851 -78.13 0.0005549492    1.218    0.179
        20  -9.7851     40.8573    178.1248   1.2105942217e+02   3.3027602081e+01    0.1848084    0.1314759  75.26 0.0003304839    1.186    0.157
        21 -13.4973     68.7802    161.2123   1.1280755806e+02   3.3370614294e+01    0.5519468      0.42557 -47.52  0.001179503    1.535    0.348
        22 -10.7657    137.8008    170.9762   9.8188747663e+01   1.9738411073e+01    0.2626759    0.1996901  47.01 0.0007962972    1.230    0.187
        23 -11.1990     33.3546    165.2757   1.2147795199e+02   3.6671936595e+01    0.3638749    0.1965491  38.04  0.001495363    1.942    0.485
        24  -9.4088    161.0161    165.3147   9.1920680708e+01   1.6344404609e+01     0.201497    0.1817167  48.34 0.0004828327    1.064    0.060
        25 -10.8933    194.7252    168.0870   8.5374680810e+01   9.0479058293e+00    0.3282866    0.3008859  48.95 0.0009521342    1.173    0.148
        26  -9.5994     37.9597    161.7240   1.2008340331e+02   3.6988132291e+01    0.1708854    0.1409114  70.01 0.0005699995    1.134    0.118
        27 -10.1257     48.6644    155.8770   1.1692506272e+02   3.7134337082e+01    0.2766956   0.08673147 -61.47   0.00112311    2.681    0.627
        28  -9.9893     37.3135    167.6934   1.2083171612e+02   3.5716561527e+01    0.2010942    0.1403892  72.34 0.0007725382    1.261    0.207
        29 -10.9991    133.7438    144.3456   9.3906384103e+01   2.6247535046e+01     1.081364    0.2699949 -54.66  0.002598763    5.795    0.827
        30 -11.6817     54.8707    147.8425   1.1437604395e+02   3.8265944767e+01    0.4348704    0.3316691 -59.56  0.002592885    1.294    0.227
        31 -10.4299    174.5668    148.4969   8.5402053637e+01   1.6874917827e+01    0.3749661    0.2559049 -43.32  0.001019879    1.506    0.336
        32 -10.9425     38.6977    146.1919   1.1817738408e+02   4.0472718929e+01    0.2850212    0.2147205  60.07 0.0007915527    1.313    0.238
        33 -10.6967     85.0503    144.1205   1.0612424817e+02   3.4990037101e+01    0.3427535     0.227452  70.81  0.001160106    1.766    0.434
        34 -12.4673     89.3607    142.2078   1.0467285089e+02   3.4764377497e+01    0.2878589    0.2519292 -49.98 0.0005698613    1.221    0.181
        35 -11.0234    102.0705    141.9007   1.0133905090e+02   3.2726736068e+01    0.5738713    0.3549835 -29.62  0.002343992    2.594    0.614
        36  -9.3622     37.3215    140.9558   1.1788375054e+02   4.1834106132e+01    0.1795635    0.1369667 -81.82 0.0006684809    1.086    0.079
        37  -9.7232     79.3501    139.6769   1.0682855603e+02   3.6900395200e+01    0.2345451     0.189238  81.29 0.0006621192    1.244    0.196
        38 -11.3496    135.8235    128.2377   8.9786972851e+01   2.9389314544e+01    0.6455013    0.1683161 -50.77  0.001723626    4.281    0.766
        39 -10.2324    111.3618    131.6170   9.6822588821e+01   3.3450950666e+01    0.3044015    0.2598851   5.77 0.0007005458    1.487    0.328
        40 -10.2010    106.0995    130.8405   9.8040918705e+01   3.4591802939e+01    0.3380746    0.2910669 -88.42  0.001185726    1.205    0.170
        41 -10.2474    160.9441    127.9519   8.3679056943e+01   2.4020953527e+01    0.3021138    0.2255832 -64.99  0.001367886    1.607    0.378
        42 -12.0358     81.3759    164.8526   1.1032625752e+02   3.0746963439e+01    0.3937405    0.3414477 -79.66 0.0004307134    1.091    0.083
        43 -12.7784     87.6112    158.0989   1.0780594854e+02   3.1343661580e+01     1.215027    0.6955273 -63.00  0.001274474    1.686    0.407
        44 -11.0899     98.4982    127.9998   9.9469223236e+01   3.6594761241e+01    0.3124402    0.2841917   1.43 0.0009920474    1.331    0.249
        45 -10.6025    125.5673    127.3844   9.2185414376e+01   3.1678129933e+01    0.3320841    0.2374436 -86.28 0.0009084576    1.942    0.485
        46 -10.6473    117.1023    126.2708   9.4127869078e+01   3.3596710058e+01    0.3034504    0.2204885 -59.33  0.001210176    1.390    0.280
        47  -9.9668    107.8552    120.0290   9.5162042439e+01   3.6783560106e+01    0.2126815    0.2039329 -63.34  0.000342659    1.025    0.025
        48 -10.6602     33.9250    118.7527   1.1579370871e+02   4.7388882747e+01    0.2378491    0.1619567  20.53  0.001372878    1.896    0.473
        49 -11.0942     23.9922    116.5861   1.1826924540e+02   4.8768368754e+01     0.252062    0.1543888 -70.46 0.0005401307    1.309    0.236
        50  -9.9633    167.8051    112.6203   7.8246123580e+01   2.5610780305e+01    0.3180282     0.250352 -63.28  0.001478439    1.460    0.315
        51 -11.0342    117.7895    108.3746   8.9591571491e+01   3.7529540456e+01    0.4201261     0.280405  50.00  0.001894044    1.573    0.364
        52 -10.7106     18.0216    110.4748   1.1913197760e+02   5.0657464472e+01    0.1933777    0.1641291  79.86 0.0006769564    1.203    0.169
        53 -10.5491    134.5167    104.0601   8.3999939282e+01   3.4969580122e+01    0.6323925    0.1512544 -45.09  0.001669056    4.127    0.758
        54 -11.3896     45.4306    105.8141   1.1028304636e+02   4.9304548878e+01    0.3226605     0.175574  41.38  0.001617114    2.067    0.516
        55 -12.5409    245.6179     95.6419   5.9614822927e+01   1.0831958192e+01    0.5717996    0.3998427  -5.42  0.002764548    1.861    0.463
        56 -10.1950    205.2917    110.4155   6.9950722298e+01   1.7289357551e+01    0.3687952    0.2538802  33.03  0.001355905    1.659    0.397
        57 -12.3364      1.9816     89.2293   1.2103853235e+02   5.6522518380e+01      1.03106     0.160786 -72.69  0.003052835    5.647    0.823
        58  -9.0465     74.5648     84.5575   9.6145571242e+01   5.0530614251e+01     0.140373    0.1267461 -45.84 8.908744e-05    1.008    0.008
        59  -9.6487    158.0592     80.6499   7.1527368010e+01   3.4219034341e+01    0.2231299    0.2011155  51.71 0.0005033094    1.112    0.101
        60  -9.2952    184.2474     77.5378   6.5126248972e+01   2.8266810912e+01     0.221812    0.1420229  44.16  0.000945571    1.648    0.393
        61  -9.9619    174.3471    248.7564   1.0280911988e+02   2.0822199705e-02    0.1982901    0.1521641  49.80 0.0006011146    1.273    0.215
        62 -10.2147     13.5106     59.9695   1.1178583426e+02   6.2351790215e+01    0.1847641    0.1710086 -23.72 0.0004143746    1.241    0.194
        63 -13.6602    192.5106     39.4578   5.2710800651e+01   3.2079520265e+01     1.486252    0.7677383  43.23  0.002047485    2.285    0.562
        64 -16.3681      7.3267    201.7425   1.2933756812e+02   3.1496925768e+01     6.622502      1.31358 -73.99   0.01504087    3.838    0.739
        65 -10.1163     76.8514    234.9586   1.1907320752e+02   1.7124582715e+01    0.2323427    0.1493517 -75.21  0.001010957    1.637    0.389
        66 -13.5280     42.0546    208.6837   1.2338220614e+02   2.6519817019e+01    0.4733393    0.3870519  74.37  0.001349613    1.129    0.114
        67 -11.2227    148.5882     44.7366   6.2244923716e+01   4.2641518079e+01    0.3772939    0.2825521 -76.64 0.0008541486    1.724    0.420
        68  -9.1703    143.9990     41.0059   6.1971767425e+01   4.4332781645e+01    0.2230263    0.1751316 -70.62 0.0003305365    1.565    0.361
        69  -9.4470     71.7309    230.2522   1.1960333999e+02   1.8665406058e+01    0.2043299    0.1331781  62.95 0.0008672895    1.237    0.192
        70 -10.4966    162.7274    213.8008   1.0005327505e+02   7.1636023622e+00    0.3951095    0.2526886 -71.48  0.001914534    2.628    0.619
        71 -10.4078    189.5074     15.0059   4.6083664649e+01   3.5836300345e+01    0.2167919    0.1789423  76.46 0.0006439473    1.115    0.103
        72 -11.5738    147.3648     51.6116   6.4803327209e+01   4.1900411827e+01    0.5901915    0.3780825 -80.76  0.002253121    2.685    0.628
        73  -9.1257    163.9909    205.0393   9.8427803293e+01   8.4114762009e+00    0.1558957    0.1440525  37.03 0.0005088621    1.064    0.060
