#   1 NUMBER                 Running object number                                     
#   2 MAG_AUTO               Kron-like elliptical aperture magnitude                    [mag]
#   3 X_IMAGE                Object position along x                                    [pixel]
#   4 Y_IMAGE                Object position along y                                    [pixel]
#   5 X_WORLD                Barycenter position along world x axis                     [deg]
#   6 Y_WORLD                Barycenter position along world y axis                     [deg]
#   7 A_WORLD                Profile RMS along major axis (world units)                 [deg]
#   8 B_WORLD                Profile RMS along minor axis (world units)                 [deg]
#   9 THETA_WORLD            Position angle (CCW/world-x)                               [deg]
#  10 FWHM_WORLD             FWHM assuming a gaussian core                              [deg]
#  11 ELONGATION             A_IMAGE/B_IMAGE                                           
#  12 ELLIPTICITY            1 - B_IMAGE/A_IMAGE                                       
         1 -13.5055    213.2142     26.2921   1.3627545136e+01   3.0000411071e+01    0.7587668    0.5616806 -77.99  0.003818425    1.277    0.217
         2 -10.8607     61.8159      2.3775   2.6409650397e+01   6.9243718276e+01    0.2122957    0.1028466  55.33 0.0009574523    1.745    0.427
         3  99.0000     48.1690    227.9850   8.7839140665e+01   2.0322393262e+01    0.3195005    0.2116177 -38.36   0.00181024    2.030    0.507
         4 -14.2244    245.6944    236.1150   4.8924970757e+01  -1.8679405633e+00     1.925251    0.5359707 -32.91   0.01046635    2.989    0.665
         5  -9.1349     50.8471    185.5483   8.3894862267e+01   2.9267290872e+01    0.2458905    0.1925842 -12.63 0.0009581432    1.567    0.362
         6 -10.2522     51.7944    182.4993   8.3333622976e+01   2.9884555033e+01    0.2092313    0.1150908  34.80 0.0004910196    1.538    0.350
         7 -13.9655    120.9972    233.6981   7.1180725977e+01   1.1145590566e+01      5.53879     4.241035 -66.98   0.03589902    1.848    0.459
         8  -9.0449     78.2741    184.2569   7.5912037856e+01   2.6201002993e+01    0.1303153    0.1046682 -11.19 0.0003103853    1.461    0.315
         9  -9.3334     74.0935    180.2832   7.6608462361e+01   2.7664129374e+01    0.3878445    0.1909402 -72.24  0.001615683    2.471    0.595
        10 -11.7013     61.6320    179.1683   8.0098404387e+01   2.9512739211e+01    0.4469554    0.2937152 -25.64  0.001315135    2.082    0.520
        11  -9.7148     55.6614    181.5150   8.2101107818e+01   2.9671217462e+01    0.1836576    0.1144664  39.99 0.0008929853    1.389    0.280
        12 -12.0594    173.0714    175.2132   5.1601920596e+01   1.4326658640e+01    0.5947733    0.4236543 -31.91  0.001681408    1.320    0.243
        13 -10.6996    177.5940    169.8158   4.9772147595e+01   1.4589729306e+01    0.3006583    0.1843089 -53.65  0.001500282    2.085    0.520
        14 -11.3414    180.7326    168.4929   4.8940585675e+01   1.4360537996e+01    0.4792122    0.3254299 -56.99  0.002581413    2.028    0.507
        15  -9.6736     51.2390    202.2471   8.5215109827e+01   2.5398943706e+01     0.114627   0.09805791 -14.11 0.0002264074    1.395    0.283
        16 -11.4997      1.4367    177.2726   9.7992099874e+01   3.5785153212e+01    0.1577363    0.1199888  85.92 0.0005593042    1.288    0.224
        17 -11.2582    236.0501    176.0306   4.1249758975e+01   6.2110107960e+00     0.167996    0.1261061 -21.04 0.0004209108    1.047    0.045
        18 -18.7020     24.4126    125.1250   8.6824340143e+01   4.7748259048e+01      18.5531     3.896095 -78.49   0.04622965    5.530    0.819
        19 -11.9278    139.5723    171.5913   5.8110809998e+01   1.9951369591e+01    0.2834433    0.2291985  47.23 0.0004739951    1.375    0.272
        20 -12.6125    232.8543    167.0135   4.0181828777e+01   7.7740220687e+00    0.2844639    0.2507395   5.03  0.001680517    1.278    0.218
        21 -10.6767     53.8851    166.1560   8.1003925755e+01   3.3646382274e+01    0.5585935    0.2061664 -52.73  0.002025386    2.947    0.661
        22 -10.2548     60.1597    164.2560   7.8811173832e+01   3.3344181139e+01    0.2717414    0.2107028  89.08 0.0008046111    1.400    0.286
        23 -10.2089     48.0347    164.0974   8.2630527702e+01   3.4858438492e+01    0.2190272    0.1843589  43.66 0.0004290604    1.067    0.062
        24  -9.9184    211.0141    198.8633   4.8751722432e+01   5.9442469905e+00    0.1683108    0.1298989  -7.74 0.0005127575    1.013    0.013
        25 -10.1010    231.3186    160.3174   3.9240736281e+01   8.8679118573e+00    0.1147235   0.07327855  -9.54  0.000280827    1.657    0.397
        26 -11.7832     94.3411    153.8950   6.6828727467e+01   3.0961526482e+01    0.4992049    0.2705794 -50.56  0.002126095    1.933    0.483
        27 -11.7590     92.0093    148.4430   6.6564364940e+01   3.2639341764e+01    0.3262082    0.3021767  71.37 0.0003496725    1.126    0.112
        28 -12.8933     97.3612    142.9739   6.3955825028e+01   3.3069720563e+01    0.8042052     0.543462 -30.25  0.002944739    1.869    0.465
        29 -10.0774    138.9902    155.4896   5.5309034159e+01   2.3240784166e+01    0.2312592    0.1936715 -65.73 0.0003209506    1.430    0.301
        30 -12.0170    133.3372    145.4166   5.4689651073e+01   2.6275706615e+01    0.9564501    0.3147716 -53.45   0.00307985    3.614    0.723
        31 -11.1845    113.1999    151.8389   6.1138188014e+01   2.8345866496e+01    0.5128471    0.3142825  78.06  0.001801853    3.561    0.719
        32 -11.7446    108.9199    145.3733   6.1082896341e+01   3.0538130064e+01    0.3365188    0.3271646  29.04 0.0006700504    1.015    0.015
        33  -9.4545    114.1465    146.1529   5.9793716824e+01   2.9460641692e+01    0.1950361    0.1700184  68.14            0    1.292    0.226
        34 -10.0709    116.9070    149.4509   5.9689437060e+01   2.8250420023e+01      0.23647    0.1734512  51.67  0.001155789    1.464    0.317
        35 -11.2417    106.2919    138.7625   6.0518579956e+01   3.2523621524e+01    0.4732482    0.2919517  67.81  0.001313961    2.565    0.610
        36 -12.3043    106.5159    131.4681   5.8939485199e+01   3.4185529188e+01    0.5953805    0.4924948 -70.21  0.002271067    1.330    0.248
        37  -9.4187    151.4304    135.2360   4.8367570965e+01   2.5118219210e+01    0.1834117     0.131208 -55.13 0.0004316816    1.524    0.344
        38 -12.0182     96.8514    130.8159   6.1683911809e+01   3.6081628881e+01    0.3777894    0.2869115 -44.88 0.0006339853    1.389    0.280
        39 -11.5276    133.7629    127.7595   5.0829934135e+01   2.9908321956e+01    0.5815397    0.4494928 -66.91  0.001762835    1.519    0.342
        40 -10.3627    115.2649    125.3744   5.5119122026e+01   3.3955484263e+01    0.2554863    0.2272158  -2.51 0.0006067029    1.268    0.211
        41 -11.3867    160.4407    118.6667   4.2803724450e+01   2.6624301245e+01    0.4891863    0.4317721  74.99  0.002153794    1.316    0.240
        42 -10.6264    103.0880    120.3525   5.7489912401e+01   3.7434699100e+01    0.2987413    0.2501824   2.53 0.0007192309    1.448    0.309
        43 -11.2238     90.3595    222.2349   7.7011357967e+01   1.6777918599e+01    0.2707824    0.2406304  73.17  0.001039167    1.361    0.265
        44  -9.5107    110.4323    115.3310   5.4143311237e+01   3.7177280983e+01    0.2018212    0.1486255 -62.73 0.0009294724    1.478    0.323
        45 -11.5066    117.0735    109.6459   5.0874810140e+01   3.7119385470e+01    0.4072297    0.3757499  78.19  0.001775665    1.122    0.109
        46 -11.8577    119.3589    104.3444   4.8900995357e+01   3.7806002504e+01    0.3975111    0.2981824 -59.43  0.001899415    1.406    0.289
        47 -11.8949     89.2293    214.4025   7.6472424674e+01   1.8422445113e+01     0.400682    0.2534289 -47.01  0.001641325    1.844    0.458
        48 -11.5826    112.6292     99.6964   4.9538579675e+01   4.0238389432e+01    0.5168897    0.3423593  78.94   0.00204214    2.342    0.573
        49  -9.9390    106.3024     95.0293   5.0106840279e+01   4.2615286155e+01    0.2769547    0.2090559  73.03 0.0006771869    1.571    0.363
        50 -10.1681    129.6999     91.3345   4.2764955700e+01   3.8291164219e+01    0.2815246    0.2237421 -89.04  0.001058232    1.480    0.324
        51 -10.6825     55.5798    193.6178   8.3281879248e+01   2.6855591790e+01     0.192628    0.1676449 -45.03 0.0007484228    1.350    0.259
        52  -9.6932    152.4995     90.9600   3.7641486907e+01   3.3383491988e+01    0.2150109    0.1345877 -43.04 0.0004226005    1.514    0.339
        53 -11.2472     61.0520    219.5327   8.4023888629e+01   2.0660463749e+01    0.1075997   0.05837253 -79.42 0.0003884581    2.331    0.571
        54 -10.1821     98.2835     88.3115   5.0666693476e+01   4.5829732838e+01    0.4438709    0.2683123  77.59  0.001377836    3.135    0.681
        55  -9.8844     93.0142     85.2297   5.1472973625e+01   4.7648567082e+01    0.3211755    0.2009584  56.85  0.001187565    1.721    0.419
        56 -10.5535     82.6294     83.7062   5.4638749091e+01   5.0166940689e+01    0.2767207    0.2451245  71.15 0.0003838945    1.157    0.136
        57 -15.7664     68.5385    143.7743   7.3209135183e+01   3.7421616767e+01     2.410607     1.800688  55.71   0.01173253    1.353    0.261
        58 -10.4635     76.2462     80.8189   5.6159717900e+01   5.2129644455e+01    0.2577566     0.229163  59.21 0.0006915383    1.109    0.098
        59 -11.1629     67.7998    213.7158   8.1817084603e+01   2.1094381431e+01     0.168762     0.137288  33.15 0.0003091318    1.015    0.015
        60  -8.9277    202.7083     74.7327   2.5787171098e+01   2.5788647806e+01    0.1117394   0.09651769   2.86 0.0001936371    1.507    0.336
        61 -13.1120    171.3414     67.4752   2.8190897912e+01   3.3260464489e+01    0.6642244    0.5381679  67.93  0.002227976    1.302    0.232
        62 -10.5293     90.3285    218.6819   7.6652936661e+01   1.7458610771e+01     0.237756    0.1430779  36.24 0.0004456395    1.391    0.281
        63 -13.7072    188.4158     54.1834   2.2536023324e+01   3.1552840743e+01     1.021681    0.8648655  17.03  0.003859328    1.664    0.399
        64 -11.9349    194.4124     48.5553   2.0488461772e+01   3.1064805498e+01    0.3248323    0.2815245  48.88 0.0008875738    1.461    0.316
        65  -9.5399    130.9610     50.9553   3.0300554695e+01   4.5298110248e+01    0.2256635    0.1602962 -73.25 0.0003310229    1.534    0.348
        66  -8.8472     62.6655     47.3098   4.9769794908e+01   6.2257324152e+01    0.1514656    0.1166806  81.19 0.0007043235    1.677    0.404
        67  -9.2982    123.3045     45.9284   3.0178618883e+01   4.7989944429e+01    0.1967679    0.1771379 -66.11 0.0003796737    1.073    0.068
        68 -12.4788    211.1507     32.2770   1.5144461002e+01   2.9717495825e+01    0.6407317    0.3624905 -85.65  0.002849852    1.907    0.476
        69 -11.2865     53.8069    230.6319   8.6630092682e+01   1.9226831257e+01    0.2640191    0.1541911 -67.83  0.001414165    2.063    0.515
        70 -10.7801     60.8055     26.9116   4.0935178395e+01   6.6336199916e+01    0.3351924    0.1919158  57.53  0.001502048    1.715    0.417
        71 -10.2686     60.8513     21.1724   3.7828906192e+01   6.7198945697e+01    0.2153155    0.1858266  78.60 0.0006853607    1.238    0.192
