#   1 NUMBER                 Running object number                                     
#   2 MAG_AUTO               Kron-like elliptical aperture magnitude                    [mag]
#   3 X_IMAGE                Object position along x                                    [pixel]
#   4 Y_IMAGE                Object position along y                                    [pixel]
#   5 X_WORLD                Barycenter position along world x axis                     [deg]
#   6 Y_WORLD                Barycenter position along world y axis                     [deg]
#   7 A_WORLD                Profile RMS along major axis (world units)                 [deg]
#   8 B_WORLD                Profile RMS along minor axis (world units)                 [deg]
#   9 THETA_WORLD            Position angle (CCW/world-x)                               [deg]
#  10 FWHM_WORLD             FWHM assuming a gaussian core                              [deg]
#  11 ELONGATION             A_IMAGE/B_IMAGE                                           
#  12 ELLIPTICITY            1 - B_IMAGE/A_IMAGE                                       
         1 -13.7944    182.0709     34.5864   6.6442339990e+01   3.5679899896e+01     1.128969     0.939625  19.27  0.004289942    1.647    0.393
         2 -12.5689    186.4102     28.1798   6.4265680020e+01   3.5442377483e+01    0.5478665    0.4676512 -72.71  0.001388634    1.124    0.110
         3 -11.4288    189.5274     14.9937   6.0735321388e+01   3.6209664741e+01    0.2508802    0.2118053  72.02   0.00102642    1.135    0.119
         4 -10.7063     83.5087     11.7281   7.9160029251e+01   5.9997668488e+01    0.4674125    0.2089384  62.89  0.002002317    3.213    0.689
         5 -12.8507    203.4157      3.7606   5.6746707592e+01   3.4209632148e+01    0.8308721    0.4136465  68.04  0.004334805    1.694    0.410
         6  -8.7169    198.5445    222.5408   1.0622513779e+02  -2.7701344049e+00    0.1335941    0.1206661  13.40 9.871081e-05    1.022    0.022
         7 -19.3845     36.4259    148.0252   1.3195446875e+02   4.0828545325e+01     21.03226     4.950127 -68.17   0.06410418    4.258    0.765
         8 -11.8910     69.1611    202.4108   1.3138400692e+02   2.3613822497e+01    0.4162787    0.3010754 -48.32  0.001240422    1.643    0.391
         9 -10.3565     96.3093    201.6634   1.2511464401e+02   1.9618115519e+01    0.3568524    0.2124624  68.40  0.001565403    2.066    0.516
        10 -11.3060    139.6481    200.3849   1.1493832730e+02   1.2260615419e+01    0.2931248    0.2412919 -75.81  0.001533371    1.348    0.258
        11 -11.4826    193.4037    192.4069   1.0161198843e+02   3.7500810545e+00    0.8262885    0.4763967 -52.74  0.002965478    1.976    0.494
        12  -9.6861     75.4147    198.6380   1.2947969182e+02   2.3586080536e+01    0.2251944    0.1844903  61.91 0.0007349047    1.140    0.122
        13  -9.0791    209.4948    198.4838   9.9530777930e+01  -3.3315873038e-01    0.1372388    0.1289711  -5.01 0.0008098771    1.053    0.050
        14 -11.0632      5.8182    206.7379   1.4506243227e+02   3.0058399814e+01    0.1714897    0.1235211  83.06  0.001130478    1.057    0.054
        15 -10.2201    154.0555    195.7857   1.1083459645e+02   1.0542812374e+01    0.3161961    0.1623134  57.09  0.001165094    2.614    0.617
        16 -11.2694     75.4943    189.9978   1.2826915884e+02   2.5622589062e+01    0.5881531    0.3208154 -77.85  0.002376596    2.044    0.511
        17 -12.3469     80.6250    186.7496   1.2657771722e+02   2.5629714164e+01     1.098867    0.5292512 -63.29  0.004160854    1.987    0.497
        18 -12.4289    110.3370    190.0017   1.1998557266e+02   1.9955494681e+01    0.5670821    0.3994261 -47.94  0.002772654    1.517    0.341
        19  -9.8802    167.1520    188.2921   1.0645957532e+02   9.6213950805e+00    0.2908152    0.2187043 -55.36  0.001425331    1.419    0.295
        20 -10.6556     90.5400    183.9274   1.2375049565e+02   2.4750187535e+01    0.3287747    0.2343418  68.74 0.0007882277    1.508    0.337
        21 -11.3615    183.9519    215.4680   1.0794899999e+02   1.0382569447e+00    0.3976577    0.3321413 -73.56  0.002193874    1.583    0.368
        22 -10.5043     99.4708    180.9088   1.2107265371e+02   2.3998595389e+01    0.2805931    0.2537909 -63.12 0.0006573572    1.117    0.104
        23  -9.6154    205.6335    180.3496   9.6670238025e+01   3.8234643713e+00    0.2253886    0.1830498 -56.82 0.0008468306    1.385    0.278
        24  -9.4798    208.8161    178.0432   9.5558650885e+01   3.6757456374e+00     0.378007    0.2087438 -24.85  0.001500734    2.425    0.588
        25 -10.8457    195.8504    169.9110   9.6483255768e+01   7.8059885975e+00    0.4905621    0.3455476 -41.22   0.00163417    1.376    0.273
        26 -10.0410    193.3047    164.7508   9.5906938916e+01   9.3791464264e+00    0.3571359    0.3241876 -48.30  0.001929242    1.097    0.088
        27 -11.3046    125.5091    173.1031   1.1323593386e+02   2.1173991279e+01    0.3946616    0.2630498  43.83  0.001404405    1.489    0.329
        28 -10.5937     97.3166    213.2486   1.2654271815e+02   1.6823081095e+01    0.3423296    0.2315172  34.62  0.001750271    1.578    0.366
        29 -10.4828    137.4583    171.4034   1.0998479955e+02   1.9258387840e+01    0.3377516     0.258624  84.67  0.001149337    1.637    0.389
        30  -9.9413     68.8537    211.8112   1.3259780761e+02   2.1498676849e+01    0.4747498     0.269149  17.40  0.001923248    3.520    0.716
        31  -8.7963      1.8303    162.8505   1.4227904495e+02   4.0342925438e+01    0.1627221     0.129583 -69.00 0.0003988542    1.167    0.143
        32 -10.9078     95.9575    161.4560   1.1847342445e+02   2.9341981398e+01    0.2704897    0.2615432 -54.35 0.0003264573    1.109    0.098
        33 -10.7202     62.1554    208.7259   1.3368668329e+02   2.3139017507e+01    0.4459634    0.4091789  33.45  0.001777928    1.377    0.274
        34 -11.9199    100.9030    154.3590   1.1579425007e+02   3.0233722091e+01    0.6666347    0.4365482 -37.33  0.002939623    1.796    0.443
        35  -9.6550    165.4331    153.5314   9.9527909568e+01   1.7598530044e+01    0.1551069    0.1497016 -72.74 0.0004718784    1.043    0.041
        36  -9.5356    152.1592    151.7421   1.0223191649e+02   2.0813016194e+01    0.2655144    0.1739274  86.83 0.0009469328    2.765    0.638
        37 -10.7967    133.8192    144.9636   1.0520870006e+02   2.6208269565e+01     1.060634    0.2429474 -53.38  0.002392664    5.719    0.825
        38  -9.5061    112.6492    150.2856   1.1185470476e+02   2.9097163497e+01    0.1589425    0.1185156  75.63 0.0002358664    1.660    0.397
        39  -9.5126    174.9017    149.1243   9.6397226607e+01   1.6550136939e+01    0.2427145    0.2159055  89.94 0.0006777931    1.254    0.202
        40 -10.1709    143.5278    144.8871   1.0276667313e+02   2.4209129862e+01    0.2473381    0.1535223 -48.65   0.00103057    1.587    0.370
        41  -9.3187     49.9930    212.0575   1.3663964859e+02   2.3996066977e+01    0.1732969     0.144696  76.68  0.001106721    1.052    0.049
        42 -11.7034    110.6674    139.2196   1.0995793583e+02   3.2140958656e+01    0.6694998    0.3473263 -37.63  0.002489083    2.346    0.574
        43 -11.5159     99.7212    139.6189   1.1302436924e+02   3.4042014260e+01    0.2878229    0.2765609 -26.02 0.0005234532    1.116    0.104
        44  -8.7531     86.6619    135.7535   1.1582082781e+02   3.7196464945e+01    0.1423793    0.1147504 -14.64 0.0001652181    1.560    0.359
        45 -10.6469    105.9800    130.9930   1.0935172640e+02   3.4981644235e+01    0.3795237    0.3246388 -71.69  0.001273586    1.222    0.182
        46 -10.2991    105.1095    126.2808   1.0848161759e+02   3.6256681093e+01    0.3266788    0.2397635 -36.17 0.0009020326    1.446    0.308
        47 -11.2771    117.7621    129.8174   1.0585996387e+02   3.3005017268e+01    0.4441095    0.3564115  25.84  0.001387006    1.409    0.290
        48 -10.5484    135.5924    124.6944   9.9926375877e+01   3.0519715752e+01    0.3437542     0.154149 -46.93  0.001228444    2.194    0.544
        49 -10.3595    161.3593    127.8622   9.4444888412e+01   2.4172794903e+01    0.4375916    0.2611822 -72.50  0.001484501    2.997    0.666
        50  -9.7563    111.8832    119.0503   1.0482581697e+02   3.6648704950e+01    0.2281244    0.2217074 -41.18 0.0004514052    1.016    0.016
        51 -10.2005    168.0395    112.8940   8.9215454125e+01   2.5844396082e+01    0.4270275    0.3050424 -80.44  0.001276836    1.917    0.478
        52  -9.6013    205.5474    110.2197   8.1081738251e+01   1.7841578446e+01     0.266555    0.2080708  56.13 0.0006347983    1.342    0.255
        53  -9.2366    163.4738    210.4872   1.1142019186e+02   5.7140974365e+00    0.1417474    0.1333282  32.60 0.0002412665    1.004    0.004
        54 -11.8755     11.7785    206.5921   1.4389708162e+02   2.9523246701e+01    0.3160953    0.2322167  64.39   0.00214848    1.225    0.184
        55  -9.4522    152.1490    102.7979   9.0213740273e+01   3.1563295078e+01    0.2244153    0.2047634 -83.88 0.0003410402    1.150    0.130
        56 -10.0768     92.8709    195.1286   1.2493662242e+02   2.1702746480e+01    0.4456052    0.3394699  83.58  0.002342321    1.355    0.262
        57  -9.2818    127.4713     94.5276   9.4077806920e+01   3.8740565853e+01    0.1485385    0.1474351   8.50 9.104497e-05    1.001    0.001
        58 -10.3650     92.7872    205.2080   1.2643143616e+02   1.9373879033e+01    0.4988262    0.2566132  38.37  0.002231067    1.931    0.482
        59  -8.8177    151.3045     79.6792   8.4138914100e+01   3.6186227034e+01    0.1517185    0.1158921 -78.89 0.0003682912    1.634    0.388
        60 -10.3029    176.0414     74.3377   7.7631907495e+01   3.1255523049e+01    0.3076871    0.2337427  87.10 0.0007393039    1.462    0.316
        61  -9.8600    158.3885    204.2691   1.1142170648e+02   7.9286969888e+00    0.3833988     0.219773  68.41  0.001334245    3.470    0.712
        62 -12.8481    167.8690     49.5171   7.2565637561e+01   3.7074079617e+01    0.6557748    0.6023865  37.51  0.001085863    1.223    0.183
        63 -10.5253    159.4276    236.2094   1.1656346776e+02   1.4877815044e+00    0.1763344    0.1315974 -65.94 0.0009550775    1.693    0.409
        64 -10.4953     70.7543    228.5054   1.3408145403e+02   1.7541063173e+01    0.2291407      0.19039  71.57 0.0005439658    1.018    0.017
        65 -10.5128      9.6311    227.0607   1.4574616436e+02   2.5331684399e+01     0.135783    0.1028886 -75.57 0.0003706388    1.335    0.251
        66  -9.2877    163.3458    203.9960   1.1027973209e+02   7.0580868875e+00    0.1995346    0.1833277 -43.47 0.0004934588    1.140    0.123
