#   1 NUMBER                 Running object number                                     
#   2 MAG_AUTO               Kron-like elliptical aperture magnitude                    [mag]
#   3 X_IMAGE                Object position along x                                    [pixel]
#   4 Y_IMAGE                Object position along y                                    [pixel]
#   5 X_WORLD                Barycenter position along world x axis                     [deg]
#   6 Y_WORLD                Barycenter position along world y axis                     [deg]
#   7 A_WORLD                Profile RMS along major axis (world units)                 [deg]
#   8 B_WORLD                Profile RMS along minor axis (world units)                 [deg]
#   9 THETA_WORLD            Position angle (CCW/world-x)                               [deg]
#  10 FWHM_WORLD             FWHM assuming a gaussian core                              [deg]
#  11 ELONGATION             A_IMAGE/B_IMAGE                                           
#  12 ELLIPTICITY            1 - B_IMAGE/A_IMAGE                                       
         1 -12.9662    196.4846     32.4016   6.5220347717e+01   3.2494264391e+01    0.9795712    0.7804497  49.83  0.005779293    1.422    0.297
         2 -13.7686    211.5275     14.8820   5.9484898184e+01   3.1070132008e+01      1.17475    0.9213941  38.49  0.007219207    1.792    0.442
         3 -11.6217      2.0000     12.5416   1.1269399447e+02   7.1002823718e+01     0.653473    0.1212946 -47.02   0.00248798    5.312    0.812
         4 -12.0377      2.2699      4.1059   1.0898810978e+02   7.2097196251e+01    0.5358976    0.3217224 -22.12  0.003970553    1.257    0.204
         5  -9.5375     16.9911     25.5134   1.1076414035e+02   6.7965109696e+01    0.1308406    0.0882024  43.62 0.0008095855    2.505    0.601
         6  -9.8496    204.9545    250.5033   1.1141531446e+02  -8.2261426788e+00    0.1894098    0.1067762  36.41 0.0003722073    1.540    0.351
         7 -10.4478    184.1635    250.4368   1.1542269765e+02  -4.8772867104e+00    0.2313325    0.1419121  41.07 0.0002366111    1.425    0.298
         8 -10.6865    169.5598    248.6583   1.1802634750e+02  -2.1637588702e+00    0.3271754    0.2299801   5.98 0.0007947735    1.930    0.482
         9 -11.2183    149.8686    248.7982   1.2196295052e+02   1.1412136514e+00    0.3647203    0.2888843  84.81  0.002162472    1.595    0.373
        10 -10.3540    143.3430    249.6743   1.2338379304e+02   2.0917411907e+00    0.2282995    0.1794991  59.00  0.001027541    1.237    0.192
        11 -11.4488    133.8318    248.6372   1.2513766317e+02   3.8786550406e+00      0.68116     0.255346  42.35  0.002899925    2.240    0.554
        12 -10.1114    127.0166    249.0809   1.2654990687e+02   4.9385436458e+00    0.3263133     0.214675 -71.61 0.0009658358    1.866    0.464
        13  -9.9638    122.3754    249.3548   1.2750372945e+02   5.6587222553e+00    0.3628627    0.2184383  57.31  0.001921201    1.592    0.372
        14 -10.5404    121.6425    244.6735   1.2705729160e+02   6.6510070659e+00    0.4414472    0.2343924  64.63  0.001669402    2.472    0.595
        15 -12.1355    124.9558    240.7604   1.2587911259e+02   6.8353146749e+00    0.7323145    0.4316153  37.38  0.003750206    1.605    0.377
        16 -10.9312    115.7942    250.0846   1.2889061136e+02   6.6055973239e+00    0.4718106     0.337051  42.62 0.0009504936    1.252    0.201
        17 -11.5164    109.5530    246.5090   1.2969086171e+02   8.2931597232e+00    0.5156696    0.3941904 -77.48  0.002492078    1.414    0.293
        18 -11.5628    100.0489    247.6842   1.3169386373e+02   9.5915179051e+00    0.7369388    0.3168078  50.38  0.003430271    2.017    0.504
        19 -10.7021     84.6357    240.8434   1.3395415692e+02   1.3326666067e+01    0.4078892     0.269033  89.92  0.002320163    1.570    0.363
        20 -10.5735     85.1991    234.7328   1.3317346827e+02   1.4480605808e+01     0.419063    0.2191054  57.30  0.001670622    1.789    0.441
        21 -11.5572     98.7925    232.5352   1.3016499201e+02   1.2795582002e+01    0.6908888    0.3110998 -72.16  0.002880957    2.889    0.654
        22 -10.7727    113.4310    230.7575   1.2691690710e+02   1.0746426553e+01    0.3372823    0.2828571 -59.83  0.001634072    1.335    0.251
        23 -10.9824     97.0304    239.7037   1.3137588931e+02   1.1629422603e+01    0.3785517    0.2861964 -33.61   0.00115342    2.081    0.519
        24 -11.9942    105.0478    227.7958   1.2827396939e+02   1.2751546509e+01      1.12518    0.5388607  66.41  0.004217743    3.275    0.695
        25 -10.7300     98.7261    223.4243   1.2903333945e+02   1.4705300431e+01    0.4260809    0.3021743  59.39  0.000736923    1.276    0.216
        26 -10.6870     91.0522    241.7176   1.3278958720e+02   1.2166704220e+01    0.3591491    0.2261649  62.70  0.001601626    1.461    0.315
        27 -10.7745     89.8124    238.2265   1.3264492590e+02   1.3058086757e+01    0.2430115    0.2271966 -42.64 0.0009198245    1.471    0.320
        28 -10.3154     81.6511    246.6913   1.3514288835e+02   1.2617055122e+01    0.3137777    0.2169693  87.50   0.00178703    1.421    0.296
        29  -9.2423     62.8034    250.3758   1.3901935911e+02   1.4612204864e+01    0.2194379    0.1410832  32.37 0.0008641556    1.962    0.490
        30 -11.2676     60.2812    245.8597   1.3908583285e+02   1.5849027990e+01    0.4399029    0.3428675  70.80  0.001729299    1.017    0.017
        31 -10.5040     67.1341    243.9864   1.3763525471e+02   1.5266564124e+01     0.343105    0.1599823  38.12  0.001709834    2.151    0.535
        32 -13.5296     12.0384    152.9538   1.4001412983e+02   4.2091625723e+01     2.110324    0.8992353  86.90  0.006631975    3.147    0.682
        33 -14.1493     11.5872    210.3613   1.4531515982e+02   2.9106478687e+01     2.516355      1.20519 -73.40   0.01428056    1.717    0.417
        34 -13.2080      3.8255    245.4424   1.4887845866e+02   2.2693807957e+01     1.030009      0.49968  84.21  0.006362292    1.670    0.401
        35 -12.6869     13.9540    238.7921   1.4680858934e+02   2.2942409323e+01    0.7229993    0.3850025  52.51  0.001030455    1.581    0.368
        36 -12.7982     33.3983    227.4888   1.4253453223e+02   2.3069576834e+01    0.4334979    0.3065078 -71.61  0.000841243    1.399    0.285
        37 -14.2324     40.0775    218.5867   1.4050133376e+02   2.4169134300e+01     1.619107     1.298892   7.39  0.009967268    2.161    0.537
        38 -12.6982    129.2687    235.0536   1.2421946941e+02   7.1954860576e+00      2.25831    0.7986019  57.01  0.006037067    6.128    0.837
        39  -9.7039    132.4950    224.0461   1.2195057400e+02   8.8081221715e+00    0.2455791    0.1840916 -62.61  0.001307016    1.464    0.317
        40 -10.8382    142.2175    221.6243   1.1950453967e+02   7.5560368543e+00    0.3970848    0.2535355  33.59   0.00105068    1.588    0.370
        41 -11.8311    135.5251    241.0954   1.2377689617e+02   4.9734613311e+00    0.4031513    0.3804253  21.83   0.00186379    1.218    0.179
        42 -10.7787    136.0703    224.8256   1.2130790123e+02   8.0173538050e+00     0.508932    0.2506487 -52.81   0.00114005    2.230    0.551
        43 -10.3376    134.9776    237.0018   1.2331646140e+02   5.8372617979e+00    0.2656828    0.1865575  35.47  0.000768429    1.378    0.274
        44 -11.9987    134.3428    232.6134   1.2282152513e+02   6.7893079732e+00    0.5707303    0.3935978  63.79  0.002673972    1.562    0.360
        45  -9.9431    158.0499    242.6576   1.1943319850e+02   8.1592604543e-01    0.2068614    0.1825408 -76.44 0.0008059631    1.358    0.263
        46 -10.8270    166.2260    242.0794   1.1769731137e+02  -4.8873317006e-01    0.3485465    0.1773751  38.39   0.00166608    1.724    0.420
        47 -10.8696    244.6962    240.8377   1.0241675910e+02  -1.2772502075e+01    0.1955341    0.1332679 -11.12  0.001202287    1.396    0.283
        48 -10.9602    116.8988    238.1017   1.2716878396e+02   8.7035371652e+00    0.4520858    0.2918754 -34.17  0.001864115    2.480    0.597
        49 -10.7558    122.2766    233.2115   1.2541168901e+02   8.7552166562e+00    0.3797352    0.2777757 -51.46  0.002131468    1.569    0.363
        50  -9.1167     61.2498    238.9606   1.3827906624e+02   1.7104296288e+01    0.1705288    0.1367015  72.45 0.0009806178    1.039    0.037
        51  -9.4274    173.0994    235.9452   1.1534794455e+02  -6.1392019274e-01    0.1889715    0.1670357  57.59  0.001156941    1.229    0.187
        52 -10.7081    156.7388    231.7938   1.1804448610e+02   3.0017543434e+00    0.2543082    0.2340605 -30.55 0.0004274086    1.234    0.189
        53  -9.1214     62.8277    232.9991   1.3740859087e+02   1.8114700596e+01     0.165587    0.1483149  84.63 0.0002835475    1.228    0.186
        54 -10.9821     86.9894    248.1341   1.3426935860e+02   1.1530833616e+01    0.3430761    0.2734281  35.90 0.0007887146    1.459    0.314
        55  -9.1184    141.4715    231.4853   1.2117134184e+02   5.7579362702e+00     0.211174    0.1130488  49.49  0.000910246    1.742    0.426
        56  -9.6759    142.4682    227.9360   1.2042805173e+02   6.2673100259e+00    0.2729571    0.1810761 -78.41  0.001305327    2.133    0.531
        57  -8.5425     57.3936    231.2368   1.3829404918e+02   1.9230182672e+01    0.1605811    0.1018941 -88.07 0.0009193167    1.459    0.315
        58  -9.1340     45.7203    231.3351   1.4053862494e+02   2.0745815256e+01    0.2030641    0.1057062  66.27   0.00107371    1.791    0.442
        59 -10.5577     84.8292    229.2878   1.3263030866e+02   1.5667484956e+01    0.2327859     0.218105 -79.67 0.0002190974    1.269    0.212
        60 -10.8633    104.8586    238.0951   1.2961192142e+02   1.0692243559e+01    0.3073548    0.2056486  29.26    0.0016228    1.814    0.449
        61 -10.4935     79.3672    225.4489   1.3330608231e+02   1.7310881395e+01    0.4908407    0.2684592 -76.30  0.001838658    1.935    0.483
        62  -9.2078     77.1811    220.7982   1.3322241011e+02   1.8639738356e+01    0.1816916    0.1486198  63.87 0.0003985202    1.075    0.069
        63 -10.1088     91.8190    225.5591   1.3074802992e+02   1.5362518284e+01    0.4232868     0.179827  53.82  0.001280321    2.342    0.573
        64 -10.4287    117.1638    224.2565   1.2524262823e+02   1.1442202209e+01    0.3010925    0.2214971  38.17 0.0003122161    1.348    0.258
        65  -9.3508     64.9910    224.5179   1.3612494803e+02   1.9606368147e+01    0.2268351    0.1595758 -57.41  0.001048605    1.630    0.387
        66 -10.7634    245.6572    219.7975   9.8487839232e+01  -9.8841715110e+00    0.3731057    0.1450645 -30.65  0.001575739    2.756    0.637
        67 -10.4062     69.8717    218.0094   1.3442182253e+02   2.0322880742e+01    0.6138296    0.3144382 -85.60  0.002784706    2.317    0.568
        68  -8.1572    104.6844    218.6956   1.2713651358e+02   1.4730771604e+01    0.1255622    0.1104811 -10.16 0.0001979363    1.622    0.384
        69  -8.6265     99.3093    218.2993   1.2823622669e+02   1.5706744864e+01    0.1231645    0.1098614 -13.63 0.0004340963    1.599    0.374
        70  -9.6202     88.3679    213.2833   1.2992945475e+02   1.8567774873e+01    0.3959319    0.2089629 -86.55   0.00156588    2.670    0.625
        71  -9.1274     62.6039    217.9516   1.3591586794e+02   2.1365879801e+01    0.1873833    0.1674356  44.45 0.0005794219    1.353    0.261
        72 -10.1320    160.3478    223.6520   1.1598630743e+02   3.8823601919e+00    0.2687401       0.1581  22.20 0.0008591547    2.327    0.570
        73 -10.2310    137.3185    214.4504   1.1942160501e+02   9.9040153893e+00    0.2719204    0.2119577 -85.27  0.001241172    1.509    0.337
        74  -9.4582    160.0395    213.7736   1.1439060876e+02   5.8533188224e+00    0.2006425    0.1807726  62.41 0.0005000234    1.145    0.127
        75  -9.2207    101.6247    211.7753   1.2684017904e+02   1.6746566096e+01    0.3816475    0.1330198  52.04   0.00131394    3.195    0.687
        76 -10.1238     91.3672    204.7418   1.2812295178e+02   2.0003907067e+01    0.4734237    0.3504989  36.15   0.00154541    1.472    0.321
        77  -9.3468     97.3833    210.7853   1.2763199867e+02   1.7668071319e+01    0.2182619    0.1628499 -65.85 0.0001867732    1.354    0.261
        78  -9.4727     96.9691    207.2137   1.2722408145e+02   1.8533069931e+01     0.369808    0.2130625  79.28   0.00155108    2.445    0.591
        79  -9.3426    106.8826    209.8918   1.2541311278e+02   1.6274694894e+01    0.1978747    0.1896462 -40.23 0.0005303857    1.282    0.220
        80  -9.8745    112.6091    208.4654   1.2393204527e+02   1.5602260710e+01    0.2612041     0.227121  75.61 0.0006725838    1.076    0.071
        81  -9.4271     74.9484    208.4829   1.3222219298e+02   2.1699709725e+01    0.2433763    0.1802679  51.00  0.001385983    1.274    0.215
        82  -8.9843     32.8429    206.9385   1.4088512482e+02   2.7589257868e+01    0.1714091    0.1379228 -71.76 0.0003809231    1.284    0.221
        83 -10.9048    247.4175    205.2022   9.5441082912e+01  -7.8931098544e+00    0.3292224    0.2021841  -6.98  0.001632849    2.055    0.513
        84  -9.2598     74.6169    203.8597   1.3171528002e+02   2.2799309741e+01    0.2496265    0.1954468  20.94 0.0008694246    1.768    0.434
        85  -9.6641    103.3572    202.7715   1.2514850801e+02   1.8465170452e+01     0.350795     0.209475  52.05  0.001417725    1.602    0.376
        86 -10.3444     84.2429    201.5481   1.2927400612e+02   2.1863581484e+01     0.397759    0.2473167 -42.54  0.001537782    2.165    0.538
        87  -9.0590     85.7113    195.6965   1.2812399861e+02   2.2986696891e+01    0.1986066     0.168627  61.04 0.0002467608    1.111    0.100
        88 -11.6112    176.5474    242.4574   1.1568625489e+02  -2.3148506071e+00    0.4908687    0.2660768  51.93  0.001779505    2.055    0.513
        89 -11.3873     41.4971    205.8986   1.3902019587e+02   2.6801554387e+01    0.6141027    0.2428715  44.93  0.002249569    2.328    0.570
        90  -8.7764    125.7411    206.0095   1.2061857380e+02   1.3805222629e+01    0.1751499    0.1233489 -58.82 0.0004934444    1.489    0.329
        91  -8.9621    183.0148    200.2751   1.0703677456e+02   4.1892605315e+00     0.194792    0.1719609  37.92 0.0002435018    1.090    0.083
        92  -9.0468    127.9132    199.6853   1.1908599910e+02   1.4796584848e+01     0.198827    0.1718709  53.67 0.0003790593    1.083    0.077
        93  -9.5712     44.7386    198.9075   1.3762236737e+02   2.7993621018e+01    0.2789578    0.2072923  49.15  0.001551953    1.362    0.266
        94  -9.5777     28.1256    198.0898   1.4103235382e+02   3.0103480867e+01    0.3260902    0.1289142 -68.14  0.001553486    2.113    0.527
        95  -9.1945    120.1290    199.3848   1.2080830675e+02   1.6285304723e+01     0.203266    0.1234172  52.41 0.0001450222    1.614    0.380
        96 -11.6888     60.1994    194.6397   1.3375638214e+02   2.6982467732e+01     0.482596    0.4401403 -33.01  0.001893576    1.498    0.332
        97  -9.8687     53.9987    198.0000   1.3552344678e+02   2.7028375175e+01    0.3154102    0.1676413  44.34 0.0008362022    1.828    0.453
        98  -8.4538    145.0000    197.9975   1.1492547266e+02   1.1953181037e+01    0.2261225     0.084081 -51.25 0.0003741204    2.825    0.646
        99  -9.8417    102.3942    196.2983   1.2438210985e+02   2.0106764348e+01    0.3773732    0.2719131 -23.16   0.00113335    2.298    0.565
       100  -9.7129     38.5078    192.0626   1.3823514884e+02   3.0315765946e+01    0.2821381     0.170489 -71.06 0.0009833463    1.427    0.299
       101  -9.8200     40.8449    188.3450   1.3732005937e+02   3.0906856758e+01    0.2838359    0.1975448  87.20 0.0008070616    1.272    0.214
       102 -10.8944    249.6779    194.1536   9.2912955369e+01  -6.4643488999e+00     0.313253    0.2470381  -6.32  0.001890448    1.217    0.178
       103 -11.6421     39.6497    230.2703   1.4159172158e+02   2.1729978567e+01    0.3369394    0.2343551 -80.00 0.0005030546    1.287    0.223
       104 -13.5810     28.3408    246.8925   1.4487142199e+02   1.9716705136e+01     1.541077    0.6925893  43.65  0.008795663    1.986    0.496
       105  -8.8749     72.5441    192.9740   1.3075540561e+02   2.5629102509e+01    0.1906502    0.1232905 -66.47 3.821788e-05    1.447    0.309
       106  -9.7845     25.7481    192.3804   1.4099143577e+02   3.1655667308e+01    0.2577623    0.1567678  62.56 0.0008027246    1.552    0.356
       107  -9.7981    191.5031    191.4941   1.0354800128e+02   4.2867840696e+00    0.2464579    0.2352344   4.15 0.0006447473    1.010    0.009
       108  -9.6851     96.7063    195.8751   1.2562662259e+02   2.1162625406e+01    0.3221867    0.1926871  46.61  0.001528596    1.594    0.373
       109 -10.4140     19.9738    191.0325   1.4207503100e+02   3.2555931475e+01    0.1927449    0.1469005 -82.36  0.001271064    1.088    0.080
       110 -13.6122     39.7202    242.6691   1.4256839088e+02   1.9179367465e+01     1.453167    0.8657387  52.84  0.009080585    1.415    0.293
       111  -9.8178     31.7512    189.7248   1.3945218319e+02   3.1619749381e+01    0.3477179    0.1761862  46.85  0.001823806    1.939    0.484
       112 -10.5380    250.3101    187.8758   9.1571682709e+01  -5.5286452805e+00    0.3268982    0.1424752 -33.28  0.001418691    2.203    0.546
       113  -9.6499     77.1172    188.5860   1.2909268810e+02   2.5984664700e+01    0.2269017    0.1765574 -74.02 0.0002147831    1.188    0.158
       114 -11.5532     66.7511    187.0653   1.3128994704e+02   2.7859003227e+01    0.3094822    0.2393093 -55.02 0.0005378781    1.385    0.278
       115  -8.3496     45.2907    186.6562   1.3613776723e+02   3.0771798686e+01    0.1382091   0.08516287  75.45 0.0007026059    1.655    0.396
       116  -8.4366     19.2591    186.2559   1.4178574428e+02   3.3715997082e+01    0.1079773   0.08189622 -58.75 0.0006789078    1.436    0.304
       117 -10.4378     27.5101    184.5775   1.3984701257e+02   3.3265734215e+01    0.3683406    0.2383583  18.79  0.002047444    2.303    0.566
       118  -9.3886     24.2978    184.2855   1.4051579297e+02   3.3665194153e+01    0.1844758    0.1719171  65.81 0.0005207074    1.295    0.228
       119  -8.6876     74.2359    184.4035   1.2916838539e+02   2.7410576785e+01    0.1378967   0.09831741 -44.85 0.0003702689    1.675    0.403
       120  -9.2615    140.1152    183.1689   1.1330599196e+02   1.6174283959e+01     0.210452    0.2017649   3.83 0.0002911296    1.166    0.143
       121  -9.8908    127.6613    182.5970   1.1612838143e+02   1.8710688776e+01    0.2585973    0.2282697  84.72 0.0003581629    1.147    0.128
       122  -9.7960    107.8280    182.3419   1.2081913870e+02   2.2421990522e+01    0.2459746    0.2012855 -57.49 0.0003948714    1.234    0.189
       123  -9.2701     36.9987    183.2112   1.3760403087e+02   3.2552035643e+01    0.2386709    0.1580438  63.57  0.001357497    1.467    0.318
       124 -10.6734     83.7981    186.8606   1.2727533123e+02   2.5367234934e+01    0.2327882    0.1972558  79.70            0    1.082    0.076
       125  -9.6584     85.8018    180.2514   1.2578067534e+02   2.6630629272e+01     0.345354    0.2142286  82.14 0.0009529154    2.072    0.517
       126  -9.1683     12.0578    178.9277   1.4264477246e+02   3.6070718888e+01    0.2158277     0.167245 -62.78  0.001446517    1.332    0.249
       127 -11.0993     11.9367    173.2788   1.4214201211e+02   3.7379074600e+01    0.5300508    0.2035514 -55.14  0.002482495    2.517    0.603
       128 -12.0458    248.1724    173.2391   8.9009416231e+01  -2.6851980389e+00    0.6089965     0.411042 -31.35  0.003282528    1.346    0.257
       129  -8.3064     92.6385    178.2344   1.2379731937e+02   2.6007192612e+01    0.1483507     0.101571  66.03 0.0001966542    1.587    0.370
       130  -9.1922    126.0011    177.4656   1.1556534413e+02   2.0218163072e+01     0.215689    0.1445113  45.09 1.532214e-05    1.461    0.316
       131  -9.8344    103.0659    176.0606   1.2087935859e+02   2.4756043837e+01    0.2404541    0.2060006 -55.65 -0.001320134    1.195    0.163
       132 -12.1198    107.8352    172.8841   1.1913762439e+02   2.4673507333e+01    0.2890473     0.265361  79.76 0.0002857519    1.030    0.030
       133 -10.7287     76.8223    175.0000   1.2713723632e+02   2.9288227720e+01    0.2871009    0.2352407 -61.12 0.0003899361    1.197    0.165
       134 -11.5186     63.6846    173.2343   1.3007636509e+02   3.1606746145e+01    0.3316216    0.2452026 -65.94 0.0004693757    1.229    0.186
       135 -10.6569     19.3610    172.9102   1.4045477015e+02   3.6789516169e+01      0.41494    0.2410653  68.96  0.001503676    1.762    0.432
       136 -11.5731     14.4193    166.8511   1.4094863714e+02   3.8649768479e+01    0.3427036    0.3260127 -29.61  0.002010477    1.426    0.299
       137 -11.3947     45.4418    171.5082   1.3423919453e+02   3.4355641400e+01    0.5669926    0.3483102  88.83  0.001089354    1.677    0.404
       138 -10.3293     44.9870    164.9499   1.3347747950e+02   3.5988167983e+01    0.3152628    0.1868367 -72.19  0.001099004    1.478    0.323
       139  -8.6855    150.9661    170.0540   1.0815522208e+02   1.6965025398e+01    0.1805476    0.1691204 -59.62 -0.001877172    1.074    0.069
       140 -11.0101      7.0849    167.1052   1.4262720286e+02   3.9211326245e+01    0.3190887    0.1943431 -81.79  0.001060947    1.305    0.233
       141 -11.6971     84.6839    166.4023   1.2377230882e+02   3.0166816957e+01    0.6343578    0.5056446  39.81  0.003391387    1.345    0.256
       142  -8.5951    134.1558    167.5979   1.1165794478e+02   2.0932447739e+01    0.1930241     0.147534  30.88 0.0003159032    1.454    0.312
       143  -8.7271     58.4692    167.4856   1.3051455940e+02   3.3702237984e+01    0.1381943    0.1192053 -81.50 3.943062e-05    1.010    0.010
       144 -12.2518    245.0823    163.1358   8.7465226956e+01  -3.7079617262e-01    0.7353027    0.3750886 -49.25   0.00314724    2.061    0.515
       145 -11.6481    240.6296    150.6646   8.5607181197e+01   2.6954418426e+00    0.5272589    0.3918758   8.38  0.002687755    1.798    0.444
       146 -11.4443    248.6393    159.0057   8.6010674556e+01  -2.6174061492e-01    0.8378093    0.3478187 -49.61  0.003255528    2.692    0.629
       147 -11.3823    243.1992    154.9960   8.6086815222e+01   1.4322215271e+00    0.5303282    0.3025085  53.13  0.002489249    2.111    0.526
       148  -8.8133     68.5030    166.5062   1.2786609975e+02   3.2571768216e+01    0.1420648    0.1238839 -85.75 0.0008105377    1.024    0.024
       149  -9.4077     58.3018    162.3904   1.2979488649e+02   3.4964858190e+01    0.2182735    0.1668283 -75.82 0.0004184242    1.164    0.141
       150 -14.2762      2.8076    190.9547   1.4556524097e+02   3.4174700799e+01     7.912889    0.1509916 -73.55   0.01492097   14.746    0.932
       151  -9.9256     89.7489    160.0720   1.2135239765e+02   3.0897811032e+01    0.2323412    0.2072989  49.21 0.0002774537    1.172    0.147
       152  -9.0219     73.5103    159.5162   1.2544740683e+02   3.3560825966e+01    0.1436362    0.1279584 -80.87 0.0001576269    1.008    0.008
       153  -8.1497     52.2913    158.3404   1.3070546327e+02   3.6714504108e+01    0.1367664   0.09523436 -42.58 0.0006591836    1.649    0.394
       154  -9.9905     28.0222    171.3981   1.3831896293e+02   3.6296989570e+01    0.3731241     0.181684 -58.19  0.001822122    1.849    0.459
       155 -11.0416     31.8178    156.0484   1.3554173889e+02   3.9563462908e+01    0.3510607    0.2341768 -56.87  0.001170528    1.380    0.275
       156 -11.1062     23.8547    155.0730   1.3738680427e+02   4.0567645795e+01     0.334022    0.2166476  31.54   0.00194194    1.842    0.457
       157  -9.5129     83.9502    155.6757   1.2205109877e+02   3.2910726806e+01    0.3622267    0.1849736  27.87  0.001043934    2.559    0.609
       158  -8.9481    228.4373    155.5180   8.8776144658e+01   4.1017005145e+00    0.1427207    0.1302348 -38.13 0.0001073306    1.032    0.031
       159  -9.9085    104.9320    153.4776   1.1613482251e+02   2.9889442032e+01    0.2560864    0.1997634 -77.45 0.0003167961    1.364    0.267
       160  -9.9822     90.1130    153.0321   1.1993300345e+02   3.2561808957e+01    0.3128889    0.2151287 -44.17 0.0009765968    1.540    0.351
       161 -12.8477    247.5303    100.9222   7.3864581175e+01   1.0339645987e+01      1.10147    0.5657524 -47.79  0.005110348    1.714    0.417
       162 -10.0846    249.5443    117.5228   7.7121005408e+01   7.0150504765e+00    0.2775451    0.2511933 -25.01 0.0007145803    1.218    0.179
       163 -11.5193    248.5461    113.0387   7.6310644403e+01   8.0073121883e+00     0.507094    0.4143814  46.53  0.002930059    1.439    0.305
       164 -11.8033    248.1757    142.3808   8.2609062257e+01   2.8042858501e+00    0.6681533    0.5772588  -6.29  0.003927338    1.304    0.233
       165 -12.7932    248.5283    133.8291   8.0743569757e+01   4.2826101469e+00     1.377213    0.8854251 -27.98  0.006803844    1.677    0.404
       166 -10.3119     97.4690    151.0121   1.1759405292e+02   3.1810215204e+01    0.3484276    0.2725821 -67.91  0.001225564    1.251    0.201
       167  -9.2307     69.8865    151.8969   1.2507655830e+02   3.5954712465e+01    0.2088783    0.1791763 -50.62 0.0003054917    1.192    0.161
       168  -9.3348     60.3470    151.0006   1.2744780437e+02   3.7480869600e+01    0.2912987    0.1462657  58.72  0.001168359    2.694    0.629
       169 -10.1358     85.0934    148.1828   1.2032930790e+02   3.4565757748e+01     0.471382    0.2726873 -85.72  0.001763471    2.794    0.642
       170  -9.4693     52.9541    146.4406   1.2865508089e+02   3.9531893101e+01    0.3176839    0.1544536  66.62 0.0008640249    3.816    0.738
       171 -10.5461     23.9517    149.6665   1.3668164717e+02   4.1841384084e+01    0.1721101    0.1472068 -81.41 0.0005013711    1.068    0.064
       172 -12.2862     68.3534    144.4129   1.2414148597e+02   3.8004804997e+01    0.6745098     0.495621  85.28  0.002133317    1.554    0.356
       173  -9.9652    235.9877    145.9941   8.5399850761e+01   4.4363642118e+00    0.2153516    0.1965546 -31.76 0.0005107292    1.039    0.038
       174 -10.1701     32.3270    145.4928   1.3396686332e+02   4.2040189487e+01    0.2460728    0.1243795 -50.98  0.001199118    1.857    0.462
       175 -10.7164     32.8244    140.7309   1.3314012896e+02   4.3130240298e+01    0.2928606    0.1900099 -86.78  0.001077932    1.582    0.368
       176  -9.8593    133.2092    141.1222   1.0614158668e+02   2.7333094956e+01    0.4840263    0.2555663 -57.64  0.001823781    2.094    0.523
       177  -8.8298    105.1098    142.8806   1.1386640410e+02   3.2424020848e+01    0.1919474    0.1756025 -24.93  0.001007117    1.230    0.187
       178 -12.2258     16.7189    139.5453   1.3721752902e+02   4.4853438479e+01    0.6082485    0.2821889  54.89   0.00284094    2.770    0.639
       179  -9.1849    100.8566    146.4545   1.1576160271e+02   3.2325042230e+01    0.3145833    0.1851019 -39.29  0.001298939    1.976    0.494
       180  -9.6364     37.1358    140.1242   1.3189163323e+02   4.2841396807e+01    0.2035629    0.1585118 -52.87  0.000909353    1.218    0.179
       181 -11.1967     60.2267    136.6059   1.2493789786e+02   4.1004945882e+01    0.3437167    0.2594444 -82.37  0.001842459    1.380    0.275
       182  -8.9092     25.6289    139.7052   1.3490318973e+02   4.4052972397e+01    0.1301126   0.08386953 -40.81 0.0004483685    1.730    0.422
       183  -9.8387    109.3117    136.2650   1.1127155007e+02   3.3231603446e+01     0.382065    0.2703099 -19.56  0.001627853    2.061    0.515
       184 -11.3884     44.6140    131.1163   1.2833606617e+02   4.4203055714e+01    0.3882383    0.3171201 -70.60  0.001672126    1.090    0.083
       185 -11.3449     33.2642    130.6199   1.3144542203e+02   4.5495078232e+01    0.5032434     0.155711 -66.36  0.001563372    2.878    0.652
       186 -11.0087     67.5001    127.9870   1.2117933857e+02   4.2104523728e+01    0.4147453    0.2657647  63.54  0.001899609    2.100    0.524
       187 -10.1085     59.1899    128.1651   1.2361516328e+02   4.3172413725e+01    0.2056778    0.1748585 -42.42 0.0005262509    1.178    0.151
       188 -10.9991     23.1843    126.6351   1.3363413229e+02   4.7345441184e+01    0.3670391    0.1871386 -83.33  0.001630879    2.304    0.566
       189 -12.2542     22.5546    121.2614   1.3296444783e+02   4.8649162583e+01    0.4398288    0.2920019 -26.76   0.00250024    1.858    0.462
       190  -9.3303    238.5941    122.1517   7.9791723168e+01   8.3433620469e+00    0.2056213     0.125898 -31.47 0.0009465329    1.729    0.422
       191  -8.9019     49.9487    122.4578   1.2518996490e+02   4.5659070347e+01    0.1827839     0.103016  56.37 0.0008076997    2.433    0.589
       192 -10.1416    210.0000    125.7176   8.5493542055e+01   1.3678730937e+01    0.3024801    0.2068431 -42.98 0.0004803625    1.378    0.274
       193 -11.9117     10.9091    115.8979   1.3547277792e+02   5.0759078130e+01    0.3372249    0.2554118 -15.91  0.001758422    1.642    0.391
       194 -12.0745      9.5106    112.4669   1.3535257429e+02   5.1630316178e+01    0.5309616    0.2644989  62.75  0.002396732    3.333    0.700
       195  -9.4584    231.5732    116.4988   7.9665435684e+01   1.0823204381e+01    0.1438487    0.1285796 -50.99 0.0001082895    1.017    0.017
       196  -8.9630    203.4981    111.5162   8.3349554842e+01   1.7903641806e+01    0.1508964    0.1414628 -63.99 6.667231e-05    1.003    0.003
       197  -9.4867    114.0362    150.7552   1.1320367017e+02   2.8862489886e+01    0.3102432    0.2028762 -60.26 0.0006873315    1.545    0.353
       198  -8.8214     29.2975    109.3421   1.2888060152e+02   5.0815263646e+01     0.135369   0.07964461 -39.96 0.0003368561    1.666    0.400
       199 -11.3295     14.9391    104.0240   1.3233059070e+02   5.3154293187e+01    0.2386568    0.2046689  43.91  0.001647545    1.439    0.305
       200 -10.2520    168.0645    113.1572   9.0917006678e+01   2.5784144401e+01    0.3699996     0.286324 -82.74  0.001008623    1.589    0.371
       201  -9.9636     16.9858     99.0219   1.3078254422e+02   5.4116898148e+01    0.1742482    0.1361151  78.28 0.0003707613    1.597    0.374
       202  -9.1716     28.9632     94.4656   1.2599163052e+02   5.4163865045e+01    0.1628668     0.124011  20.10 0.0005170066    1.537    0.349
       203 -12.1741    243.7021    120.5528   7.8648515132e+01   7.6162487290e+00    0.7183462    0.4521869 -58.31  0.003472539    1.693    0.409
       204 -10.9483    249.6171    150.9788   8.4180540140e+01   9.9665107164e-01    0.4664484     0.314021 -40.31   0.00186015    1.305    0.234
       205 -10.5756    192.8071    248.8243   1.1348696220e+02  -6.0364180623e+00    0.2520789    0.2063722  21.84  0.001036531    1.074    0.069
       206  -9.7452    193.8447    245.1418   1.1269731912e+02  -5.6333631442e+00    0.1814742    0.1628748  42.09 0.0003626019    1.214    0.176
       207 -11.8600    200.0501    246.1688   1.1165778725e+02  -6.7978519707e+00    0.5746208    0.1899676  40.17  0.002341224    2.668    0.625
       208 -10.5441     74.2025    242.6494   1.3616240515e+02   1.4518286435e+01    0.3582489    0.2656731 -46.59   0.00214514    1.929    0.482
