#   1 NUMBER                 Running object number                                     
#   2 MAG_AUTO               Kron-like elliptical aperture magnitude                    [mag]
#   3 X_IMAGE                Object position along x                                    [pixel]
#   4 Y_IMAGE                Object position along y                                    [pixel]
#   5 X_WORLD                Barycenter position along world x axis                     [deg]
#   6 Y_WORLD                Barycenter position along world y axis                     [deg]
#   7 A_WORLD                Profile RMS along major axis (world units)                 [deg]
#   8 B_WORLD                Profile RMS along minor axis (world units)                 [deg]
#   9 THETA_WORLD            Position angle (CCW/world-x)                               [deg]
#  10 FWHM_WORLD             FWHM assuming a gaussian core                              [deg]
#  11 ELONGATION             A_IMAGE/B_IMAGE                                           
#  12 ELLIPTICITY            1 - B_IMAGE/A_IMAGE                                       
         1 -14.2547    195.3336     15.2183   6.9121219879e+01   3.3428093330e+01     2.055117     1.488081  -4.91  0.007650095    1.635    0.389
         2 -14.1364    201.8124      8.0938   6.6416186603e+01   3.2436965681e+01     3.622073     1.699564  30.48  0.002382111    3.750    0.733
         3 -10.5150     33.0000     10.5269   1.1289681256e+02   7.3730801761e+01    0.2861071   0.06659111 -47.53 0.0009408494    3.984    0.749
         4 -12.0334     35.4492    230.3056   1.4845160603e+02   2.5441185073e+01    0.3021736    0.2542223  49.49  0.001783457    1.282    0.220
         5 -10.7978    163.3634    249.1892   1.2588206386e+02   6.4356800907e+00    0.2037405    0.1582538  38.76 0.0009697773    1.231    0.188
         6 -12.1751    140.0867    248.8815   1.3000714679e+02   9.6473782376e+00    0.4084051    0.2833116  46.95   0.00300624    1.294    0.227
         7 -11.1596    125.4437    249.6749   1.3274446207e+02   1.1527094517e+01    0.2607879    0.1362139  33.85  0.001650469    1.435    0.303
         8 -12.3655    110.1815    249.7252   1.3554667401e+02   1.3544931115e+01    0.7276379     0.167666  38.62  0.003062549    2.793    0.642
         9 -11.5132     98.7119    249.9631   1.3767676914e+02   1.4998230995e+01    0.4262583    0.2090925  46.57  0.002041738    1.475    0.322
        10 -11.0766    102.0087    246.8398   1.3682709186e+02   1.5004732778e+01    0.2677737    0.1646985  74.35  0.001254775    2.184    0.542
        11 -10.2409     88.6044    249.2369   1.3948852110e+02   1.6377887602e+01    0.1738984    0.1213158  59.87 0.0006790619    1.332    0.249
        12 -10.6378     85.3869    247.1967   1.3994430390e+02   1.7069403082e+01    0.2519799    0.1403367  60.78  0.001176871    1.744    0.427
        13 -11.4441     81.3980    248.4384   1.4076614448e+02   1.7383935881e+01    0.3378732    0.1960564  56.99  0.001391748    1.481    0.325
        14 -11.7117     81.9891    243.2449   1.4031107778e+02   1.8066138578e+01    0.2966753    0.1874538  41.16  0.001380859    1.138    0.121
        15 -10.4904     74.0884    250.0975   1.4221547054e+02   1.8030158206e+01    0.2055162    0.1192526  31.67 0.0007876257    1.545    0.353
        16 -12.0697     66.5055    243.0714   1.4320680899e+02   1.9967173470e+01    0.3012961    0.2358282  76.92 0.0005250712    1.381    0.276
        17 -11.2273     67.2579    250.4402   1.4348473622e+02   1.8787322800e+01    0.2648019    0.1839209  51.85  0.001187484    1.083    0.077
        18 -10.1114     63.5005    250.5546   1.4417577779e+02   1.9206281675e+01    0.1971851   0.09456029  39.21 0.0006246375    1.446    0.308
        19 -15.0254      3.9301     18.6548   1.3819848853e+02   7.4528923229e+01     21.85479     1.478209 -71.14    0.0347316   19.663    0.949
        20 -13.9080     32.0809    245.9712   1.4966384662e+02   2.3303425459e+01     1.767759    0.5084603  35.38  0.009666358    2.378    0.579
        21 -15.7261      8.6023    239.9657   1.5368973216e+02   2.6483218211e+01     7.038061     1.146806 -74.56   0.03096245    6.077    0.835
        22 -15.3640     56.8370    217.6433   1.4357864667e+02   2.5204947726e+01     6.863744    0.6611668  38.20   0.01606082    3.964    0.748
        23 -11.0767     37.3249    226.6686   1.4793761029e+02   2.5846289845e+01    0.2146282    0.1191757  66.18  0.001237983    1.522    0.343
        24  -9.5970    229.2180    228.9353   1.1217609952e+02  -3.9005435650e-01    0.1642996    0.1221026 -46.24   0.00108968    2.619    0.618
        25 -11.4388    173.9975    222.2995   1.2073728533e+02   8.0925121507e+00    0.3805218    0.1521975  38.69  0.001958855    1.892    0.471
        26 -11.5505     95.1992    240.2531   1.3759365979e+02   1.6825513753e+01    0.2856701    0.1940295 -45.27  0.001974963    2.240    0.554
        27  -9.1948    152.7209    212.9290   1.2354743121e+02   1.2545177946e+01    0.1550535     0.129572  33.61 0.0003240233    1.100    0.091
        28 -10.7663    193.2421    195.2272   1.1324213422e+02   8.5263150599e+00    0.6719837    0.3735682 -60.05  0.002356625    6.891    0.855
        29 -11.8910     70.7335    196.3418   1.3905367359e+02   2.7304143554e+01    0.5401121    0.2971488  33.81  0.001731453    1.621    0.383
        30 -11.7409     76.5373    189.0443   1.3707826466e+02   2.7911070292e+01    0.2507856    0.2369305 -29.96 0.0008625862    1.450    0.311
        31 -11.1350     84.8352    176.8637   1.3385108699e+02   2.9119361378e+01    0.2267852      0.20733  68.52 0.0003883412    1.142    0.125
        32 -13.3144     72.6274    174.5183   1.3655275053e+02   3.1300568930e+01    0.4363848    0.2826514 -40.91  0.001662616    2.303    0.566
        33 -12.3905     50.7429    130.0365   1.3743129393e+02   4.3926868140e+01    0.5181647    0.2849947  43.19  0.001277595    1.658    0.397
        34 -12.6255     90.1403    167.3742   1.3140359889e+02   3.0238946182e+01     2.188615    0.4811458  46.82  0.006684714    4.327    0.769
        35 -12.0780     91.6875    150.7988   1.2870191211e+02   3.3461829952e+01     0.273176    0.2438126  17.79 0.0005829772    1.326    0.246
        36 -12.0288     46.5510    148.7353   1.4069653048e+02   4.0108981277e+01    0.4925109    0.2302016 -69.36  0.002343988    2.090    0.522
        37  -8.8333    192.0440    144.0492   1.0408789710e+02   1.5925224321e+01    0.1612537    0.1432882  10.92 0.0004304249    1.039    0.038
        38  -9.3237    134.0000    143.9522   1.1670442356e+02   2.7370460165e+01     0.220343   0.08340721 -48.62 0.0008029881    2.946    0.661
        39  -9.5671     55.3278    143.3096   1.3767743958e+02   4.0295855057e+01      0.12303    0.1009581 -31.97 0.0004314128    1.661    0.398
        40 -10.0931    112.5691    136.5131   1.2071835224e+02   3.2929162391e+01    0.2938892    0.2490135  -1.46  0.001050791    1.517    0.341
        41 -10.7256    100.2712    133.8782   1.2356033149e+02   3.5705923032e+01    0.2769226    0.2348763 -25.91 0.0004549616    1.496    0.331
        42 -10.2272    102.6696    151.3601   1.2591463778e+02   3.1544128123e+01    0.3156452    0.2905088  -5.83 0.0008251992    1.345    0.256
        43 -14.2169     11.6643    207.1860   1.5230846727e+02   3.1734221669e+01      1.38103    0.8609291  42.51  0.007989328    1.280    0.219
        44 -13.0138     48.6462    230.2256   1.4591065802e+02   2.4034393620e+01    0.3616699    0.3189661  55.24 0.0009734187    1.306    0.234
        45  -9.2924    118.0153    129.1716   1.1781392960e+02   3.3455637132e+01    0.2373852     0.172186  10.49  0.001074072    2.002    0.501
        46  -9.3956    105.2419    147.1779   1.2455955004e+02   3.1982938472e+01    0.2512031    0.1882521 -35.93  0.001150402    1.704    0.413
        47 -13.6256     65.5348    141.4497   1.3455757672e+02   3.9399044907e+01     2.422911     1.065006  80.58  0.004021182    5.140    0.805
        48  -9.4441    108.8973    123.7756   1.1917970309e+02   3.6354175379e+01     0.206678    0.1886728  28.28  0.000374257    1.169    0.145
        49 -11.0109    168.3845    113.4157   1.0196679575e+02   2.5891880681e+01    0.3839869     0.307931 -83.99  0.001076799    1.721    0.419
        50 -10.8095    248.7563    248.6254   1.1188740459e+02  -4.4794074334e+00    0.1824636    0.1381668  19.75  0.001573831    1.356    0.263
        51 -10.9283    145.5072    245.1709   1.2865003916e+02   9.3601154107e+00    0.1876069    0.1391483  12.14  0.001359003    1.535    0.348
        52  -9.2677    128.0060     23.6816   8.2091573428e+01   5.1000451895e+01     0.214183    0.1874281  64.82 0.0003482646    1.090    0.083
