#   1 NUMBER                 Running object number                                     
#   2 MAG_AUTO               Kron-like elliptical aperture magnitude                    [mag]
#   3 X_IMAGE                Object position along x                                    [pixel]
#   4 Y_IMAGE                Object position along y                                    [pixel]
#   5 X_WORLD                Barycenter position along world x axis                     [deg]
#   6 Y_WORLD                Barycenter position along world y axis                     [deg]
#   7 A_WORLD                Profile RMS along major axis (world units)                 [deg]
#   8 B_WORLD                Profile RMS along minor axis (world units)                 [deg]
#   9 THETA_WORLD            Position angle (CCW/world-x)                               [deg]
#  10 FWHM_WORLD             FWHM assuming a gaussian core                              [deg]
#  11 ELONGATION             A_IMAGE/B_IMAGE                                           
#  12 ELLIPTICITY            1 - B_IMAGE/A_IMAGE                                       
         1 -12.1795    175.8479     65.2236   8.6727220550e+01   3.2326464975e+01     2.875968     1.400871 -59.67   0.00857433    4.110    0.757
         2  -9.7844    220.4134      2.5440   6.2575960297e+01   2.8820472433e+01    0.4531058    0.2443019 -78.15  0.001652022    2.096    0.523
         3 -12.7478    218.7612     32.0051   7.0530628446e+01   2.6063216750e+01     4.892078     1.772868 -56.90   0.01377103    5.129    0.805
         4 -11.8704    232.4081      9.9917   6.3409461843e+01   2.5193597619e+01    0.6698042    0.5066801 -11.95   0.00201234    1.551    0.355
         5 -13.1594    223.2702     17.0372   6.6064552189e+01   2.6656336189e+01     1.774007    0.9461248 -45.57  0.008401891    1.791    0.442
         6  -9.4791    247.5295     17.2697   6.3877252884e+01   2.0895242758e+01    0.4210001    0.2395542 -67.95  0.002046886    1.912    0.477
         7  -9.4435     15.0577     12.5437   1.1630825226e+02   7.0528334865e+01    0.2066699    0.1407638 -51.70  0.001362126    1.664    0.399
         8  -8.2614    184.4616     12.0785   6.9046173856e+01   3.6955582521e+01    0.2076842    0.1369884 -24.27  0.001031086    1.595    0.373
         9  -8.3704    115.9975     12.4996   8.0826893516e+01   5.3968832640e+01    0.2801805    0.1971542  59.47  0.001281749    1.436    0.303
        10 -10.2047    120.3046      8.9388   7.8471408391e+01   5.3320481272e+01     0.386058    0.3667826  28.91  0.001609375    1.088    0.081
        11 -10.1892    173.4160      4.6724   6.8178772434e+01   4.0489124975e+01    0.8574324     0.261862 -45.18  0.002781322    3.994    0.750
        12 -10.2198    181.7605      5.9668   6.7534916439e+01   3.8230082173e+01    0.9455106    0.4092321 -74.92  0.002856638    4.780    0.791
        13  -8.6661    163.9556      5.4232   6.9684966952e+01   4.2847971029e+01    0.2684757     0.172847 -44.36  0.001267352    1.689    0.408
        14  -9.7855    249.1757      3.2077   6.0438040989e+01   2.1992594591e+01    0.3569574    0.2623239 -45.52  0.002172823    1.218    0.179
        15  -8.5054     53.5108      1.5098   9.4015479799e+01   6.7336564421e+01    0.1215226   0.09773046  -0.34 0.0008101815    1.040    0.039
        16  -8.6143     15.4624    152.4326   1.4530081421e+02   4.1544414403e+01    0.1124698   0.08646046 -88.03 8.336983e-05    1.020    0.019
        17  -8.5822    126.5474    250.4977   1.3405415530e+02   9.3003140925e+00    0.1116171   0.08485802  52.66 3.011363e-05    1.013    0.013
        18 -10.1529     67.5133    144.1868   1.3248823918e+02   3.7726964200e+01    0.4806667    0.3141877  63.03  0.001554898    1.637    0.389
        19  -8.7457    233.9833    145.3213   9.6978972692e+01   5.9932972359e+00    0.1939638    0.1706918  21.19 0.0006472409    1.092    0.084
        20  -7.9983    192.4988    144.4549   1.0439615228e+02   1.4660206719e+01     0.142511    0.1376501  23.11 7.437335e-05    1.065    0.061
        21  -7.4773    201.4906    140.4993   1.0175309088e+02   1.3431805491e+01    0.1452991    0.1350963   9.30 -0.0001656412    1.004    0.004
        22  -8.4239    132.0580    139.0581   1.1618229339e+02   2.8209748837e+01    0.2034876    0.1974411  80.19  0.001175466    1.006    0.006
        23  -8.6025    196.5230    128.0763   9.9786872117e+01   1.6637013660e+01    0.2592786      0.19609  27.65 0.0004086145    1.399    0.285
        24  -8.3219    201.8565    125.8290   9.8220202228e+01   1.5847383753e+01    0.1944579    0.1788491 -81.90 0.0004313447    1.315    0.239
        25 -11.3117    242.7285    119.3131   8.9558155261e+01   8.1216103167e+00    0.5762057    0.3584974 -32.53  0.002842403    1.481    0.325
        26  -8.1984    128.9639    123.9124   1.1352709136e+02   3.1978816107e+01    0.1990566    0.1844356  -7.56            0    1.199    0.166
        27  -7.9471    205.4777    122.4718   9.6720831472e+01   1.5616378232e+01    0.1483896    0.1385096   1.94 0.0001751303    1.019    0.018
        28  -7.7578    223.2963    120.7000   9.3093813792e+01   1.2003046923e+01    0.1387202     0.113542 -64.28 0.0002877334    1.574    0.365
        29  -8.1068    200.8005    116.0204   9.5997710983e+01   1.7762893517e+01    0.2435375    0.1659712 -58.81  0.001064503    1.936    0.483
        30  -7.8048    168.3215    113.6719   1.0195717179e+02   2.5594021662e+01      0.15492    0.1222653 -78.60 0.0007048376    1.689    0.408
        31 -10.5204    188.2930    104.8550   9.5531563572e+01   2.2589924576e+01    0.5213124    0.2357582 -36.66  0.001237581    2.159    0.537
        32 -11.2545    244.7259     99.7220   8.4546934750e+01   1.0617394935e+01    0.5725424    0.3051339 -34.29  0.001780075    1.693    0.409
        33 -11.1219    186.6185     91.7720   9.2324969555e+01   2.5269054057e+01     1.205284    0.2123881 -39.89  0.002918122    5.141    0.806
        34  -9.6242     74.6736    248.5826   1.4234675712e+02   1.6853908875e+01    0.2181963   0.08941263 -67.71  0.001271348    2.710    0.631
        35  -9.2626    150.5518     91.1455   9.9795058579e+01   3.3941217288e+01    0.3873434    0.3056594   7.05  0.001126641    1.549    0.354
        36  -8.5530    136.0170     90.7894   1.0315390551e+02   3.7277574499e+01    0.2429342    0.2042271 -83.15   0.00119995    1.475    0.322
        37 -11.4766    241.6425     83.1291   8.0891385583e+01   1.3724265418e+01    0.9193321    0.3533643 -38.84  0.003539897    2.343    0.573
        38  -7.4754    124.3055     88.6324   1.0547932664e+02   4.0211971689e+01    0.1543184    0.1186497 -76.00 0.0007035488    1.749    0.428
        39  -9.3228    159.9828     81.9588   9.4998109919e+01   3.3413636115e+01    0.3762024    0.2785928  14.44 0.0009523578    1.707    0.414
        40 -10.1735    163.3245     78.9527   9.3385562006e+01   3.3138898977e+01    0.4105739    0.3674765  14.45   0.00108198    1.174    0.148
        41  -9.8285    144.3365     79.3699   9.7768739182e+01   3.7566305394e+01    0.3709491    0.2740379 -38.05 0.0007321026    1.328    0.247
        42  -9.3891    231.6285     79.8807   8.1501407345e+01   1.6462424261e+01    0.2497225    0.1891984  45.36  0.001030489    1.403    0.287
        43  -7.8667    212.4754     79.4588   8.4343753838e+01   2.1034023814e+01    0.1476767    0.1412773  -9.72 0.0008084562    1.036    0.034
        44  -8.1257    219.0347     74.5279   8.1983527163e+01   2.0213052349e+01    0.2032633    0.1292498 -84.87  0.000809458    2.503    0.600
        45  -9.8064    229.7281     61.6656   7.7036243324e+01   1.9530323441e+01    0.9362949    0.5055714 -83.40  0.001734331    3.676    0.728
        46 -10.3955     66.6623    245.8631   1.4342114561e+02   1.8303285467e+01    0.2200353    0.1641995 -75.95  0.001738087    1.484    0.326
        47 -11.6997      3.4306    240.6836   1.5275548395e+02   2.6087990512e+01    0.6001741    0.2508478 -83.28  0.004142334    2.037    0.509
        48  -9.2312    195.3429     57.5385   8.1000783509e+01   2.8569195007e+01    0.3700769     0.265055   2.10   0.00168818    1.777    0.437
        49  -8.7748    211.2153     64.4273   8.0440583367e+01   2.3605837242e+01    0.3247653    0.2157659 -70.12  0.001001452    2.016    0.504
        50  -8.8134    207.6913     61.1166   8.0062916848e+01   2.4957685141e+01    0.3916011    0.2349045 -63.66 0.0008760358    2.289    0.563
        51 -10.3924    186.5842     40.2324   7.7273460935e+01   3.3187697583e+01     1.119197     0.530705 -63.24  0.003420391    4.183    0.761
        52  -9.8583    200.3585     53.6169   7.9071287336e+01   2.7863052114e+01    0.6758535    0.3419127 -60.59  0.002346316    3.122    0.680
        53 -11.0578    196.1214     46.2595   7.7591574838e+01   2.9949646631e+01    0.5370193    0.3964454 -23.02   0.00141344    1.400    0.286
        54  -9.8014    202.7632     61.5661   8.0960082890e+01   2.6118564232e+01    0.8541154    0.4178256 -66.33  0.002334878    5.234    0.809
        55  -9.3608    144.3295     59.2394   9.1400359532e+01   4.1051568403e+01    0.2692406    0.2613569 -52.06 0.0006272905    1.100    0.091
        56  -7.5652     72.7757     58.3591   1.1104709980e+02   5.5593909926e+01    0.1283668   0.09916934 -61.42 0.0003821478    1.569    0.363
        57 -10.0230    185.5660     56.0037   8.2188534186e+01   3.1270250994e+01    0.2873057    0.2834407  33.81  0.000433833    1.015    0.015
        58  -8.0708    154.4841     54.5075   8.7635648968e+01   3.9326575943e+01    0.2617594    0.1487287 -16.21 0.0007899551    2.211    0.548
        59 -11.9895    178.9403     43.4431   7.9496425373e+01   3.4726967615e+01    0.6476057    0.3912993  -3.65  0.002628799    2.312    0.568
        60  -8.4339    135.1962     48.0432   8.9715725130e+01   4.4976886015e+01    0.2214591     0.187393  14.11 0.0003316276    1.221    0.181
        61  -9.6747    250.0028     43.6007   7.0020685899e+01   1.7233458102e+01    0.2338097    0.2043336 -37.78 0.0004415515    1.066    0.062
        62 -10.6869    144.5330     40.6052   8.5064056334e+01   4.3803162337e+01     0.959614    0.4587138  79.45  0.002453917    6.204    0.839
        63 -10.4300    202.9875     39.1087   7.4525577077e+01   2.9139726074e+01    0.3753058    0.2808565  31.18 0.0009285512    1.550    0.355
        64  -9.0529     75.4835     37.6723   1.0258696537e+02   5.8820842910e+01    0.2814546    0.2067648 -53.95  0.001162616    1.769    0.435
        65 -10.2384    131.6291     37.7723   8.6900555585e+01   4.7301219536e+01    0.3714755    0.2469377  71.23  0.001694678    1.888    0.470
        66  -8.8228    122.9659     37.9659   8.9017949109e+01   4.9286567799e+01    0.2905322    0.1684757 -67.08 0.0009584585    4.129    0.758
        67  -8.1797    158.9042     34.4512   8.0134342031e+01   4.1025844194e+01    0.2156657    0.1903426 -21.82 0.0003739647    1.158    0.136
        68  -9.0098    243.0657     33.8727   6.8344013984e+01   2.0015130179e+01    0.2798932    0.2167186 -74.05 0.0005363919    1.324    0.245
        69  -8.2283    119.4795     40.9926   9.0999969175e+01   4.9639840938e+01     0.205661    0.1125171 -51.11 0.0008096609    2.504    0.601
        70  -8.1987    250.2249     31.4430   6.7040909794e+01   1.8667789862e+01    0.1793671      0.12053 -85.84 0.0009401366    1.646    0.393
        71  -8.9261    234.6897    238.3172   1.1438081273e+02  -6.0062584623e+00   0.09764034   0.08530919  50.14 0.0002992066    1.638    0.390
        72 -10.9608    159.6757     67.3189   9.0621001054e+01   3.6006107889e+01    0.3964077    0.2876858 -17.52  0.000951117    1.517    0.341
        73  -9.5680     70.6427     29.0202   1.0069782632e+02   6.0974979329e+01    0.4064247     0.218849 -52.94  0.001703123    3.150    0.682
        74  -7.7712    133.3261    232.3267   1.3089509495e+02   1.0918886662e+01     0.109749   0.08677756  17.58  0.000352256    1.697    0.411
        75  -8.2191    144.1576     98.1439   1.0326632704e+02   3.4040059365e+01    0.2335591    0.2054187   2.83 0.0006404007    1.254    0.203
        76  -9.5100    179.0829     23.9837   7.3429546012e+01   3.7090259821e+01     0.494395    0.3025199  59.71  0.002328003    1.532    0.347
        77 -10.3186    144.4707     24.0049   7.9255508898e+01   4.5912289248e+01    0.2712444    0.2340122  20.01  0.000351454    1.160    0.138
        78  -7.9845    192.1376     21.1945   7.0780072381e+01   3.4033982389e+01    0.1897105    0.1537452 -64.44 0.0003523456    1.285    0.222
        79  -8.3602    155.1882     18.9686   7.5566974385e+01   4.3772105444e+01    0.2126872    0.1840208 -56.49 0.0003624233    1.277    0.217
        80  -8.5489    220.2477    231.0036   1.1562112308e+02  -2.9908351290e+00     0.137239    0.0956931 -25.21 0.0004936929    1.624    0.384
        81 -12.6276     20.9412    221.2297   1.4915841821e+02   2.7658376125e+01    0.6213638    0.3810724  69.47  0.002614281    1.211    0.174
        82  -8.7312     44.5231    224.1109   1.4547952797e+02   2.4602710403e+01    0.1635626    0.1336101  42.63 0.0005449392    1.526    0.345
        83 -12.8972     41.4971    201.0818   1.4429571570e+02   2.9136095818e+01    0.8595552    0.7430174 -69.25  0.006704487    1.448    0.309
        84  -9.9538    187.2161    192.1109   1.1500902415e+02   7.8488972175e+00    0.2148214    0.1834957  37.46 0.0002381535    1.060    0.056
        85 -11.4440     56.1039    185.8109   1.4016547536e+02   3.0391070381e+01    0.6426868    0.5704551  25.60  0.004613327    1.584    0.369
        86 -10.2457     55.4269    179.4038   1.3964000808e+02   3.1764874817e+01    0.3860898    0.2637955 -89.40  0.002441158    1.307    0.235
        87  -8.1198    214.0260    167.6713   1.0531518436e+02   6.5233108645e+00    0.2154508    0.1136635  64.56 0.0007045926    4.478    0.777
        88  -7.4386    159.7181    158.6658   1.1415058339e+02   1.8859685464e+01    0.1402062    0.1109163   1.49 0.0002288168    1.615    0.381
