#   1 NUMBER                 Running object number                                     
#   2 MAG_AUTO               Kron-like elliptical aperture magnitude                    [mag]
#   3 X_IMAGE                Object position along x                                    [pixel]
#   4 Y_IMAGE                Object position along y                                    [pixel]
#   5 X_WORLD                Barycenter position along world x axis                     [deg]
#   6 Y_WORLD                Barycenter position along world y axis                     [deg]
#   7 A_WORLD                Profile RMS along major axis (world units)                 [deg]
#   8 B_WORLD                Profile RMS along minor axis (world units)                 [deg]
#   9 THETA_WORLD            Position angle (CCW/world-x)                               [deg]
#  10 FWHM_WORLD             FWHM assuming a gaussian core                              [deg]
#  11 ELONGATION             A_IMAGE/B_IMAGE                                           
#  12 ELLIPTICITY            1 - B_IMAGE/A_IMAGE                                       
         1 -15.0990    246.3957     17.1474   3.3842539456e-01   2.2650122170e+01     2.974108    0.6777851 -33.01   0.01205121    3.245    0.692
         2 -13.2961     12.1187     23.6803   6.1825078358e+01   7.2354125607e+01    0.6741698    0.2852869 -34.72  0.003124897    2.301    0.565
         3 -13.2544      6.7378     11.0626   5.9772323775e+01   7.5180578132e+01    0.8719234    0.4174803 -34.64  0.004622653    1.854    0.461
         4 -12.5555     10.5492      2.1285   5.1669333334e+01   7.6354283696e+01    0.9425574    0.2150332  27.93  0.003425707    4.607    0.783
         5 -12.2061     13.4145     12.7969   5.5723857414e+01   7.4270531955e+01    0.3333487    0.2030449 -21.65  0.001509647    1.585    0.369
         6 -12.4777     15.4991      7.2280   5.1072909696e+01   7.4999377501e+01    0.4916476    0.2584659 -19.63  0.002469146    2.211    0.548
         7 -12.1314     19.8246     14.0478   5.1928832657e+01   7.3374188584e+01    0.3670181    0.1799421 -30.71  0.001816949    2.048    0.512
         8 -12.6065     25.4096      4.0537   4.2256040663e+01   7.4230841445e+01    0.4759125    0.2901566   3.48  0.002569312    1.898    0.473
         9 -11.7709     29.6009    240.6835   8.6591841192e+01   2.0719983105e+01     0.422141    0.2063289  59.53  0.001920395    1.705    0.414
        10 -12.8006    236.7842    228.8881   4.4232726805e+01  -4.4393448354e+00    0.6610505    0.3035842 -43.30  0.003440334    3.196    0.687
        11 -12.5498    234.1418    245.3560   4.7164461039e+01  -5.9953359510e+00    0.5936551    0.2586685 -26.14  0.003460502    2.271    0.560
        12 -12.3483    248.7645    225.4553   4.1763889105e+01  -5.4311397290e+00    0.4929293    0.3116893  24.59   0.00345413    1.438    0.305
        13 -11.4726    240.0537    239.4438   4.5320775157e+01  -6.0111775328e+00    0.3116513    0.1754028 -13.74  0.001338804    1.618    0.382
        14 -11.3374    243.7676    235.3407   4.4099386282e+01  -5.9749790837e+00    0.2777905     0.180172 -12.45  0.001210578    1.275    0.215
        15 -11.6534    244.9797    230.4869   4.3155650037e+01  -5.5699912692e+00    0.3600412    0.1585638 -36.27   0.00206818    2.398    0.583
        16 -12.2827    243.0191    245.6651   4.5771306060e+01  -7.0106988956e+00    0.5587319    0.2598735 -16.42  0.003264279    2.241    0.554
        17 -11.6649    247.3702    239.2279   4.4117454083e+01  -6.7974150318e+00    0.3361591    0.1999992 -11.86  0.001417375    1.421    0.296
        18 -11.5856    249.9872    232.9522   4.2745271883e+01  -6.4035194416e+00    0.3604722     0.190801 -21.73  0.001759637    1.659    0.397
        19 -11.3100    248.9869    250.0047   4.5462146860e+01  -8.0981781794e+00    0.3652379    0.1428079  26.28    0.0021332    2.178    0.541
        20 -11.1891    248.8773    245.1208   4.4761853669e+01  -7.5834339829e+00     0.306185    0.1756126 -16.70   0.00214687    1.498    0.333
        21 -11.7991    225.7230    248.3811   4.9001891387e+01  -5.3712558562e+00    0.2929043    0.1881462  -8.69  0.001643421    1.370    0.270
        22  -9.7563    183.5123    250.4712   5.6743975416e+01  -4.6712618569e-01    0.1168605   0.08640973  15.88 0.0008093872    1.048    0.046
        23 -10.3073     74.9475    250.4995   7.8138567340e+01   1.3808579122e+01    0.2762417   0.07055748  38.31  0.001196487    2.630    0.620
        24 -11.1031     65.2156    249.1251   7.9988983065e+01   1.5224134888e+01    0.3145803    0.1260419  44.04  0.001662691    1.846    0.458
        25 -11.0280     50.2519    250.1829   8.3029861927e+01   1.6781367070e+01    0.3561351    0.1159215  34.84  0.001745849    2.290    0.563
        26 -11.8650     36.7800    248.6315   8.5579960772e+01   1.8534720225e+01    0.4442538     0.181721  50.00  0.002497584    1.822    0.451
        27 -13.3933     12.1906    205.4509   8.8528870938e+01   2.9355500260e+01     0.716726    0.4566709  42.99  0.004587107    1.339    0.253
        28 -14.3553     10.6916    181.9532   8.7676607519e+01   3.4608640320e+01     1.949341    0.5264289  84.05  0.005951854    5.625    0.822
        29 -12.3628      2.2529    211.1425   9.0902534222e+01   2.9047608235e+01    0.7872287    0.2176684 -87.02  0.003329413    3.583    0.721
        30 -12.0387     12.1409    248.9670   9.0289522820e+01   2.0957352785e+01    0.4560646    0.1593326  45.27  0.001850335    1.893    0.472
        31 -11.5279     14.0786    231.8427   8.9280223726e+01   2.3909098371e+01    0.4240817    0.2165769  58.12  0.002166337    1.523    0.343
        32 -11.7065     11.0886    225.7292   8.9636598707e+01   2.5361910679e+01    0.4081027    0.1868439  53.62  0.001580698    1.657    0.396
        33 -12.4745     15.8269    240.2104   8.9268278708e+01   2.2181497248e+01     0.626928    0.2295654  47.44  0.003036083    1.896    0.473
        34 -12.3617      6.6943    236.5154   9.0898181462e+01   2.3716894374e+01    0.5551855    0.2358516  54.99  0.003290034    1.735    0.424
        35 -12.1439      4.9242    228.2761   9.0964428180e+01   2.5429209953e+01    0.4708553    0.2262698  61.27  0.001843396    1.630    0.386
        36 -11.8724      2.2169    220.8647   9.1253084994e+01   2.7104619530e+01    0.4050536    0.2024133  80.76  0.001733665    1.775    0.437
        37 -11.5155      3.7349    250.1626   9.1877218593e+01   2.1524405859e+01    0.3328433    0.1571266  28.71   0.00184006    2.053    0.513
        38 -12.7667      3.4059    243.2441   9.1735294112e+01   2.2783292044e+01    0.5423862    0.2640819  70.56  0.003453123    1.720    0.419
        39 -10.8744    202.7823    249.4329   5.3111732777e+01  -2.7622219088e+00    0.2268458    0.1326377   7.23  0.001344428    1.683    0.406
        40 -10.6790     38.2693    240.3847   8.4848401848e+01   1.9857684815e+01    0.2792436    0.1274235  50.65  0.001355325    1.687    0.407
        41 -11.6098    214.7220    239.6305   4.9604492902e+01  -3.0542057854e+00    0.1987603    0.1175589 -17.87  0.001200338    1.673    0.402
        42 -10.7601    220.1686    238.4931   4.8493940861e+01  -3.5824068785e+00    0.1892342    0.1233751  -2.80   0.00126998    1.354    0.262
        43 -11.5933    219.0141    243.9794   4.9501190466e+01  -4.0866665271e+00    0.1780133    0.1277244   5.35 0.0007838934    1.065    0.061
        44 -10.9639     44.9303    237.1431   8.3309228784e+01   1.9722769346e+01    0.3053581    0.1099303  50.11  0.001502797    2.202    0.546
        45 -11.7766    231.5431    235.0176   4.6046133781e+01  -4.5336655612e+00    0.3347476    0.1732822 -22.74  0.001805535    1.848    0.459
        46 -10.3310     32.9667    236.3116   8.5697018465e+01   2.1176954417e+01    0.2254738    0.1133164  62.32  0.001304998    1.749    0.428
        47 -11.3424    207.0027    233.9944   5.0127558314e+01  -1.3907540043e+00    0.2608289    0.1331869 -13.20  0.001318879    2.581    0.613
        48 -11.4546    217.7899    231.8959   4.7907898708e+01  -2.4936631861e+00    0.2834437    0.1295817 -25.02  0.001510008    2.345    0.573
        49 -10.8307     39.9610    231.0063   8.3962973775e+01   2.1426816376e+01    0.2823192    0.1493844  67.29  0.001607394    1.813    0.448
        50 -12.0818     25.7031    228.7918   8.6791710081e+01   2.3354573901e+01    0.5180905    0.2495938  70.10  0.002893166    1.967    0.492
        51 -10.4157     48.5266    230.4795   8.2134879253e+01   2.0568718916e+01    0.2918338    0.1180758  58.30  0.001387436    2.435    0.589
        52 -10.4611     32.3658    229.3502   8.5445712511e+01   2.2559385590e+01    0.2496813    0.1071607  57.10  0.001148463    1.993    0.498
        53 -10.6256    229.4961    227.4478   4.5217377654e+01  -3.3959633030e+00    0.2143759   0.09783232 -32.66  0.001205759    2.147    0.534
        54 -10.4004    223.6071    225.2540   4.5871744867e+01  -2.4007899803e+00    0.1571181   0.09042932 -19.65 0.0009464003    1.665    0.400
        55 -11.6005     18.6630    221.8008   8.7911002165e+01   2.5416839035e+01    0.3641251    0.1828111  70.87  0.001876873    1.806    0.446
        56 -12.4999     12.0746    216.9398   8.9070659923e+01   2.7007362367e+01    0.5558021    0.2383885  55.98  0.002406963    1.853    0.460
        57 -10.4444    217.0000    222.0135   4.6503610838e+01  -1.1492921166e+00    0.1748296   0.06053432 -36.92 0.0008037195    2.951    0.661
        58 -11.9738    239.2561    219.2778   4.2298249158e+01  -3.5962784838e+00    0.3007096    0.1610588 -18.44  0.001599423    1.758    0.431
        59 -12.1909    248.4453    215.1345   4.0149267019e+01  -4.1981755173e+00    0.5323103    0.2054237 -27.09  0.002740666    2.448    0.592
        60 -10.5125    227.6884    219.1041   4.4193298592e+01  -2.1471554997e+00    0.2675903    0.1180608 -28.59  0.001417658    2.213    0.548
        61 -10.5124     24.3058    217.4680   8.6502491956e+01   2.5728317356e+01    0.2531403    0.1275468  63.56  0.001392831    1.743    0.426
        62  -9.6808    225.5068    230.4950   4.6366296491e+01  -3.2762613032e+00    0.1152846   0.08488539   4.96 0.0008105481    1.021    0.020
        63 -10.5371    233.1534    211.9373   4.2099136521e+01  -1.9361303500e+00    0.2526585    0.1248239 -19.43  0.001344864    2.114    0.527
        64 -11.4567     21.6525    211.1089   8.6738697888e+01   2.7288306983e+01    0.3270271     0.182227  79.13  0.001896301    1.676    0.403
        65 -10.9854     28.9677    211.4899   8.5152115813e+01   2.6477099805e+01     0.241139    0.1359464  73.13  0.001371671    1.664    0.399
        66 -11.3026    240.1024    206.9914   4.0127671821e+01  -2.1897969065e+00    0.2617213    0.1436598 -29.68  0.001347746    1.653    0.395
        67 -10.0025     36.2371    207.8260   8.3291900307e+01   2.6476471967e+01    0.2280291    0.0824819  58.58 0.0009548728    2.822    0.646
        68 -10.4926    250.5237    200.6707   3.7395956278e+01  -2.6965609860e+00    0.2578608   0.09449665 -35.01  0.001282193    2.481    0.597
        69 -10.8770    243.5386    200.2310   3.8420353386e+01  -1.7689565053e+00    0.2621968    0.0963458 -31.82  0.001268545    2.470    0.595
        70 -10.7415    246.9639    205.9511   3.8853255889e+01  -2.9116211687e+00    0.2263877    0.1316637 -28.01  0.001204066    1.521    0.343
        71 -10.8373     27.2444    248.6217   8.7420660010e+01   1.9532908280e+01    0.3143227    0.1332375  51.44  0.001419713    1.740    0.425
        72 -10.8858    246.0003    192.2655   3.6639959252e+01  -1.0622218481e+00    0.1674324    0.1297989  -5.34 0.0008775696    1.017    0.017
        73 -12.0920     17.0865    189.8138   8.6591228313e+01   3.2284838980e+01    0.3334237    0.1582654  71.04  0.001558997    2.018    0.504
        74 -10.6598     24.4902    186.4926   8.4602907874e+01   3.2330471579e+01    0.2261409    0.1014045  84.84  0.001032982    2.355    0.575
        75 -10.3177    249.4144    184.2083   3.4671432931e+01  -4.5726253420e-01    0.1599185   0.09544134 -37.51 0.0009480614    1.694    0.410
        76 -11.9710     20.3714    249.0382   8.8746899694e+01   2.0149459895e+01    0.4246126    0.2068624  43.92  0.001953136    1.473    0.321
        77 -10.4395     22.9902    179.4935   8.4490599475e+01   3.4068018598e+01    0.1903974   0.06667332  48.90 0.0008097155    2.469    0.595
        78 -12.1632      3.6659    197.0549   9.0042763185e+01   3.1872554487e+01    0.5059413    0.2583631  74.83  0.002224423    1.704    0.413
        79 -13.3636      3.1438    128.3302   8.6221544234e+01   4.8002739425e+01      1.09099    0.3381484  74.10  0.003291279    5.207    0.808
        80 -14.0125      5.5912    139.5645   8.6335101864e+01   4.5061727360e+01    0.9440883    0.4157185  74.19  0.004188093    2.378    0.579
        81 -12.2313      2.3065    143.6257   8.7572909928e+01   4.4284389884e+01    0.3973801    0.2007359 -77.95  0.001555269    1.691    0.409
        82 -11.5263      1.5077    170.4847   8.9331102076e+01   3.7956463499e+01    0.3488031    0.1511356 -79.36  0.001624105    2.023    0.506
        83 -13.0995      5.4459    190.9759   8.9371292540e+01   3.3040853145e+01     1.128707    0.3370673  67.57  0.004361526    3.639    0.725
        84 -12.8782      2.7218    165.7412   8.8777059682e+01   3.8968242727e+01    0.4646275    0.2380519  52.40  0.002512728    1.717    0.418
        85 -12.7764     10.8175    166.5798   8.6734854659e+01   3.8147260167e+01     0.326061     0.159507  65.21  0.001620966    1.923    0.480
        86  -9.7282    246.3404    167.6820   3.2089654604e+01   2.1866472297e+00    0.1084729   0.09338132 -53.30 0.0007049172    1.711    0.416
        87 -10.8741     19.4335    164.2194   8.4297448472e+01   3.7977680382e+01    0.1842929    0.1047887  83.44 0.0009454947    1.663    0.399
        88 -13.2614     10.0598    155.3048   8.6189868788e+01   4.0896125763e+01    0.3972226    0.2353206  78.70  0.002158166    1.536    0.349
        89 -10.6419    249.6873    150.5499   2.8288926219e+01   4.0988915219e+00    0.2258655   0.09402473 -34.36   0.00108057    2.019    0.505
        90  -9.9859    244.4213    148.9764   2.8750165631e+01   5.1112471706e+00     0.194173    0.1028041 -33.50  0.001023873    1.605    0.377
        91  -9.9518    234.5740    146.2799   2.9701919229e+01   7.0428021169e+00    0.2435175    0.1058769 -38.92  0.001120034    2.067    0.516
        92 -12.4688      2.9413    179.8907   8.9440299359e+01   3.5703253655e+01     0.872766     0.279893  70.86  0.003450548    3.361    0.702
        93 -10.1090    247.5802    143.7678   2.7250648701e+01   5.3796108481e+00    0.1752937   0.09898796 -40.22 0.0009451123    1.643    0.391
        94 -10.7419    243.8283    139.3773   2.6908787541e+01   6.5959789271e+00    0.2243563    0.1452616 -37.96 0.0009549126    1.389    0.280
        95 -10.6044    248.7249    135.3550   2.5394894735e+01   6.4126011141e+00    0.2309156    0.1261456 -40.03  0.000937311    1.642    0.391
        96 -10.4665    242.4867    134.0170   2.6006707136e+01   7.5960293340e+00    0.1996988    0.1064469 -34.02  0.001031093    1.586    0.370
        97 -12.8384      3.6078    154.4581   8.7896450242e+01   4.1575743590e+01    0.6441213    0.2154067 -69.86   0.00280206    2.525    0.604
        98 -10.7426    248.1361    129.8972   2.4364004174e+01   7.2935662825e+00    0.2838781     0.174646 -45.07  0.001206769    1.638    0.389
        99 -12.4826      5.4799    121.9941   8.4947224882e+01   4.9443027750e+01    0.2813535    0.1849335 -80.02  0.001585144    1.300    0.231
       100 -11.2920    241.8819    125.5759   2.4339611799e+01   8.9428759267e+00    0.2675915    0.1568351 -38.68  0.001445617    1.484    0.326
       101 -10.7954    240.0000    107.9537   2.0842831346e+01   1.1882072267e+01    0.2182055   0.06307584 -34.91 0.0007997524    2.924    0.658
       102 -11.3953    243.9202    114.3437   2.1690300839e+01   1.0259382772e+01    0.3297422    0.1863528 -67.29  0.001236497    4.502    0.778
       103 -10.6341    249.5000    124.0038   2.2966276600e+01   7.9276415857e+00    0.2463114    0.1055308 -31.22  0.001049244    2.032    0.508
       104 -11.4726    248.7373    118.4992   2.1925673846e+01   8.8477978322e+00    0.3890409    0.1794919 -37.15  0.001440881    1.790    0.441
       105 -10.0812    227.4293    124.2211   2.6167345992e+01   1.1629301965e+01    0.1933775    0.1086635 -43.42 0.0009496058    1.697    0.411
       106 -10.2986    239.3012    120.6593   2.3664963042e+01   1.0108993801e+01    0.1272275   0.09163516 -55.76 0.0006577391    1.671    0.402
       107  -9.9093    243.3833    119.1261   2.2775173126e+01   9.6458860977e+00    0.1921162   0.09714033 -42.66 0.0009094178    1.806    0.446
       108 -10.3266    230.6284    116.2391   2.3951928805e+01   1.2296144753e+01    0.1896497    0.1109999 -27.42  0.000886112    1.613    0.380
       109 -10.8687    247.9402    112.5106   2.0774445542e+01   9.8479523262e+00     0.247645    0.1457373 -43.95 0.0009299387    1.561    0.359
       110 -12.1549      4.5182    110.5137   8.4193597856e+01   5.2386084123e+01    0.2847115    0.1100974 -76.89  0.001220979    2.202    0.546
       111 -13.0873    243.9837     98.4521   1.8272436900e+01   1.2571565251e+01    0.4154724    0.3918315  -5.87  0.002858738    1.174    0.148
       112 -12.0421    249.0979     97.7926   1.7506413027e+01   1.1768702126e+01    0.3699317    0.1815781 -45.46  0.001840609    1.867    0.464
       113 -11.8327    248.4154    106.7476   1.9495849444e+01   1.0601073357e+01    0.3372525    0.1667199 -49.51  0.001438058    2.204    0.546
       114  -9.8504    236.2786    107.6193   2.1270640656e+01   1.2593594938e+01    0.1339858   0.08889835 -54.76 0.0004783477    1.714    0.417
       115 -11.6844    243.8521    109.5652   2.0681133236e+01   1.0972814589e+01    0.2212023    0.1280278 -38.18 0.0008037208    1.452    0.311
       116 -10.5180    230.6005    103.8051   2.1207237297e+01   1.4206865387e+01    0.1957198    0.1047866 -42.97 0.0009474278    1.682    0.405
       117 -11.3099    238.5179    102.5167   1.9855140505e+01   1.2952618821e+01    0.2651675    0.1097301 -34.95 0.0008755458    2.043    0.510
       118  -9.5039    225.6514     99.3326   2.0888476441e+01   1.5825740742e+01    0.1383665   0.09584581 -62.30 0.0007048467    1.771    0.435
       119 -11.7714      1.7260     94.4740   8.3512000489e+01   5.6558422104e+01    0.3540136    0.1254132 -74.48  0.001484273    2.333    0.571
       120 -11.0635    235.6969     95.1899   1.8604629478e+01   1.4554401785e+01    0.2130285    0.1392051 -46.10 0.0009140371    1.403    0.287
       121 -11.7711    242.3926     92.7822   1.7234099447e+01   1.3677945460e+01      0.25952    0.1973897 -40.85 0.0009922527    1.120    0.107
       122 -11.1642    236.8994     90.1157   1.7321970327e+01   1.5076902129e+01    0.2064143    0.1555735 -51.57 0.0008750997    1.281    0.219
       123 -12.5335    242.2127     87.2127   1.6034152538e+01   1.4511910545e+01    0.5366229    0.3055214 -88.78   0.00227829    3.595    0.722
       124 -11.6320    243.4955     76.4941   1.3527655908e+01   1.5787944511e+01     0.260042    0.1066974 -34.14  0.000762613    2.049    0.512
       125 -12.4796    243.3679     82.4155   1.4845171764e+01   1.4981227470e+01    0.4347149    0.1377094 -39.17  0.001780979    2.492    0.599
       126 -11.5498    250.0006     80.4864   1.3688674048e+01   1.4041845171e+01    0.3499455    0.3074512 -78.93  0.002387018    1.287    0.223
       127 -12.0804    248.6262     74.6720   1.2578253220e+01   1.5090594022e+01     0.514371    0.2217652 -33.32  0.002448209    1.960    0.490
       128 -11.7465    249.4106     87.6891   1.5304413851e+01   1.3144088369e+01    0.4057244    0.1822471 -30.72   0.00192136    1.993    0.498
       129 -10.8576    246.5114     84.5312   1.4950113113e+01   1.4107899944e+01    0.2052807     0.179888 -60.34 0.0008853887    1.184    0.156
       130  -9.5995    226.3044     87.6619   1.8122788449e+01   1.7472850410e+01    0.1381204   0.09209088 -58.83 0.0006767297    1.673    0.402
       131 -11.7204      3.0000     81.0061   8.1295953877e+01   5.9844125548e+01    0.2008512    0.1646391  84.11  0.001097885    1.237    0.192
       132 -11.8315    239.3995     72.2090   1.3026398604e+01   1.7159439264e+01    0.2245278    0.1391083 -60.96  0.001187733    1.786    0.440
       133 -14.1229    248.3386     63.5006   1.0181526757e+01   1.6649147048e+01     1.248093    0.3823222 -37.99  0.005290211    2.471    0.595
       134 -13.4194    248.1765     50.5539   7.3850929243e+00   1.8359923958e+01     1.159677    0.2305107 -47.43  0.003701306    4.739    0.789
       135 -12.4909    212.2656    248.1013   5.1259144670e+01  -3.7578706980e+00    0.4086856    0.2414861   2.46  0.002587745    1.653    0.395
       136 -11.6973      7.0096     62.7999   7.6406931306e+01   6.4067913042e+01    0.2579884    0.1256278 -53.71  0.001284957    1.656    0.396
       137 -10.7190      9.3916     68.8098   7.6439282675e+01   6.2493269817e+01    0.2014003   0.09285756 -57.79 0.0009559484    1.736    0.424
       138 -11.0793     11.4988     57.5010   7.3004093946e+01   6.5057829267e+01    0.2522386   0.07976272 -55.17  0.001039117    2.346    0.574
       139 -12.2991      2.0357     60.3334   7.8385268791e+01   6.4897303216e+01    0.5247321    0.1701904 -75.13  0.002030167    3.040    0.671
       140 -11.7071      8.1789     44.2400   7.1408003634e+01   6.8295633323e+01    0.3331235    0.1429572 -56.67  0.001605247    1.857    0.462
       141 -12.4629      2.7722     50.4238   7.5968237609e+01   6.7179897707e+01    0.6354589    0.2066627 -61.43  0.002772533    2.292    0.564
       142 -12.0287     12.2596     38.0028   6.7127178965e+01   6.9393644545e+01    0.3392695    0.1480379 -46.17  0.001635046    1.879    0.468
       143 -12.1589      2.4898     40.6718   7.3745723030e+01   6.9400181982e+01    0.4953172    0.1810347 -63.23   0.00223286    2.236    0.553
       144 -11.0380     18.9811     31.0027   6.0467859560e+01   7.0293808001e+01    0.2198596    0.1268845 -27.22  0.001140768    1.742    0.426
       145 -11.7030      1.7127     25.2925   6.9531070477e+01   7.2742644728e+01    0.4285936    0.1457769 -61.76  0.001900092    2.589    0.614
       146 -11.8955    194.3098    246.1679   5.4178732730e+01  -1.3033612436e+00    0.2835371    0.1605051  -5.57  0.001587979    2.181    0.541
       147 -11.5252      3.1023     33.6010   7.1351283415e+01   7.0915469577e+01    0.3098454    0.1170778 -48.65  0.001473357    2.012    0.503
       148 -11.0568     44.7585    245.0157   8.3813006768e+01   1.8308441345e+01    0.3149558    0.1608133  56.85  0.001871318    1.650    0.394
       149 -11.1946    177.7084    244.2554   5.6992628793e+01   1.1011672312e+00    0.2248732    0.1240564 -16.44  0.001184822    2.484    0.597
       150 -12.4998    225.9651    241.3977   4.7940170501e+01  -4.6119291160e+00    0.3218285    0.1870207 -15.45  0.002023667    1.636    0.389
       151 -11.2149     57.5503    242.1996   8.1057452036e+01   1.7352263500e+01    0.4024264    0.1330311  45.26  0.001932371    2.234    0.552
       152 -10.9310     26.5042     15.9966   4.8641287378e+01   7.2236357960e+01    0.1904113     0.111015 -38.33  0.001033014    1.601    0.375
       153  -9.3910     49.6673    243.3189   8.2728113980e+01   1.8061576255e+01    0.1255313   0.06303249  55.74 0.0005083648    1.694    0.410
