#   1 NUMBER                 Running object number                                     
#   2 MAG_AUTO               Kron-like elliptical aperture magnitude                    [mag]
#   3 X_IMAGE                Object position along x                                    [pixel]
#   4 Y_IMAGE                Object position along y                                    [pixel]
#   5 X_WORLD                Barycenter position along world x axis                     [deg]
#   6 Y_WORLD                Barycenter position along world y axis                     [deg]
#   7 A_WORLD                Profile RMS along major axis (world units)                 [deg]
#   8 B_WORLD                Profile RMS along minor axis (world units)                 [deg]
#   9 THETA_WORLD            Position angle (CCW/world-x)                               [deg]
#  10 FWHM_WORLD             FWHM assuming a gaussian core                              [deg]
#  11 ELONGATION             A_IMAGE/B_IMAGE                                           
#  12 ELLIPTICITY            1 - B_IMAGE/A_IMAGE                                       
         1 -14.9510    162.3067     42.3134   8.0361711791e+01   3.9305962083e+01     1.455839     1.130914  -7.27  0.003546073    1.456    0.313
         2 -14.6261    175.6973      9.4578   6.7227543417e+01   3.9466262008e+01     1.101649     1.046664  42.64  0.003793653    1.124    0.110
         3 -12.6489    197.1920      7.0880   6.4306272755e+01   3.3973479616e+01    0.2676764    0.2000313 -75.55 0.0009575327    1.315    0.240
         4 -12.1321    125.0562    243.8723   1.3132750231e+02   1.1797903964e+01    0.1936276    0.1532388 -57.33  0.001023817    1.788    0.441
         5 -20.0602     76.5029    173.6601   1.3486733588e+02   3.0360718555e+01     15.62547     6.972621 -70.21     0.071808    2.583    0.613
         6 -10.6683    117.2464    201.6995   1.2845859347e+02   1.9284864586e+01    0.2404215    0.1452654  49.91 0.0007505688    1.551    0.355
         7 -12.6496    161.4397    197.8504   1.1840428339e+02   1.3067253649e+01    0.3080696      0.27659 -72.82  0.001788927    1.654    0.395
         8 -11.7527    169.8387    195.3355   1.1628490548e+02   1.2097518983e+01     0.221317     0.178932  28.28 0.0007301208    1.074    0.069
         9 -14.1143    165.5693    188.7309   1.1612727266e+02   1.3771455556e+01    0.8347893    0.3685212  38.79  0.003836975    1.872    0.466
        10 -13.7241    174.5052    192.5262   1.1488742534e+02   1.1754102879e+01    0.5736646    0.3857199 -54.71  0.002712362    2.317    0.568
        11 -14.4953    175.4123    186.1865   1.1366610933e+02   1.2530203524e+01    0.9666837    0.5358504 -56.00  0.004349001    3.332    0.700
        12 -12.3777    153.9092    185.6087   1.1812458888e+02   1.6185400505e+01    0.2511256    0.2114554 -62.43  0.001369845    1.638    0.390
        13 -13.8791    207.2794    178.1328   1.0600207433e+02   8.4135837737e+00    0.8948997    0.4894078 -38.47  0.004700637    2.150    0.535
        14 -12.9419    180.5664    193.1987   1.1377242843e+02   1.0683849930e+01    0.3397576    0.3326213 -60.28  0.001691653    1.517    0.341
        15 -10.1628    150.7612    243.6693   1.2640163498e+02   8.3777973193e+00    0.1031084   0.07224286  10.50 0.0002691828    1.535    0.348
        16 -11.2092     21.7868    240.7586   1.5085970599e+02   2.4114409389e+01    0.1342559    0.1027816  68.40 0.0006146281    1.245    0.197
        17 -10.9688    131.3016    237.2058   1.2945944526e+02   1.1865211430e+01     0.228651    0.1418521 -49.84 0.0009192636    2.206    0.547
        18 -10.0236     25.6749    181.6589   1.4789753728e+02   3.4355203488e+01    0.1370445    0.1131991  17.01 0.0004543054    1.497    0.332
        19 -10.6751     28.3226    179.3207   1.4716045646e+02   3.4588652404e+01      0.18101    0.1532734  28.11  0.001015664    1.342    0.255
        20  -9.6710    137.8333    244.9965   1.2899139099e+02   9.9495490856e+00    0.2480245    0.1419408  63.16  0.001117772    3.234    0.691
        21 -12.4002    203.3962    172.3378   1.0566837635e+02   9.8306098594e+00    0.4854702    0.3373663 -16.59  0.002827946    1.446    0.308
        22 -11.1568     16.4646    250.1651   1.5204653248e+02   2.3143470672e+01    0.1198676   0.07851082  75.85 0.0009822362    1.450    0.310
        23 -13.6547    195.7054    170.5321   1.0681439845e+02   1.1383843294e+01    0.5951194    0.4284072 -40.87  0.001941554    1.718    0.418
        24 -11.8873    193.6971    165.3346   1.0622680997e+02   1.2481478017e+01    0.2588496    0.2048267  45.93  0.000877473    1.452    0.311
        25 -10.0552    126.1959    237.3683   1.3047624134e+02   1.2534894777e+01   0.09632053   0.07736402  -0.06 0.0004298108    1.559    0.359
        26 -13.3338    177.8641    171.2338   1.1055134960e+02   1.4368259269e+01    0.4623178    0.3166384 -48.72  0.002478965    1.936    0.483
        27 -10.6860     25.9882    173.8799   1.4743680169e+02   3.5919007484e+01    0.1720467    0.1353888  57.80            0    1.026    0.025
        28 -10.5958     11.9407    173.8630   1.5078026651e+02   3.7093252258e+01    0.1428411    0.1306403  76.56            0    1.234    0.189
        29 -11.4605    170.4215    185.2266   1.1454004540e+02   1.3500585171e+01    0.2409277    0.2134905  37.83 0.0006601128    1.257    0.205
        30 -10.3805     30.6342    232.5604   1.4895164802e+02   2.4600306974e+01    0.1720177     0.132012  64.12  0.001399652    1.178    0.151
        31 -11.6370    201.1997    164.3067   1.0456518296e+02   1.1322050731e+01    0.4442962    0.2959771 -37.83  0.002359402    1.726    0.421
        32 -10.6372     25.8612    229.5855   1.4976081907e+02   2.5542420091e+01    0.2182884   0.06492139 -84.66  0.001083892    3.786    0.736
        33 -10.9113    139.0732    250.1837   1.2927493111e+02   9.1269398602e+00    0.2010218    0.1472415  24.69 0.0007733411    1.183    0.154
        34 -10.9264    222.3678    161.5994   1.0014234837e+02   8.0963537975e+00    0.2201838    0.1796256 -41.81 0.0008678557    1.697    0.411
        35 -12.8871    201.8664    222.9119   1.1426303322e+02   3.7597113042e+00    0.2621073    0.1679699 -43.85  0.001641076    2.413    0.586
        36  -9.5615     14.2780    159.3072   1.4962946313e+02   3.9974153024e+01    0.1048844   0.08353022 -54.23  0.000188041    1.553    0.356
        37 -12.9974    164.0869    156.8690   1.1082372243e+02   1.9186538464e+01    0.3474952    0.2835068   9.54 0.0009306251    1.213    0.176
        38 -10.6389     22.5220    220.9464   1.5012513570e+02   2.7308557558e+01    0.1257457   0.09143097 -82.24 0.0008753929    1.561    0.359
        39 -10.4853     22.9681    156.2823   1.4724285599e+02   3.9940488536e+01    0.1624997    0.1320637  54.77 0.0003687534    1.084    0.077
        40  -9.8498      6.6324    155.7195   1.5141936081e+02   4.1300010868e+01    0.1056961   0.08274804 -44.04 0.0007013486    1.687    0.407
        41 -10.9597     23.5688    215.4303   1.4973159114e+02   2.8171821518e+01    0.1235365    0.1043052 -76.32 0.0008755392    1.496    0.331
        42 -12.5912    160.0430    151.1584   1.1061414229e+02   2.0938052889e+01    0.3413768    0.2194592 -34.63  0.001671943    1.719    0.418
        43 -12.6238    173.9718    148.7696   1.0702409246e+02   1.8693513320e+01    0.3471537    0.3225538  13.27  0.001462783    1.112    0.101
        44 -13.0719     11.3985    206.0222   1.5190541341e+02   3.0919726020e+01    0.3827964    0.2231554  26.12  0.002148142    1.749    0.428
        45 -12.0652    163.8013    203.0575   1.1868755970e+02   1.1933998094e+01    0.2720036     0.236104  56.78 0.0006501239    1.517    0.341
        46 -10.7340      8.4947    137.9336   1.5020294632e+02   4.5116849249e+01    0.2018544    0.1618404 -17.41  0.001336686    1.683    0.406
        47 -12.8527    160.6279    127.9739   1.0550335256e+02   2.5012438219e+01    0.4075361    0.3806503 -61.14  0.001959752    1.286    0.223
        48 -12.6784    157.6525    201.7525   1.1976592647e+02   1.3084756143e+01    0.5093058    0.3359742  61.47  0.002411675    2.425    0.588
        49 -11.7962    140.4952    120.5928   1.0873801218e+02   3.0630833734e+01    0.3713338    0.2466375  67.04 0.0009913207    2.212    0.548
        50 -10.9873    167.6395    112.6348   1.0019226065e+02   2.6304476474e+01    0.2954873    0.2280342 -84.72  0.001217388    2.063    0.515
        51 -11.7199    154.6942    195.9560   1.1953906146e+02   1.4427866106e+01    0.3888834    0.2101896  55.79  0.001725583    2.839    0.648
        52 -10.8333    205.2091    110.1960   9.1966850583e+01   1.8580767649e+01    0.2889165    0.1809004  35.48  0.001047154    1.609    0.378
        53 -10.2031    180.5274    106.4957   9.5831739535e+01   2.4516999203e+01    0.1470471    0.1420365  10.86 0.0008086884    1.083    0.076
        54 -11.7258    168.8768    202.2012   1.1752777168e+02   1.1264714368e+01    0.1855505    0.1492465  39.37 0.0008187315    1.267    0.211
        55 -11.2451    139.0996    200.8253   1.2356730320e+02   1.6118042459e+01    0.3081043    0.2262688  72.07  0.001382217    2.051    0.513
        56 -10.8162    135.7780    196.5627   1.2371064912e+02   1.7323103503e+01    0.1954961    0.1832309  89.42  0.001328249    1.371    0.270
        57 -14.3509    150.8675     57.0877   8.7748119579e+01   4.0128642514e+01     1.215058     1.013239  35.08 0.0009447684    1.217    0.178
        58 -10.5676    160.0807    246.5844   1.2497970168e+02   6.7690129039e+00      0.19385    0.1293204 -15.09   0.00130266    2.009    0.502
        59 -13.0068    166.1112     33.9481   7.6837116170e+01   3.9384581328e+01    0.4169522    0.3974167  18.88 0.0008498261    1.097    0.088
        60 -10.8634     13.6568     60.0300   1.4168297351e+02   6.3719276304e+01    0.1938203    0.1695344  53.88  0.000543848    1.273    0.214
        61 -10.2618    144.9924     34.0318   8.0810887443e+01   4.5143035890e+01     0.236544    0.1813865 -71.15  0.000337916    1.554    0.356
        62 -11.3821    133.8465    245.9487   1.2984498587e+02   1.0357810357e+01    0.1538906    0.1154523  30.11 0.0003595305    1.095    0.086
