#   1 NUMBER                 Running object number                                     
#   2 MAG_AUTO               Kron-like elliptical aperture magnitude                    [mag]
#   3 X_IMAGE                Object position along x                                    [pixel]
#   4 Y_IMAGE                Object position along y                                    [pixel]
#   5 X_WORLD                Barycenter position along world x axis                     [deg]
#   6 Y_WORLD                Barycenter position along world y axis                     [deg]
#   7 A_WORLD                Profile RMS along major axis (world units)                 [deg]
#   8 B_WORLD                Profile RMS along minor axis (world units)                 [deg]
#   9 THETA_WORLD            Position angle (CCW/world-x)                               [deg]
#  10 FWHM_WORLD             FWHM assuming a gaussian core                              [deg]
#  11 ELONGATION             A_IMAGE/B_IMAGE                                           
#  12 ELLIPTICITY            1 - B_IMAGE/A_IMAGE                                       
         1 -13.6861      8.1299     61.6877   1.0406848314e+02   6.3237491150e+01     2.083607     0.813406 -47.23   0.01019604    1.903    0.475
         2 -13.6653    228.7893     29.3636   3.6069614771e+01   2.5524315384e+01    0.8336155    0.6957484  51.85  0.005464276    1.513    0.339
         3 -12.0285     40.9832     26.1288   7.6271372384e+01   6.6645503246e+01     0.623054    0.5441859 -14.12  0.004273672    1.223    0.182
         4 -12.5646     33.3818     16.8607   7.5532735382e+01   6.8973658059e+01     1.134911    0.7191975  -9.66  0.006815791    1.498    0.333
         5 -12.3597     56.8547     27.8242   7.0259449312e+01   6.4012669104e+01     1.167671    0.7766193  17.57  0.006605617    1.469    0.319
         6 -12.5229     52.0324     18.8155   6.8153843989e+01   6.5978634687e+01    0.7667314    0.5990784  30.85  0.004204683    1.231    0.188
         7 -12.0199     23.2742     13.8508   7.9158026413e+01   7.0633456443e+01    0.6082387     0.474969  55.93  0.003690065    2.642    0.621
         8 -12.9064     13.8246     20.0574   8.7155584917e+01   7.0683609914e+01     1.141385    0.6131489  22.35  0.006804173    1.864    0.464
         9 -13.2979    161.4330      2.3316   3.6391802709e+01   4.3779715103e+01     1.416965    0.3197772  72.98  0.004492084    4.393    0.772
        10 -10.5917     84.8939      6.7687   5.1682331220e+01   6.1055661528e+01    0.2276225    0.1742328  73.36  0.001359722    1.591    0.372
        11 -13.6492    164.1649     14.1618   3.9342065938e+01   4.2037086586e+01     1.475925    0.6808184  72.47  0.006755924    2.009    0.502
        12 -11.7098     46.0853    181.5816   1.1164840245e+02   3.0970313020e+01    0.3271779    0.2633439 -46.95 0.0005867509    1.439    0.305
        13 -11.8823    170.9463    249.1583   9.2737360523e+01  -1.3229150265e+00    0.5767797    0.2240782  31.66  0.002557666    2.321    0.569
        14  -9.5134     25.5172    249.4931   1.2154013003e+02   1.8536799520e+01    0.1864265   0.08667906  85.23  0.001018017    2.155    0.536
        15 -15.1473      6.7125    239.1100   1.2438282066e+02   2.2459301202e+01     14.03939    0.6647201 -76.52   0.03195298   13.340    0.925
        16 -13.3511     41.4938    208.9885   1.1546530596e+02   2.5134395831e+01     1.308915    0.9492145  45.04  0.008074756    1.317    0.241
        17 -14.4707     36.5774    191.5075   1.1495565602e+02   2.9680954033e+01      2.36188    0.9704353  59.38   0.00978209    2.812    0.644
        18 -10.7572     65.8816    164.7336   1.0433145593e+02   3.2632898310e+01    0.2458643    0.2160501 -72.71 0.0003149861    1.060    0.056
        19  -8.9862    135.7409    164.3319   8.5923303552e+01   2.1137982286e+01    0.1488855    0.1207947  88.98 0.0002449763    1.568    0.362
        20 -12.9764     51.4530    161.3484   1.0771568863e+02   3.5316361321e+01    0.5247188    0.3026739 -39.37  0.001424156    2.199    0.545
        21 -11.8051     74.7253    157.7626   1.0080680798e+02   3.3141129646e+01    0.5288582    0.4872249 -28.45  0.002999405    1.227    0.185
        22 -13.2580     57.2412    205.5711   1.1163666303e+02   2.4001462234e+01     1.164128    0.7368639  87.31  0.005088472    1.634    0.388
        23 -10.0343    133.6286    145.3021   8.2338839320e+01   2.5937347942e+01    0.4812171    0.1491484 -54.84  0.001266001    4.300    0.767
        24 -12.5354     67.9969    143.7044   1.0024627184e+02   3.7639685195e+01    0.7538531    0.4594881  61.28  0.002980315    2.090    0.521
        25  -9.8940     90.5375    144.5392   9.3904147750e+01   3.4014349626e+01    0.2707799     0.258729 -60.48 0.0009768042    1.016    0.016
        26 -11.8590     78.2893    142.4132   9.7007160240e+01   3.6476313572e+01    0.3243442    0.2657181 -51.42 0.0005412453    1.169    0.145
        27  -9.2955     94.3672    140.8629   9.2049397429e+01   3.4290134538e+01     0.219152    0.1318241 -45.49 0.0004040482    1.655    0.396
        28 -10.5445    105.5626    131.4388   8.6747600283e+01   3.4625658688e+01    0.3641503    0.3230563 -26.63 0.0009849119    1.186    0.157
        29 -10.4312     91.4049    128.4210   9.0181146499e+01   3.7865443793e+01    0.2844927    0.2612417 -13.48 0.0006152081    1.172    0.147
        30 -11.9805     55.1609    125.1951   1.0065519022e+02   4.4002490724e+01    0.5864459    0.2753611 -70.10  0.002278985    2.385    0.581
        31  -9.3538    103.4984    120.0625   8.4600718349e+01   3.7738258838e+01    0.2167213    0.2044906  31.32 0.0003168907    1.098    0.089
        32 -11.5089     51.5008    109.0119   9.8509533191e+01   4.8467429537e+01    0.4691423    0.2311218 -58.65  0.002033457    1.811    0.448
        33 -11.7494     45.9935    108.7234   1.0031356187e+02   4.9174888335e+01    0.5730316    0.4737716 -63.18  0.003271168    1.123    0.110
        34 -11.1044      3.1462    112.8422   1.1520787096e+02   5.1690214675e+01    0.3314489    0.2666249 -26.05  0.002159443    1.429    0.300
        35  -8.9711    203.3327    111.3209   5.8714193537e+01   1.8307633603e+01    0.1476021    0.1148935   3.50 0.0007049476    1.699    0.411
        36 -11.4947     52.1301     93.8307   9.4719696879e+01   5.2028710355e+01     1.085184    0.2712806 -52.55  0.003554123    3.221    0.689
        37 -12.2203      2.9389     85.1953   1.1110179765e+02   5.8266891139e+01    0.9868133    0.3305442 -63.06  0.004407814    2.177    0.541
        38 -12.2084     36.8776     90.1705   9.9408923990e+01   5.4584938446e+01     0.924701    0.5524416 -52.36  0.004626992    1.412    0.292
        39 -12.4556     12.2275     89.2705   1.0839367592e+02   5.6793627286e+01    0.8031511    0.5170022 -60.99  0.003026251    1.260    0.206
        40 -12.9396     24.9141     84.6881   1.0266007317e+02   5.6944410667e+01     1.001696    0.6800827  41.20  0.004887173    1.816    0.449
        41 -13.1403     16.7445     74.5987   1.0355991365e+02   5.9858389275e+01     1.310782    0.6920329 -19.34  0.006348747    2.262    0.558
        42 -11.3472    132.5192    247.0278   1.0022244126e+02   4.7758783102e+00    0.2418108    0.1621662  22.91 0.0007612676    1.533    0.348
        43 -12.1727      3.0279     50.3127   1.0341984192e+02   6.5899089932e+01    0.8009703    0.3083874 -58.21  0.003931571    2.085    0.520
        44 -11.2378     41.4901     74.8201   9.3651755754e+01   5.7573151094e+01    0.5933548     0.377858  28.77  0.003096656    1.718    0.418
        45 -11.7243     46.5633     66.6711   8.9179445896e+01   5.8710804310e+01    0.7013478     0.439456 -60.01  0.003489207    1.871    0.466
        46 -11.7632     38.3528     64.8312   9.1971908891e+01   6.0044177312e+01    0.6786359    0.4507505 -12.84  0.003637928    1.641    0.390
        47 -11.5849    105.8771    245.7731   1.0554239330e+02   8.9506580841e+00    0.2870969    0.1698524  19.30  0.001406836    2.300    0.565
        48 -12.3577     55.8655    235.7147   1.1476436508e+02   1.7723979954e+01    0.6338881    0.4271715 -64.15  0.002693217    1.612    0.380
        49 -13.2333    125.4298    229.9321   9.9452724025e+01   8.9659949007e+00      1.09441    0.2217748  39.54  0.003445406    3.994    0.750
        50 -11.3891     83.2395    229.2759   1.0845394955e+02   1.5399068452e+01    0.3533782    0.2231746 -77.78  0.001924088    1.769    0.435
        51 -13.5700    120.0308    229.0626   1.0049995293e+02   9.9729394920e+00     1.390923    0.4705718  31.17  0.004966336    3.291    0.696
        52 -11.5991     53.5633    175.0154   1.0898719473e+02   3.1673878630e+01    0.2793114    0.2468052 -41.59  0.000512979    1.326    0.246
        53 -11.6369     11.1672     31.0855   9.3125443349e+01   6.9055002160e+01     0.521845    0.3397344  19.84  0.002718431    1.640    0.390
        54 -13.5859     12.8925    208.3845   1.2147392043e+02   2.8249575653e+01     0.696711    0.3874073  60.70  0.001452332    1.568    0.362
        55 -10.7048     94.4088     36.2400   6.0817399846e+01   5.5818561400e+01    0.1859186    0.1250404 -39.45 0.0009543386    1.649    0.394
        56 -11.2244     74.7778    203.4303   1.0736896508e+02   2.2152348235e+01    0.5446008    0.3964507  53.83  0.003048134    1.277    0.217
        57 -14.2974     21.2986    202.0298   1.1926522947e+02   2.8849964401e+01     1.126112    0.8210109  78.32  0.003544127    1.140    0.123
