#   1 NUMBER                 Running object number                                     
#   2 MAG_AUTO               Kron-like elliptical aperture magnitude                    [mag]
#   3 X_IMAGE                Object position along x                                    [pixel]
#   4 Y_IMAGE                Object position along y                                    [pixel]
#   5 X_WORLD                Barycenter position along world x axis                     [deg]
#   6 Y_WORLD                Barycenter position along world y axis                     [deg]
#   7 A_WORLD                Profile RMS along major axis (world units)                 [deg]
#   8 B_WORLD                Profile RMS along minor axis (world units)                 [deg]
#   9 THETA_WORLD            Position angle (CCW/world-x)                               [deg]
#  10 FWHM_WORLD             FWHM assuming a gaussian core                              [deg]
#  11 ELONGATION             A_IMAGE/B_IMAGE                                           
#  12 ELLIPTICITY            1 - B_IMAGE/A_IMAGE                                       
         1 -13.9024    196.8098     43.1718   4.2775224736e+01   3.0877852879e+01    0.9669409    0.8472148 -67.74  0.003031913    1.042    0.041
         2 -14.2126    205.2441     34.7660   3.9690824643e+01   3.0031340125e+01    0.7550321    0.7005593  15.95  0.001305187    1.414    0.293
         3 -13.2899    233.2770      7.5354   3.1116264488e+01   2.7083839306e+01    0.7396075    0.4764774 -21.20  0.004398671    2.111    0.526
         4 -13.6794    227.2747      5.3937   3.1100555024e+01   2.8561077639e+01    0.8159996    0.5080185 -22.74  0.004789392    2.095    0.523
         5 -11.5098     63.8645      8.8734   5.9041661277e+01   6.5024637422e+01    0.1978917    0.1420676  23.17 0.0005621246    1.207    0.172
         6 -12.9434     58.7749      3.0192   5.8044723742e+01   6.6508194775e+01     0.565476    0.1785875  48.11  0.002480365    2.619    0.618
         7 -11.1624     49.9530    217.6998   1.1442059992e+02   2.2220861832e+01    0.4079697    0.2209436  27.47  0.002074505    2.148    0.534
         8 -16.8279     68.4278    143.7223   1.0012407803e+02   3.7575339115e+01     17.03303     8.739032  80.63   0.04664621    5.601    0.821
         9 -13.5239     28.3525    215.6169   1.1879220782e+02   2.5128832090e+01    0.5368589    0.2580898  81.25  0.002205807    2.171    0.539
        10 -10.4701     42.1345    208.2378   1.1525851860e+02   2.5228100712e+01    0.3276643    0.1672237  80.72  0.001551809    2.208    0.547
        11 -10.5078     20.9694    203.5509   1.1944924424e+02   2.8541514347e+01    0.1828309    0.1654483   6.41 0.0006277072    1.553    0.356
        12  -9.8986     24.8325    202.6440   1.1855117959e+02   2.8358475948e+01    0.2175176    0.1178445  45.75  0.001199398    1.691    0.409
        13 -12.0762    193.3871    195.4929   7.9128733015e+01   4.1981325153e+00     1.032949    0.5496678 -63.68  0.002999286    6.255    0.840
        14 -13.0563    122.1288    198.9308   9.5583000760e+01   1.5819182899e+01    0.4712045    0.3745161 -65.28  0.001289533    1.375    0.273
        15 -11.6836    203.6027    199.6831   7.7872370684e+01   1.7694956336e+00     0.271403     0.165741  37.20    0.0013765    1.637    0.389
        16 -11.5399     60.8966    198.3978   1.1001280527e+02   2.5172475189e+01     0.231216    0.2147679  64.11 0.0004806939    1.118    0.106
        17 -13.1711     47.8714    195.7562   1.1276060140e+02   2.7402558262e+01    0.4452831    0.3186691 -44.89  0.001287807    1.735    0.424
        18 -16.4889      2.7658    100.3063   1.1359661109e+02   5.4724203904e+01     14.86164     2.147317 -72.42   0.03400516    8.423    0.881
        19 -11.0651    150.5070    192.5292   8.7876751579e+01   1.2259906077e+01    0.2817402    0.2718628  12.17  0.001453711    1.033    0.032
        20 -10.7510    148.2861    189.6310   8.7854125656e+01   1.3260230316e+01    0.2547502    0.2284428  81.45 0.0007275679    1.332    0.249
        21 -11.4845    146.4893    186.0254   8.7599761602e+01   1.4346304998e+01    0.2787411    0.2652238 -65.98 0.0007219857    1.149    0.130
        22 -13.9941     38.5577    247.4299   1.1901115472e+02   1.7483760287e+01    0.5381491     0.396789  10.85  0.003231336    2.201    0.546
        23  -9.8409     21.3745    192.0923   1.1847225310e+02   3.1106156122e+01    0.1684214    0.1248796  87.45 0.0004293249    1.124    0.110
        24 -18.1571     15.4221    234.0845   1.2252585737e+02   2.2604605448e+01     5.323613      3.17708  41.45   0.03446626    1.550    0.355
        25 -13.5081     58.0369    184.1597   1.0901336749e+02   2.8896112677e+01    0.8720698    0.6956236  34.93  0.005049963    1.347    0.258
        26 -11.5303     66.1485    179.5687   1.0639275795e+02   2.8944186337e+01    0.4086604    0.2758389  81.15  0.001079403    1.641    0.391
        27 -10.0619     44.0362    216.4621   1.1557197632e+02   2.3194907893e+01    0.1918149    0.1436199  80.34  0.000508432    1.173    0.147
        28 -10.9805     37.7036    185.3184   1.1407839293e+02   3.1018619037e+01    0.3136434    0.2016267  66.04  0.001094884    1.519    0.342
        29 -10.9521     39.8770    182.6146   1.1327501041e+02   3.1425604967e+01    0.2771721    0.1920597  59.10  0.001086602    1.386    0.278
        30  -9.5209     77.4427    185.9347   1.0444191860e+02   2.5840574737e+01    0.2036478    0.1326888 -70.69  0.000866023    1.537    0.350
        31  -9.5529     62.8912    213.8523   1.1123614876e+02   2.1432072929e+01    0.4374493    0.2627817 -86.11  0.002278002    1.779    0.438
        32  -9.6442     47.5654    186.3122   1.1181958691e+02   2.9663104483e+01    0.2267406    0.1339309  47.43 0.0005734254    1.630    0.387
        33  -9.9362     69.8131    184.0310   1.0607741996e+02   2.7368855318e+01    0.2092962    0.1640457  76.42 0.0003834798    1.268    0.212
        34 -11.6299     99.4353    180.8758   9.8158464563e+01   2.3677503369e+01    0.2708625    0.2607953 -64.06 0.0005694148    1.074    0.069
        35  -9.8905     65.4824    207.2781   1.0995202392e+02   2.2549643339e+01    0.3880151    0.2418866 -57.55  0.001564684    1.682    0.406
        36 -11.8054     56.9698    211.2096   1.1227591453e+02   2.2774333810e+01    0.3508655    0.3231578  75.93  0.000689714    1.126    0.112
        37 -10.0279     40.1099    177.7188   1.1268688212e+02   3.2579827818e+01    0.1992753     0.149599  66.44 0.0004988759    1.269    0.212
        38 -11.4639    186.6115    174.5629   7.6369738888e+01   9.3331852434e+00    0.3728431    0.3562835 -63.34  0.001149741    1.249    0.199
        39 -10.3397    147.9629    174.0088   8.4923092821e+01   1.6670342926e+01    0.1777129    0.1725917  -1.38 0.0003272881    1.011    0.011
        40 -11.7939     55.0194    206.5137   1.1223527941e+02   2.4068143722e+01    0.5676741     0.287302 -86.72  0.002461397    2.289    0.563
        41 -10.3759     47.4274    171.8722   1.1015911104e+02   3.3178960935e+01    0.2521891     0.216248 -23.05 0.0009371586    1.504    0.335
        42 -10.0011    193.0097    169.9913   7.4084495804e+01   9.0469928301e+00    0.1761315      0.16161  -3.97 0.0005856132    1.025    0.024
        43 -11.3630    240.0486    169.4833   6.5173493358e+01   1.0624120409e+00     0.181617    0.1283665  34.80 0.0005068759    1.561    0.359
        44  -9.4145     42.4426    167.5033   1.1090472760e+02   3.4823194049e+01     0.135763    0.1167274 -87.87 0.0001655238    1.017    0.017
        45 -10.2303     32.1909    165.2549   1.1329007617e+02   3.6461137530e+01    0.2469316     0.163286 -80.29 0.0006417604    1.342    0.255
        46  -9.4918     37.6434    161.7220   1.1145020454e+02   3.6775346840e+01    0.1318151    0.0961977 -38.10 0.0003991859    1.656    0.396
        47  -9.5459     48.7206    160.5589   1.0834216256e+02   3.5836919230e+01    0.1771032    0.1224464  48.08 0.0005943314    1.490    0.329
        48 -11.3312     72.0000    248.9668   1.1269129278e+02   1.3063570970e+01    0.2323983    0.1521367 -75.32  0.001424134    1.651    0.394
        49 -12.5525     91.3720    151.0873   9.4969559212e+01   3.2247848247e+01    0.7347844    0.5539749 -14.44  0.003433988    1.796    0.443
        50 -10.5541     48.8768    154.4736   1.0744178261e+02   3.7347112751e+01    0.1945367    0.1355543  34.46  0.001016209    1.553    0.356
        51 -12.1339    133.9318    145.7340   8.2359059717e+01   2.5777155169e+01     1.311639    0.3407803 -54.36  0.003003507    5.770    0.827
        52 -10.0272    110.8709    149.1454   8.9204914551e+01   2.9358769360e+01    0.3007915    0.2135654  65.01  0.001324499    1.764    0.433
        53 -11.1672    104.1877    137.6086   8.8546966465e+01   3.3376056340e+01    0.5752067    0.3281456 -28.15  0.002074331    2.691    0.628
        54 -11.2029    106.0057    130.7800   8.6466970958e+01   3.4703376042e+01    0.3741158    0.3347261 -67.88  0.001302738    1.153    0.133
        55 -12.3669     91.7376    137.1489   9.2015771803e+01   3.5653220554e+01    0.2992118    0.2672354 -41.26 0.0004096558    1.119    0.106
        56 -10.1804    174.8700    149.1473   7.3382141166e+01   1.6745211933e+01    0.2298407    0.2108153 -72.94 0.0006163561    1.258    0.205
        57 -11.0855     99.9623    124.7031   8.6776314963e+01   3.7273970438e+01    0.2997285    0.2459649  -6.55 0.0009789205    1.461    0.316
        58 -11.7435    118.9297    123.0614   8.0947381596e+01   3.4054760565e+01    0.4654098    0.3203712  -7.44  0.001840974    2.282    0.562
        59 -11.1215    112.6992    128.7772   8.4094131718e+01   3.3925728679e+01     0.334242    0.2741044   8.58 0.0008697076    1.447    0.309
        60 -10.0655    108.5686    118.0451   8.2612989318e+01   3.7256337257e+01    0.2189361    0.2077016  30.82 0.0003281481    1.087    0.080
        61 -10.6037    231.3290    113.8658   5.4689175587e+01   1.2184966330e+01    0.2348025    0.2286175 -71.82 0.0007715235    1.144    0.126
        62 -10.0686    205.5724    110.2250   5.8055830717e+01   1.8035891018e+01    0.2440991     0.206721  55.14 0.0005615738    1.289    0.224
        63 -11.8876    116.4032    109.1826   7.8037555452e+01   3.7744565638e+01    0.4295428    0.3158074  24.49  0.001949465    1.565    0.361
        64 -11.1109    184.6914    212.9952   8.4136440586e+01   2.5183679635e+00    0.1929025    0.1707981 -12.26  0.001178123    1.099    0.090
        65  -9.7131    129.0066     96.2623   7.0967530065e+01   3.7876513233e+01    0.2223411    0.1987464  45.61 0.0006003435    1.137    0.120
        66 -11.6471     55.3370     95.4631   9.3985026899e+01   5.1244082703e+01    0.2877184    0.2742106  25.14 0.0009494997    1.169    0.144
        67 -10.5213     89.0084    210.4561   1.0496390644e+02   1.8542761634e+01     0.237248    0.1898467 -75.38 4.899598e-05    1.287    0.223
        68 -10.3734    156.5231     88.6826   6.2115355210e+01   3.3119580814e+01    0.3293792    0.2294778 -71.25   0.00101482    1.966    0.491
        69 -13.5272    185.0193     52.3267   4.6784344762e+01   3.2377127239e+01    0.7698398    0.5574133  46.91 0.0009203283    1.519    0.342
        70  -9.9147     83.8987    245.1935   1.0996279259e+02   1.2175289156e+01    0.2006073    0.1376771  62.45 0.0005811281    1.380    0.275
        71 -11.4293     78.9504    237.3259   1.1019387015e+02   1.4378474184e+01    0.3223058    0.2159237 -57.32  0.001895769    1.700    0.412
        72  -9.8711    198.3610     23.7338   3.7786483839e+01   3.2937698259e+01    0.1635709    0.1225469 -21.71 0.0006871326    1.638    0.389
        73 -11.4801     71.8811    244.8148   1.1234387409e+02   1.3869883011e+01    0.4228992    0.2120762  50.73  0.001565645    1.713    0.416
        74 -10.1159    168.0384    232.0000   9.0743242399e+01   1.8923932981e+00    0.1974241    0.1724193  16.88 0.0004834546    1.023    0.023
        75  -9.5341    189.5939     15.1862   3.6623355070e+01   3.5909419414e+01    0.1556031    0.1250176 -13.74 0.0006105128    1.608    0.378
        76 -12.4225     49.1521    249.1897   1.1713411844e+02   1.5902008756e+01    0.2153477     0.161152  87.71 0.0007851172    1.267    0.211
