#   1 NUMBER                 Running object number                                     
#   2 MAG_AUTO               Kron-like elliptical aperture magnitude                    [mag]
#   3 X_IMAGE                Object position along x                                    [pixel]
#   4 Y_IMAGE                Object position along y                                    [pixel]
#   5 X_WORLD                Barycenter position along world x axis                     [deg]
#   6 Y_WORLD                Barycenter position along world y axis                     [deg]
#   7 A_WORLD                Profile RMS along major axis (world units)                 [deg]
#   8 B_WORLD                Profile RMS along minor axis (world units)                 [deg]
#   9 THETA_WORLD            Position angle (CCW/world-x)                               [deg]
#  10 FWHM_WORLD             FWHM assuming a gaussian core                              [deg]
#  11 ELONGATION             A_IMAGE/B_IMAGE                                           
#  12 ELLIPTICITY            1 - B_IMAGE/A_IMAGE                                       
         1 -14.1104      6.4311     14.8863   1.2079150806e+02   7.2109474281e+01     2.691356    0.6163573 -46.80   0.01208173    2.863    0.651
         2 -14.0785    202.6283      9.8207   6.3915600138e+01   3.3343741219e+01     1.733396    0.8489411  58.63  0.001468785    1.958    0.489
         3 -13.9960    190.0665     22.1248   6.8876110162e+01   3.5223009604e+01     2.116404     1.315252 -12.00  0.007875263    2.040    0.510
         4 -13.6754    196.8252     17.7333   6.6773961946e+01   3.3975672866e+01     1.124845    0.8478422 -59.38  0.004062552    1.300    0.231
         5 -12.3512    248.9133    240.9327   1.0975613542e+02  -9.3813763634e+00    0.3961081    0.3212032  47.40  0.002892524    1.733    0.423
         6 -10.5192    205.0073    249.7207   1.1827532049e+02  -3.8766245869e+00    0.1657918    0.1167106  32.78 0.0006414619    1.094    0.086
         7 -11.1186    145.7443    240.8863   1.2743140917e+02   6.6744242861e+00    0.3464393    0.1876722  48.02  0.001033705    1.485    0.326
         8  -9.7795    150.7544    239.4093   1.2635703216e+02   6.0871820953e+00    0.1765924    0.1310464  49.90 0.0005224112    1.109    0.098
         9 -11.4762    150.3901    248.2270   1.2748022156e+02   4.8719407241e+00    0.4907611      0.22073  46.53  0.002255728    1.748    0.428
        10 -10.2664    152.8413    244.0891   1.2655766905e+02   5.0715561126e+00    0.2141435    0.1697322 -63.99 0.0009639392    1.616    0.381
        11 -10.8666    143.2444    249.1016   1.2882678464e+02   5.8698511041e+00    0.3364981     0.206564  66.23  0.001299816    1.965    0.491
        12 -11.0753    143.0779    244.6460   1.2834688821e+02   6.5433058962e+00    0.4131891    0.1389743  44.25  0.001906514    2.306    0.566
        13 -11.1312    133.6033    249.2901   1.3052588293e+02   7.3427724467e+00    0.4679312     0.199355  53.07  0.002378678    2.133    0.531
        14 -10.1550    122.8721    250.0929   1.3247138363e+02   8.8687094968e+00    0.2489205    0.1725552  45.41  0.001413674    1.171    0.146
        15 -11.8070    111.1019    248.4012   1.3433979074e+02   1.0898897052e+01     0.836132     0.210586  49.35  0.003410619    3.250    0.692
        16  -9.9111    126.8054    248.8750   1.3166396664e+02   8.4515954940e+00    0.2391216    0.1472443  55.95 0.0009490732    1.373    0.272
        17 -10.3925    121.7375    244.9638   1.3214191608e+02   9.8252120368e+00    0.3983102    0.1569182  54.97  0.001870747    2.512    0.602
        18 -12.4111    126.3177    241.1020   1.3092011646e+02   9.7173882375e+00    0.4873903    0.3434061  56.58  0.002419449    1.179    0.152
        19 -11.6165     96.5121    239.2148   1.3601918705e+02   1.4534151862e+01    0.3948929    0.2805989  74.05  0.001884587    1.296    0.228
        20 -10.1948    104.4800    238.0047   1.3449035853e+02   1.3558589042e+01    0.2049178    0.1639685  37.89 0.0007313931    1.406    0.289
        21 -11.2136     81.3205    246.6750   1.3929256068e+02   1.5448077916e+01    0.5290386    0.2286229 -78.41  0.002776465    2.941    0.660
        22 -10.8022     87.4077    250.5912   1.3858014431e+02   1.3970023635e+01    0.4467176     0.190018  39.33  0.002233388    2.169    0.539
        23 -11.0464     88.4283    246.9984   1.3811016856e+02   1.4407769357e+01    0.2377302    0.1642884  41.25  0.001556146    1.446    0.309
        24 -10.6606     83.5994    242.2259   1.3853901830e+02   1.5871452496e+01    0.3391431    0.2358338  19.84  0.001979459    2.705    0.630
        25 -10.4028     90.0649    236.2044   1.3688266038e+02   1.5975612970e+01    0.3357938    0.1685169  60.43  0.001880314    1.801    0.445
        26  -9.5302     83.5140    238.4278   1.3823249652e+02   1.6524969277e+01    0.2450168    0.1315217  52.91 0.0009420083    1.444    0.307
        27  -9.8221     86.3123    237.2831   1.3764217696e+02   1.6326395256e+01    0.2022658      0.15489  67.55  0.000256641    1.057    0.054
        28  -9.6868     74.8454    250.5725   1.4067940209e+02   1.5687558413e+01     0.206949   0.08903915  40.07  0.001147801    2.109    0.526
        29 -13.4728     45.7827    246.0464   1.4514326211e+02   2.0124812914e+01    0.6445919    0.5742264  45.12   0.00119856    1.632    0.387
        30 -12.9228     42.3025    237.0558   1.4517116773e+02   2.2086879288e+01    0.5003879    0.2584454  51.22  0.000912325    1.488    0.328
        31 -13.3586     47.3487    228.5426   1.4376782666e+02   2.3003965821e+01     0.703648    0.4459437  34.19  0.001947282    1.966    0.491
        32 -15.0095     56.2909    217.3873   1.4135776108e+02   2.3965974194e+01     2.641607      1.85883  87.96   0.01829702    1.236    0.191
        33 -10.8363    135.7106    241.1519   1.2925192644e+02   8.2330038613e+00     0.234776    0.1901936  37.12 0.0008814064    1.245    0.197
        34 -12.2275    135.1870    236.4102   1.2879725510e+02   9.0489252470e+00    0.3763325    0.2664931  55.28  0.001654528    1.198    0.165
        35 -10.9044    173.3622    240.1115   1.2242446169e+02   2.3243195747e+00    0.2456186    0.2055324 -76.54 0.0009129011    1.662    0.398
        36 -11.0145     72.9013    237.8946   1.4003527070e+02   1.8073794978e+01    0.3873013    0.1982581  75.44  0.002191392    2.088    0.521
        37 -10.3602    115.7508    240.0040   1.3268498472e+02   1.1525598422e+01     0.212921    0.1442159  56.59  0.001054666    1.196    0.164
        38 -11.0567    163.9463    234.1924   1.2331593595e+02   4.6981294780e+00    0.4536552    0.2313744  62.53  0.001959976    3.313    0.698
        39 -11.5208     99.3659    247.6019   1.3628911477e+02   1.2749520536e+01    0.4998409    0.2733456  57.98  0.003068618    1.518    0.341
        40 -11.0475     98.4581    231.5575   1.3493614162e+02   1.5546809426e+01     0.360784    0.2682279  83.13  0.001579048    1.316    0.240
        41 -11.5627    111.6501    230.1400   1.3238145836e+02   1.3787185167e+01    0.5095865    0.3241228  43.87  0.001719179    1.354    0.261
        42  -9.6420    104.2272    229.4415   1.3366934769e+02   1.5045028672e+01    0.2643385    0.1441444  52.47  0.001142973    1.493    0.330
        43 -11.2552    121.6318    232.7839   1.3084489270e+02   1.1785574861e+01    0.2781902    0.2662771  37.81 0.0005042495    1.327    0.246
        44 -10.6018    101.4529    241.8047   1.3539237833e+02   1.3381950539e+01    0.3264762    0.1517728 -69.68  0.001387211    2.646    0.622
        45 -10.7130    156.7541    231.5368   1.2426826601e+02   6.2802102713e+00    0.2118153    0.1817302  44.21 0.0003013741    1.061    0.058
        46 -11.6149    142.0410    229.8934   1.2675454151e+02   8.9638861968e+00    0.4015264     0.248408 -44.46   0.00199951    2.077    0.518
        47  -9.4342     92.5085    231.6084   1.3601780346e+02   1.6413932734e+01    0.2533656    0.1063668 -61.55  0.001310906    2.656    0.624
        48  -9.7176     93.7070    217.1578   1.3434625264e+02   1.8828450283e+01    0.2594068    0.1593275 -83.98  0.001486508    1.799    0.444
        49 -10.6157     93.0225    226.1899   1.3539800828e+02   1.7291590026e+01    0.2958868    0.2030476  52.17  0.001101843    1.187    0.158
        50 -11.5479     98.9202    223.1960   1.3399936261e+02   1.6946259288e+01    0.4170208    0.2666846  52.22 0.0002377489    1.269    0.212
        51 -10.5467    110.4456    222.2864   1.3173822067e+02   1.5334035882e+01    0.2604333    0.2365834 -54.32 0.0007435579    1.436    0.303
        52 -11.2721    105.0579    219.3252   1.3242471778e+02   1.6702236295e+01    0.3401538    0.2076955 -69.84  0.000445227    1.820    0.451
        53 -10.4477    181.0510    229.8830   1.1963377262e+02   2.4790358727e+00    0.1899216    0.1736623 -86.25  0.001001997    1.435    0.303
        54 -10.5015     84.6694    230.0872   1.3729035284e+02   1.7809160043e+01    0.2459569    0.1856013  62.52 0.0008554255    1.018    0.017
        55 -15.3890     12.2757    207.3324   1.4858658911e+02   3.0824967795e+01     3.133185     1.383633 -78.29   0.01907812    1.902    0.474
        56  -9.5973    150.6627    229.6803   1.2514023401e+02   7.5738388011e+00    0.2577695    0.1161624  55.70  0.001158896    2.517    0.603
        57 -10.5163    190.9038    228.1739   1.1761682986e+02   1.0789490973e+00    0.1763644     0.162157  25.17 0.0002877474    1.145    0.127
        58  -9.5675    164.4786    220.7464   1.2135207443e+02   6.6289458821e+00    0.2600372    0.1744556 -27.40 0.0007252455    2.082    0.520
        59 -10.4344     79.2872    228.9635   1.3815908068e+02   1.8766372054e+01    0.1788743    0.1207842  71.63 0.0009705949    1.270    0.213
        60  -9.2056    158.1272    241.8309   1.2534456090e+02   4.5464397582e+00    0.1578744    0.1217715  28.18 0.0003963374    1.329    0.247
        61 -10.9157    165.3456    227.2356   1.2211205956e+02   5.4923111181e+00     0.321782    0.2305016 -71.67   0.00150548    2.037    0.509
        62  -8.7690    175.2400    228.2033   1.2044251595e+02   3.6881496051e+00    0.1928901    0.1320112  69.11  0.001058733    2.119    0.528
        63 -10.6276    117.3943    224.3966   1.3067373524e+02   1.3868874678e+01    0.2187938    0.1883398  58.44 0.0005136639    1.093    0.085
        64  -9.6141    155.8004    223.7359   1.2339249634e+02   7.6405454875e+00    0.1656735    0.1281861  62.08 0.0003781031    1.327    0.246
        65  -8.9238    220.0172    223.5006   1.1177499448e+02  -3.0682515142e+00    0.1700488   0.09994891  38.24 0.0009813984    1.441    0.306
        66 -10.4935    149.9838    222.4585   1.2430572641e+02   8.8274830565e+00    0.1986032    0.1896035  38.49 0.0001212237    1.177    0.150
        67  -9.6745    149.5533    218.5226   1.2384704724e+02   9.5396546410e+00    0.1830052    0.1735715  48.42   8.7922e-05    1.144    0.126
        68 -10.3851    141.4626    212.6678   1.2458482174e+02   1.1909509593e+01     0.392686    0.2009625  39.23  0.001263405    1.784    0.439
        69 -12.2739    142.1866    220.6564   1.2553306884e+02   1.0437191351e+01    0.3995779    0.3021775 -60.28  0.001003139    1.563    0.360
        70 -10.2645    137.5656    214.7326   1.2562156238e+02   1.2219093759e+01    0.2613938    0.1913288  80.02  0.001028181    1.630    0.387
        71 -10.0794     89.2249    219.0468   1.3538965413e+02   1.9143976018e+01    0.1980402    0.1580478 -53.57 0.0007886302    1.655    0.396
        72 -10.2827    245.8229    218.9769   1.0668231648e+02  -6.5461026836e+00    0.1983643    0.1154065   2.03  0.001084451    2.037    0.509
        73  -9.6163    177.1854    219.6140   1.1882399195e+02   4.6196256324e+00    0.1878929    0.1007124  34.58 0.0009501174    1.739    0.425
        74  -9.8222    232.9937    216.9568   1.0847595476e+02  -4.3233246750e+00    0.1584359    0.1481931  69.87 0.0003590444    1.642    0.391
        75 -10.2079    134.3915    218.1764   1.2668871920e+02   1.2162993756e+01    0.2795078    0.1652561  66.07  0.001420974    2.045    0.511
        76 -10.8680     88.2136    213.1220   1.3497179416e+02   2.0399108305e+01    0.2518887    0.2308091 -89.72 0.0003982534    1.274    0.215
        77 -10.0178    183.0133    213.9958   1.1687706110e+02   4.4533829186e+00    0.1835098    0.1469087  69.95 0.0003585782    1.609    0.378
        78 -12.5631    131.9071    211.5960   1.2629605576e+02   1.3725920233e+01    0.3474467    0.2952947   4.08 0.0005522739    1.662    0.398
        79 -10.6681    102.0474    212.0876   1.3218303586e+02   1.8498330027e+01    0.3760892    0.2157318  51.97  0.001738834    1.473    0.321
        80  -9.4595    152.1336    211.9399   1.2241797100e+02   1.0186155175e+01    0.1941104    0.1556235  64.33 0.0006046825    1.275    0.215
        81 -11.1921    136.3171    227.7638   1.2754692765e+02   1.0245204044e+01    0.2242566    0.1807115  48.76 0.0009319476    1.043    0.042
        82  -9.1934    197.7502    208.0747   1.1318976606e+02   2.7569366782e+00    0.1657797    0.1468135  19.78  0.000292611    1.061    0.058
        83 -10.7131    174.6149    206.4085   1.1724938138e+02   7.1152693854e+00    0.3245513     0.237068  -9.65  0.001140364    1.898    0.473
        84 -11.7431     93.1339    205.1290   1.3313587619e+02   2.1195626841e+01    0.6270765    0.2825435  49.25   0.00172914    1.905    0.475
        85 -11.5785    247.0868    205.5906   1.0414024873e+02  -5.1477329158e+00    0.5407803    0.2750304  24.57  0.002755503    2.080    0.519
        86  -8.5811    183.3099    206.3162   1.1558437309e+02   5.5759798278e+00     0.129083   0.09443988  12.81 0.0002607001    1.635    0.389
        87 -10.6113    166.8260    203.1759   1.1822986346e+02   9.0440182709e+00    0.2290181    0.1595713  30.70 0.0002392724    1.450    0.310
        88 -10.1699    169.8337    200.3692   1.1718895244e+02   8.9671050056e+00    0.2268715    0.1980045  29.96  0.000339348    1.109    0.098
        89  -9.8344    149.3159    204.5751   1.2187685338e+02   1.1942464854e+01    0.3123354    0.2267468  -3.54  0.001116051    2.337    0.572
        90 -10.0043    126.0354    205.7051   1.2665569144e+02   1.5783371592e+01     0.237669    0.1875551  69.34 0.0006490781    1.219    0.180
        91  -8.9324    113.3500    203.6966   1.2892385282e+02   1.8274507700e+01    0.1843368    0.1070288  88.85 0.0008405735    2.546    0.607
        92 -10.7082    103.4144    203.2404   1.3085973442e+02   1.9965173806e+01    0.2933099    0.1946835  51.16  0.001048395    1.296    0.228
        93  -9.5772    224.9171    202.5189   1.0735346316e+02  -1.1427409091e+00    0.1763706     0.151612   6.26 0.0004188575    1.069    0.064
        94  -9.8016    133.0507    202.9658   1.2487323207e+02   1.5084911114e+01    0.1930002    0.1668797  63.89 0.0003243337    1.058    0.055
        95 -11.0851    134.1565    197.8129   1.2390016580e+02   1.5844886793e+01    0.2975816    0.2340549 -79.18 0.0002614424    1.432    0.301
        96  -9.7975    192.0405    197.9962   1.1252613285e+02   5.3012643883e+00    0.2139676    0.1746896  47.73  0.001285753    1.209    0.173
        97 -10.6754    197.2441    200.7636   1.1203432099e+02   3.9360823960e+00    0.3330499    0.2056536  51.51  0.001734907    1.699    0.411
        98  -9.6915     75.5419    203.6460   1.3645558376e+02   2.4061350404e+01    0.3539483    0.1904665  34.67  0.001547069    2.129    0.530
        99 -14.6861     27.3448    248.0957   1.4817757690e+02   2.1893270950e+01      1.29519    0.7461705  43.76  0.006704657    1.638    0.389
       100  -9.1552    122.6910    200.6902   1.2663841928e+02   1.7285649739e+01    0.1189658    0.1033128   5.76 0.0002464461    1.620    0.383
       101  -9.1384    115.0457    200.5009   1.2816138184e+02   1.8605003146e+01    0.1865319    0.1117249  47.07 0.0003425282    1.459    0.315
       102  -8.8160    158.5446    199.4858   1.1926245978e+02   1.1172358694e+01    0.1325931     0.116546  48.33 8.902435e-05    1.015    0.015
       103 -10.1736    100.6817    198.2266   1.3078929576e+02   2.1378666250e+01    0.2252229    0.2030878 -66.52 0.0003640462    1.298    0.230
       104  -9.9592    100.6392    193.4980   1.3019472055e+02   2.2329046932e+01    0.3625243     0.262281  -3.00  0.001696885    3.128    0.680
       105 -10.2138     83.2530    193.5223   1.3379520893e+02   2.4991818964e+01    0.3506157     0.249447  14.80 0.0008269914    2.541    0.606
       106  -9.4421     86.0464    199.0457   1.3386115912e+02   2.3460586846e+01    0.1982731    0.1591899 -55.69  0.000367088    1.526    0.345
       107  -9.2931     85.7029    195.7263   1.3354871826e+02   2.4180323305e+01    0.2201304    0.1842688  45.12  0.001003887    1.305    0.234
       108 -15.6146      6.3878    246.2311   1.5129542045e+02   2.4391209698e+01     1.697638    0.9341405 -75.61   0.01277894    1.826    0.452
       109 -12.1321     71.4686    194.0220   1.3626603803e+02   2.6573033476e+01    0.5380825      0.28408 -63.08  0.002901093    1.899    0.473
       110 -11.9614     76.0973    187.9380   1.3463476569e+02   2.7185234077e+01    0.2947768    0.2621787 -73.11 0.0007537695    1.282    0.220
       111  -9.6006    113.2132    195.7002   1.2788726384e+02   1.9840991986e+01    0.3112945    0.1325215  55.02  0.001292958    2.477    0.596
       112  -9.7909    112.9845    192.0805   1.2743405344e+02   2.0594017867e+01    0.2039424     0.189554 -63.04 0.0002764856    1.259    0.206
       113  -9.3140    107.3504    195.8967   1.2912155131e+02   2.0768295793e+01    0.2022557    0.1464047  85.64 0.0007072238    1.452    0.311
       114  -9.6127    177.5361    194.2401   1.1465350396e+02   8.5751092331e+00    0.3223424    0.2009642  21.38  0.001515532    2.122    0.529
       115 -10.4809    159.4992    194.0663   1.1819000499e+02   1.1948347828e+01    0.3094868    0.2304892  61.02 0.0009864925    1.410    0.291
       116 -10.4253    120.6601    194.2905   1.2615303470e+02   1.8859407959e+01    0.3878565    0.2227682  52.86  0.001958899    1.592    0.372
       117 -10.7352     38.6949    192.8348   1.4271765464e+02   3.0944641070e+01     0.287305    0.1733616 -69.10  0.001792522    1.589    0.371
       118 -10.3266    173.0815    192.5540   1.1523447853e+02   9.6887736948e+00    0.3683289    0.2448234 -14.13 0.0009860547    2.366    0.577
       119 -10.1347    175.8743    186.9878   1.1370179602e+02   1.0119625870e+01    0.2016209    0.1857398  41.10  0.000414341    1.032    0.031
       120 -13.4591     14.2427    239.0728   1.4980088044e+02   2.4821677618e+01    0.3936248    0.2472909  44.15  0.001089524    1.605    0.377
       121  -9.6755     47.2111    192.9605   1.4104786206e+02   2.9925769812e+01    0.1633878    0.1351787 -75.81 0.0004931267    1.318    0.241
       122 -10.5184    191.4532    191.4867   1.1148206609e+02   6.4417548814e+00    0.2599929    0.2281196  22.70 0.0006095523    1.067    0.063
       123  -9.6241    108.1057    242.4195   1.3428214568e+02   1.2294306996e+01    0.2228169    0.1467556 -75.76  0.001444991    1.763    0.433
       124  -9.9314    135.5637    189.9431   1.2241084050e+02   1.7083715689e+01    0.2271179    0.1965787  -9.31  0.001187535    1.568    0.362
       125 -11.0380    249.8696    187.8417   1.0039885429e+02  -3.3446943352e+00     0.332114    0.2060566 -16.23  0.001852117    1.622    0.384
       126 -10.4118     44.2949    188.5035   1.4123941209e+02   3.1196780484e+01    0.3645578    0.2309647  18.50  0.001967235    2.824    0.646
       127 -11.3582    132.7985    224.2828   1.2777013467e+02   1.1396028182e+01    0.2926521    0.1909538  47.99 0.0009203469    1.258    0.205
       128  -9.4542     67.4085    187.0179   1.3634862761e+02   2.8586998411e+01    0.1879696    0.1591346  47.57 0.0005683941    1.322    0.243
       129  -9.1708    161.2666    185.3923   1.1635571083e+02   1.3175889524e+01    0.2057141    0.1600827   5.09 0.0008266724    1.731    0.422
       130  -9.4441    154.5031    185.0531   1.1768305233e+02   1.4516634243e+01     0.194787    0.1370368 -49.03 0.0006443523    1.564    0.361
       131 -10.3247    143.3165    184.7064   1.1994735661e+02   1.6673102322e+01    0.2172691    0.1781608  59.13 0.0006112619    1.147    0.128
       132 -10.3106    140.1368    183.2082   1.2036548279e+02   1.7550541133e+01    0.2359728    0.2103501 -86.36 0.0003411919    1.173    0.147
       133  -9.9225     86.9157    183.4428   1.3179267410e+02   2.6540588535e+01    0.3954076    0.1871854  38.37  0.001846767    2.155    0.536
       134  -9.5851     38.0589    184.0869   1.4211660143e+02   3.2838269712e+01    0.1836277     0.140678  79.38 0.0008409642    1.008    0.008
       135 -10.5674    166.0507    241.6211   1.2391487916e+02   3.2981935871e+00    0.3085374    0.1476233  33.05  0.001160226    2.099    0.523
       136  -9.6896    250.2590    181.9884   9.9206166954e+01  -2.6351531711e+00    0.2451896    0.1172466 -34.12   0.00120248    2.040    0.510
       137 -11.1629    248.6040    178.1794   9.8730970368e+01  -1.8435436434e+00    0.3344833    0.2025796 -14.99  0.001759914    1.749    0.428
       138 -10.1643    115.4016    180.4288   1.2521233700e+02   2.2543136588e+01    0.3327136     0.192553 -89.61  0.001141025    2.787    0.641
       139  -9.7258     65.9746    182.0207   1.3609918845e+02   2.9841228203e+01    0.1840885    0.1519149  78.14 0.0003152093    1.030    0.029
       140  -9.7989    217.2503    183.3544   1.0516117248e+02   2.9461295933e+00    0.2133098    0.1722091 -24.32 0.0003130272    1.257    0.204
       141 -10.5397    135.1305    179.5041   1.2081061148e+02   1.9202940755e+01    0.3605459    0.2348601 -58.80  0.001824818    1.666    0.400
       142 -11.3190    104.2742    180.8152   1.2768417920e+02   2.4343877602e+01    0.2318224    0.1965316  67.98 0.0002754783    1.035    0.034
       143  -9.5118    175.7473    179.9728   1.1244465333e+02   1.1372387038e+01     0.182644    0.1778705 -19.29  0.001118372    1.105    0.095
       144 -10.4531    128.9754    179.4787   1.2212811514e+02   2.0332789267e+01    0.2371669    0.1983541 -64.68 0.0003048545    1.256    0.204
       145  -9.5900     48.1841    179.8682   1.3963691713e+02   3.2564689413e+01    0.1800233    0.1284996  70.47 0.0004500581    1.180    0.153
       146 -10.8147    181.8443    177.2867   1.1071946893e+02   1.0660064745e+01    0.3366172    0.2463513  41.51  0.001765059    1.265    0.209
       147  -9.7190    109.1088    176.3233   1.2595763673e+02   2.4477805487e+01    0.2470246    0.1838121 -78.22 0.0007215327    1.386    0.279
       148  -9.1201     95.4561    175.8358   1.2890006044e+02   2.6831929299e+01    0.1968269    0.1806601  35.84 0.0007338758    1.328    0.247
       149 -11.1557     68.9865    167.8733   1.3374537402e+02   3.2517378865e+01    0.3611138    0.2042154 -63.04 0.0007428087    1.669    0.401
       150 -10.2284     77.1393    175.6446   1.3291921930e+02   2.9659225281e+01    0.2190602    0.1666127 -82.77 0.0004277608    1.198    0.165
       151 -12.4645     71.3519    174.3832   1.3403585637e+02   3.0755442683e+01     0.332035    0.3073551  38.25 0.0007691269    1.382    0.277
       152 -12.0593    248.4708    171.7492   9.7470394525e+01  -9.3379119175e-01    0.5363652    0.3565651  28.77  0.003014779    1.474    0.322
       153  -9.8906    154.6550    172.8290   1.1546791825e+02   1.6807972869e+01    0.2888211    0.2252386  -6.59  0.001124595    1.810    0.448
       154 -11.0130     11.5462    172.3655   1.4659410156e+02   3.7978459727e+01    0.2579603    0.2199027  72.09  0.001996197    1.250    0.200
       155  -9.5876     89.1375    156.8353   1.2748160156e+02   3.2025794953e+01    0.1928218    0.1914282 -16.49            0    1.285    0.222
       156 -11.1292     80.6818    163.4532   1.3046806849e+02   3.1830599279e+01     0.270014    0.2235731  74.28 0.0002099999    1.078    0.072
       157 -10.2310     91.1881    172.5768   1.2938377158e+02   2.8210951882e+01    0.2102712     0.203368  52.43 0.0006903763    1.270    0.213
       158 -12.6131     90.4066    167.0012   1.2874866528e+02   2.9554853999e+01     0.681518    0.6046673  49.82  0.003163731    1.217    0.178
       159 -10.0653     85.1131    165.1810   1.2969520028e+02   3.0777630535e+01    0.2094718    0.1566068  70.71 0.0002467706    1.268    0.211
       160 -11.8234     28.2037    171.2608   1.4305768612e+02   3.6632963110e+01    0.4118841     0.180854 -71.00  0.002192711    1.908    0.476
       161  -9.2578     31.5228    171.5601   1.4238111874e+02   3.6226210611e+01    0.1600062   0.09265078 -89.32 7.640456e-05    1.469    0.319
       162 -11.9373     85.0539    175.9006   1.3120790192e+02   2.8434311464e+01    0.4107375    0.3202181  75.45    0.0016068    1.153    0.133
       163  -9.0902    132.8035    171.3571   1.1992043824e+02   2.1281453410e+01    0.1883117    0.1261415  37.21 0.0003182583    1.545    0.353
       164  -9.0128    100.6017    170.7527   1.2700012901e+02   2.7092887314e+01      0.18487    0.1222808 -76.05 0.0009249738    1.593    0.372
       165 -11.2112     43.8894    169.2312   1.3949311741e+02   3.5380414289e+01    0.3109913    0.2954356  49.30  0.001026693    1.396    0.284
       166  -9.5301     48.3530    168.6866   1.3845522963e+02   3.4979451636e+01    0.2346789     0.152375  76.39  0.001372784    1.403    0.287
       167  -9.3275     36.4458    170.3872   1.4122193077e+02   3.5957535917e+01    0.1838559    0.1070056  39.96  0.001072086    1.802    0.445
       168  -9.7460    107.4331    168.2809   1.2506911595e+02   2.6480720811e+01    0.2377268     0.173826  47.33 0.0004062266    1.312    0.238
       169  -9.4635     58.7196    167.7463   1.3604238358e+02   3.3908985616e+01    0.1749436    0.1214546  78.36 0.0003437056    1.313    0.238
       170 -13.1400    246.2520    137.0835   9.0464914164e+01   4.5724542507e+00     1.600603    0.9485252 -19.74   0.00759405    1.816    0.449
       171 -11.3286    249.2194    149.8695   9.2790109490e+01   2.0845878423e+00    0.6192246    0.3170297 -34.29   0.00291557    1.805    0.446
       172 -12.2597    248.2604    101.5459   8.1951899535e+01   9.6872046806e+00    0.8628762    0.4516256 -31.85  0.003893985    1.740    0.425
       173 -11.5156    247.4441    123.0000   8.7090680033e+01   6.5156163101e+00    0.7477716    0.5176194 -89.08  0.003400328    2.618    0.618
       174 -12.3496    245.1256    162.6011   9.6148749136e+01   9.5865942131e-01    0.5274257    0.3925618 -11.29   0.00303407    1.297    0.229
       175 -12.3815    243.9421    154.6962   9.4680569785e+01   2.3389896887e+00     1.056615    0.7594987 -79.16  0.004840989    2.955    0.662
       176  -9.4864    175.8006    166.3583   1.0980381646e+02   1.3829821315e+01    0.1838176     0.175013  88.88 0.0002421689    1.152    0.132
       177  -9.1659    136.6898    166.1088   1.1812213492e+02   2.1627409994e+01    0.2404041     0.148285  79.94 0.0009436329    2.743    0.635
       178  -8.9932    124.5527    165.2243   1.2067759473e+02   2.4092399208e+01    0.1864915    0.1335267 -45.11 0.0002562838    1.565    0.361
       179 -10.6223     47.1068    163.2901   1.3814497607e+02   3.6325197432e+01    0.2282572    0.1502725 -85.78 0.0006733385    1.314    0.239
       180 -10.7723     37.0572    162.7729   1.4034488432e+02   3.7568913782e+01    0.1896049    0.1322874  73.27 0.0007144044    1.249    0.199
       181  -9.2533    123.0358    160.9903   1.2026430453e+02   2.5276130692e+01    0.2559107    0.2202837  -5.25  0.001295572    1.598    0.374
       182  -9.0871    119.9622    159.0564   1.2062054157e+02   2.6259744873e+01    0.1965637    0.1755967  72.77            0    1.043    0.042
       183 -11.4975     23.9521    149.4451   1.4199487350e+02   4.1866146453e+01    0.4450652    0.1559705 -66.47  0.001628848    2.261    0.558
       184 -10.9200     34.7947    148.9857   1.3940281918e+02   4.0908978235e+01    0.2815623    0.1707395  53.98  0.001185508    1.628    0.386
       185 -13.5291     32.8804    140.6508   1.3891133139e+02   4.3008279513e+01     1.177712    0.3461275 -67.00  0.004911849    2.661    0.624
       186 -13.2586     25.1263    155.8865   1.4234719994e+02   4.0313923489e+01    0.8527424    0.3749392  35.90  0.004514812    2.421    0.587
       187  -9.6832     79.1107    158.9283   1.3017674595e+02   3.3081650652e+01    0.2048183     0.158263  76.97 0.0003328739    1.213    0.175
       188  -9.4884     52.5111    158.3925   1.3633966298e+02   3.6782332093e+01     0.181611    0.1173195  40.22 0.0006582565    1.656    0.396
       189  -9.9498     32.9115    153.9014   1.4037356110e+02   3.9989350603e+01    0.1771211    0.1428738 -70.66 0.0003822586    1.233    0.189
       190  -9.7244    134.3348    155.9526   1.1673299798e+02   2.4208633423e+01    0.2494242    0.1821396 -44.70 0.0006399262    1.475    0.322
       191  -9.6032    132.0916    152.3385   1.1653946508e+02   2.5417017465e+01    0.2295758     0.189324 -88.90  0.000369505    1.314    0.239
       192  -8.7833    228.2710    155.6481   9.7544122295e+01   5.1580730788e+00    0.1311361    0.1074878 -61.90 0.0005907542    1.631    0.387
       193 -11.1818     96.1658    158.9399   1.2615820225e+02   3.0423690705e+01    0.3356506    0.2627857 -51.24  0.001866495    1.400    0.286
       194 -11.5061     73.5293    158.3047   1.3140255397e+02   3.4031476670e+01    0.4696917    0.3295681 -83.20  0.001844313    1.343    0.255
       195 -10.8297    112.7511    152.4053   1.2109276501e+02   2.9031633926e+01    0.3425296    0.2813851  60.11 0.0007512435    1.171    0.146
       196 -10.7284    102.6281    151.1462   1.2328830903e+02   3.1093140698e+01    0.3355166    0.2754472 -83.43  0.001161433    1.183    0.154
       197  -9.9283    105.4115    146.2033   1.2170796286e+02   3.1728352343e+01    0.2943821    0.2309304 -25.47  0.001317478    1.792    0.442
       198  -9.3207     95.6139    152.7337   1.2525571571e+02   3.1911888958e+01    0.1307265     0.111846  -8.86 0.0006984891    1.698    0.411
       199  -9.5568     91.1126    150.3735   1.2594478684e+02   3.3179984418e+01    0.2147478    0.1753531 -62.36 0.0004314446    1.203    0.169
       200 -11.1293     56.2483    150.3056   1.3442321426e+02   3.8167745353e+01    0.3864471    0.2967069  78.07  0.001179678    1.184    0.156
       201 -10.0932     53.0210    146.4705   1.3469359733e+02   3.9448018502e+01    0.2066585    0.1810711  62.05 0.0007745447    1.200    0.167
       202 -11.4939     66.0252    128.0729   1.2851129476e+02   4.2091513484e+01    0.6097494    0.3202346 -72.67  0.001278429    1.947    0.486
       203 -13.3830     67.3188    143.6262   1.3073433769e+02   3.8271391947e+01    0.9767539    0.6003027  89.88  0.004829926    1.811    0.448
       204 -12.2585     74.5616    139.5261   1.2824131995e+02   3.8212549798e+01    0.8682992    0.5318897  86.96  0.004062755    2.009    0.502
       205 -10.7914    134.0000    144.9799   1.1459908002e+02   2.6628205460e+01    0.7142572    0.2085522 -51.62  0.002192921    3.608    0.723
       206 -10.8699    132.9505    140.3375   1.1386465851e+02   2.7846366346e+01    0.4352514    0.3573963 -53.78  0.001434138    1.221    0.181
       207 -11.6602      2.2378    145.2318   1.4660083672e+02   4.4598672111e+01    0.4146175    0.1620519 -76.40  0.002183041    1.937    0.484
       208 -12.2704      3.0890    138.9236   1.4590080228e+02   4.5929732926e+01    0.7039918    0.2563234  48.92  0.003236378    2.736    0.634
       209 -11.1251     26.8323    140.2828   1.4035219019e+02   4.3675123571e+01    0.3810353    0.1893965 -80.08  0.001603593    1.729    0.422
       210 -10.3683    164.0875    139.5105   1.0655905176e+02   2.1494266236e+01    0.2605858    0.2161964 -46.83 0.0003378881    1.226    0.184
       211  -8.4408    155.2573    140.6798   1.0878072726e+02   2.3150261336e+01    0.1472317    0.1169254 -83.42 0.0002689284    1.543    0.352
       212  -9.2685     53.6805    140.0690   1.3363884578e+02   4.0853659459e+01    0.1820138    0.1411704 -76.63 0.0004306476    1.098    0.089
       213 -11.2427     48.0497    138.5355   1.3484808459e+02   4.1874934035e+01    0.4595414    0.2525744  20.16  0.002183054    2.825    0.646
       214 -11.0064     46.7934    143.1196   1.3578218591e+02   4.0954715030e+01    0.3696517    0.1310839  40.01  0.001316194    2.794    0.642
       215 -10.1000    119.8137    137.6276   1.1646428518e+02   3.1021980359e+01    0.4060981     0.288459 -17.57  0.001753791    2.341    0.573
       216 -11.1329    112.8039    136.2732   1.1791785944e+02   3.2647475636e+01    0.4687766    0.3096679  44.48   0.00146766    1.534    0.348
       217  -9.8338     13.4804    137.4894   1.4330415771e+02   4.5465140925e+01    0.1193964   0.09115539 -84.12 0.0008101462    1.025    0.024
       218  -9.1150    184.4943    136.4713   1.0153312008e+02   1.7627802557e+01    0.1467145    0.1458998  44.14 0.0002131732    1.029    0.028
       219  -9.7231    133.8916    135.4878   1.1258210316e+02   2.8714446302e+01    0.2213038    0.1458886  45.15 0.0005198819    1.515    0.340
       220 -12.3895     45.2575    131.2340   1.3453327756e+02   4.3894152708e+01    0.5875045    0.3895669  71.48  0.002804245    1.583    0.368
       221 -11.6122      2.0072    131.5268   1.4552816961e+02   4.7650173053e+01    0.4487179    0.2358836 -80.28  0.002682383    1.447    0.309
       222 -12.0668      2.2243    122.9412   1.4468875093e+02   4.9557252463e+01    0.6989177    0.2101825 -81.49  0.002901571    3.037    0.671
       223 -11.5460     60.1286    135.7829   1.3134532032e+02   4.1052893632e+01    0.5609376    0.3162883  88.07  0.001435828    2.203    0.546
       224  -9.2964    106.6432    129.8183   1.1812182289e+02   3.5248358138e+01    0.3242347    0.1499875  59.68  0.001082577    3.348    0.701
       225  -8.8160    141.5925    129.4895   1.0937773680e+02   2.8416565689e+01    0.1492396    0.1452543 -71.34 -9.930204e-05    1.029    0.028
       226  -9.9303    118.1488    128.7763   1.1496152934e+02   3.3331271630e+01    0.2023438    0.1788725 -22.37  0.001062586    1.362    0.266
       227 -11.7636     32.6682    126.9888   1.3725235657e+02   4.6187907494e+01    0.3128781    0.2101058  82.56  0.001257655    1.443    0.307
       228 -10.4098    209.7461    125.8607   9.4105084303e+01   1.3991284574e+01    0.2797924    0.2388887 -21.25 0.0005398733    1.169    0.145
       229  -9.5518     86.0106    126.7079   1.2289471863e+02   3.9480999500e+01     0.264073    0.2072463 -18.92  0.001334429    1.835    0.455
       230 -11.4998      9.8105    124.5657   1.4291598640e+02   4.8669029826e+01    0.2551208     0.145476  32.95 0.0009430851    2.076    0.518
       231  -9.6401    160.2890    126.6465   1.0438147155e+02   2.4948928782e+01    0.1574047    0.1207825 -80.09  0.000702581    1.674    0.402
       232  -9.4868     46.2568    150.5687   1.3685912641e+02   3.9301681923e+01    0.2222571    0.1086057  41.85 0.0009067327    2.074    0.518
       233 -12.3229      2.0831    110.0517   1.4340923876e+02   5.2466445492e+01     1.001867    0.1498701 -74.96  0.002941575    5.852    0.829
       234  -9.5453     61.1002    125.1502   1.2933148966e+02   4.3429126410e+01    0.1846355    0.1433956  80.06 0.0004067627    1.303    0.232
       235  -9.0825    114.7867    122.8688   1.1448184517e+02   3.5313016465e+01    0.1992012    0.1670364  89.63 0.0002905842    1.282    0.220
       236  -9.5655     50.5021    122.9673   1.3185566912e+02   4.5240205055e+01    0.2026048    0.1128457 -68.21 0.0007475126    1.553    0.356
       237 -11.1151     15.6201    122.8549   1.4122307448e+02   4.8622621463e+01    0.2068892    0.1434585 -37.82  0.001282708    1.864    0.464
       238  -9.1709    143.5225    121.5246   1.0700975895e+02   2.9711930369e+01    0.1554694     0.144906 -86.81 0.0005415726    1.090    0.083
       239 -10.6685     21.3648    120.4571   1.3941161056e+02   4.8712515071e+01    0.2367047    0.1392627 -39.23  0.001289434    2.211    0.548
       240  -9.4322    238.5130    122.0451   8.8266886544e+01   8.4770793672e+00    0.2197419    0.1301244 -31.13 0.0008716569    1.577    0.366
       241  -9.9670     28.0116    114.6720   1.3681046870e+02   4.9481745091e+01    0.1828341    0.1422104  84.96  0.000248253    1.214    0.176
       242 -11.7180     30.4860    117.5287   1.3653249769e+02   4.8594111307e+01    0.3272812    0.2083074  68.55  0.001817081    1.724    0.420
       243 -11.1850     33.2452    114.9906   1.3538930959e+02   4.8927820609e+01    0.3359416    0.1359418 -63.78   0.00145614    1.949    0.487
       244 -10.9142    168.1575    113.4210   9.9323656988e+01   2.5837030459e+01    0.3858417    0.3083849 -75.77 0.0009066783    1.511    0.338
       245 -10.1111     72.9194    115.0243   1.2412843144e+02   4.4205216458e+01     0.204639     0.182493 -69.82  0.001212429    1.017    0.017
       246  -8.6952     82.0035    114.2444   1.2139850148e+02   4.3027047711e+01    0.1634005    0.1208863  40.94 0.0002389619    1.470    0.320
       247  -9.1522    203.4934    111.5089   9.1720626273e+01   1.7955143632e+01    0.1505036    0.1441926 -11.55 6.365368e-05    1.046    0.044
       248 -10.6084     69.6555    110.9756   1.2422199360e+02   4.5618620142e+01    0.3175223    0.1929472  50.67  0.001539491    1.841    0.457
       249 -11.2279     58.2393    110.4728   1.2743186716e+02   4.7249876906e+01    0.3953668    0.2856465  33.84  0.002220041    1.606    0.378
       250 -10.8813     31.7015    110.8269   1.3518945450e+02   5.0042143524e+01    0.2354989    0.1631978  46.64 0.0009521305    1.624    0.384
       251 -10.4285    134.5477    105.3253   1.0505276193e+02   3.5131109486e+01    0.3889097    0.1489817 -42.27  0.001302771    2.621    0.618
       252 -10.1613     62.5904    106.8099   1.2541635756e+02   4.7551646969e+01    0.2725927     0.111647 -56.31  0.001137561    2.080    0.519
       253  -9.0897    112.4704    104.4842   1.1059033535e+02   3.9894724848e+01    0.1499816     0.141843 -66.25 0.0007268763    1.013    0.013
       254  -8.9120     42.6964    103.6825   1.3073981138e+02   5.0626274957e+01    0.1306649   0.08662988 -41.84 0.0003029063    1.625    0.385
       255 -11.9937    248.4126    113.9576   8.4851844388e+01   7.7267762595e+00     0.809972    0.4388545 -36.51  0.003776104    1.648    0.393
       256  -9.9439     63.0297     99.7485   1.2376162039e+02   4.9138287821e+01    0.2695593    0.1740239 -51.04 0.0007727398    1.390    0.280
       257  -8.8743    136.7122     94.3071   1.0146745306e+02   3.6965100554e+01    0.1544988    0.1215525 -79.22 0.0002960726    1.571    0.364
       258 -10.9460      1.6734     89.8802   1.4106962633e+02   5.7021392963e+01    0.3597223   0.09429827 -76.25  0.001349213    3.606    0.723
       259  -9.3304     44.8190     90.3759   1.2741122257e+02   5.3477766639e+01    0.1545696    0.1248815   1.91 0.0002706014    1.588    0.370
       260  -9.1790    102.0990     88.1236   1.0902244191e+02   4.5480197490e+01    0.1907197    0.1681007 -80.19  0.001015593    1.252    0.201
       261 -11.7651    222.1514    245.6513   1.1482977191e+02  -6.0034502343e+00    0.4283878    0.1951916  24.96  0.002142918    2.474    0.596
       262  -9.5488    184.0090    250.5062   1.2194476790e+02  -7.2719494119e-01    0.1601397    0.0815772  26.01 0.0004546708    2.357    0.576
       263  -9.7877    115.7882    245.4365   1.3323339317e+02   1.0658188142e+01    0.3312145    0.1349545  62.30  0.001344878    3.764    0.734
