#   1 NUMBER                 Running object number                                     
#   2 MAG_AUTO               Kron-like elliptical aperture magnitude                    [mag]
#   3 X_IMAGE                Object position along x                                    [pixel]
#   4 Y_IMAGE                Object position along y                                    [pixel]
#   5 X_WORLD                Barycenter position along world x axis                     [deg]
#   6 Y_WORLD                Barycenter position along world y axis                     [deg]
#   7 A_WORLD                Profile RMS along major axis (world units)                 [deg]
#   8 B_WORLD                Profile RMS along minor axis (world units)                 [deg]
#   9 THETA_WORLD            Position angle (CCW/world-x)                               [deg]
#  10 FWHM_WORLD             FWHM assuming a gaussian core                              [deg]
#  11 ELONGATION             A_IMAGE/B_IMAGE                                           
#  12 ELLIPTICITY            1 - B_IMAGE/A_IMAGE                                       
         1 -11.3184      1.7856     73.7023   1.0940330107e+02   6.0940751550e+01     1.196724          nan -64.05  0.002978153    7.332    0.864
         2 -12.4341    210.3543     37.3310   3.9727919501e+01   2.8549806564e+01     1.079805    0.9508644 -26.02  0.006843373    1.354    0.262
         3 -11.8064    226.6550     22.0851   3.4684372723e+01   2.6850023037e+01    0.6865222    0.5802028 -68.49  0.002795544    1.059    0.056
         4 -10.0598      1.6118     23.6152   9.5446820431e+01   7.1036627204e+01    0.3570253    0.1378558 -56.81  0.001699843    2.845    0.649
         5  -8.2745      2.3124      9.3366   8.8862162182e+01   7.3308167982e+01    0.1202632   0.06315888 -20.06 0.0007045686    1.688    0.408
         6 -10.2728    248.0791      3.0119   2.9262841163e+01   2.4581285472e+01    0.4460636    0.2519805 -84.83  0.002769921    1.591    0.372
         7  -8.6038      1.6914      3.8159   8.6502850610e+01   7.4168233639e+01    0.2265893   0.06848445 -38.08  0.001096046    2.669    0.625
         8  -9.5006     77.0622    225.3337   1.0935369436e+02   1.7071769141e+01    0.2598659    0.1753496 -79.14 0.0009212632    1.570    0.363
         9  -8.8240     81.5392    250.2967   1.1092629008e+02   1.1539579177e+01    0.2177279    0.1411388  43.14 0.0007204619    1.285    0.222
        10 -12.4102      4.4642    184.9022   1.2169717426e+02   3.4266509379e+01     1.481526     0.711625  81.73   0.00399734    1.955    0.489
        11 -14.2736     35.6681    188.4168   1.1486831496e+02   3.0505457436e+01     10.25926     3.991964  77.54   0.03145184    5.219    0.808
        12 -11.5566     75.7544    219.8176   1.0904134411e+02   1.8414416479e+01    0.9734243    0.2683962  47.63   0.00342753    3.503    0.715
        13 -10.3341     32.0425    222.0857   1.1851283403e+02   2.3345014204e+01    0.3363126    0.2344425 -86.92  0.001974126    1.283    0.221
        14 -11.4102     98.5252    229.9380   1.0525283039e+02   1.3061597903e+01    0.5673013    0.3668245  56.49  0.002391174    1.520    0.342
        15 -12.9478     10.1225    206.8042   1.2194053822e+02   2.8852105523e+01    0.8856872    0.6484303  28.11  0.002929994    1.668    0.400
        16 -10.7796     85.2404    221.3608   1.0713339335e+02   1.6753473802e+01    0.4873736    0.3382595 -86.85  0.001350654    1.600    0.375
        17  -8.3332     81.5190    182.1711   1.0288052313e+02   2.6145532697e+01    0.2611197    0.2000122  37.64  0.001388583    1.321    0.243
        18 -10.2067     59.9179    176.7511   1.0759509816e+02   3.0450480907e+01    0.4694134    0.2910216 -33.01  0.001790429    2.386    0.581
        19 -10.0898     65.3499    171.3710   1.0545239677e+02   3.1057856725e+01    0.3114749    0.2578875 -33.52  0.001061392    1.458    0.314
        20  -8.9522    104.8146    172.6055   9.5372210743e+01   2.4754674661e+01    0.2195151    0.1299611  47.40  0.000951216    1.721    0.419
        21 -12.2489     67.5693    144.0134   1.0042666439e+02   3.7620589420e+01     2.322559     1.206565  79.63  0.006839736    4.843    0.794
        22 -10.0273     75.2327    162.0146   1.0137887981e+02   3.2004382543e+01    0.3105075    0.2774906 -34.90  0.000483741    1.257    0.205
        23 -10.9713     82.1750    156.0520   9.8451733539e+01   3.2461896245e+01    0.8340876    0.5244704 -38.41  0.002273021    1.873    0.466
        24 -11.5602     31.6372    203.3914   1.1713329296e+02   2.7481938356e+01    0.4580604    0.3962628 -43.35 0.0009909174    1.521    0.343
        25 -11.7693     62.2934    157.8380   1.0424433263e+02   3.4837730574e+01     0.526812    0.3219984 -44.09  0.001357605    1.800    0.444
        26 -11.4944     57.5566    240.6537   1.1483824176e+02   1.6527033584e+01    0.5868607    0.3762914  43.94 0.0005577893    1.345    0.257
        27 -13.0729     38.3487    249.4309   1.1918195796e+02   1.7124283297e+01     3.238191    0.7848676  29.04  0.009978655    6.986    0.857
        28  -8.4098     30.8952    143.7157   1.1098525875e+02   4.1955459110e+01    0.1998406    0.1662785 -25.15  0.001182569    1.460    0.315
        29  -9.2451     98.5879    140.6306   9.0796720987e+01   3.3624666447e+01    0.5393325    0.3137113 -24.76  0.001910711    2.942    0.660
        30 -10.6363     85.2706    140.2531   9.4546178586e+01   3.5935922456e+01    0.3369454    0.2721902 -44.23 0.0005471181    1.233    0.189
        31  -7.9526    197.4681    139.2207   6.6397865430e+01   1.4193778132e+01    0.2090174    0.1329402 -51.06 0.0009318318    1.663    0.399
        32 -10.0059     75.4396    136.5657   9.6691331724e+01   3.8374832310e+01    0.4386887    0.2749095  57.68  0.001913413    1.976    0.494
        33  -9.1025    107.5085    130.9532   8.6079445841e+01   3.4383470137e+01    0.4893197     0.288022  29.82  0.001991547    1.944    0.486
        34  -8.4361     17.6244    130.1425   1.1303663552e+02   4.6485484049e+01    0.2081691    0.1657896  49.06 0.0008804279    1.410    0.291
        35  -8.8243     95.5032    126.8327   8.8597185941e+01   3.7548948999e+01    0.3066359    0.2471814  -3.78  0.001209416    1.524    0.344
        36  -8.2090    106.0437    119.3019   8.3665208364e+01   3.7441416263e+01    0.2091268    0.1935283  33.56 0.0003454476    1.118    0.105
        37  -7.5703    205.6500    110.3271   5.8066730870e+01   1.8000787062e+01    0.1518531    0.1107019 -71.46 0.0007048653    1.760    0.432
        38 -10.9772      2.0127     94.0262   1.1290209512e+02   5.6250960039e+01     0.625551    0.1386036 -66.56  0.002313357    3.139    0.681
        39 -13.9129      6.7517    242.1083   1.2451943929e+02   2.1870620836e+01     2.241193     1.528884 -87.02   0.01619281    1.306    0.234
        40 -10.6271     13.1896     61.2986   1.0175393782e+02   6.3001947779e+01    0.4484352    0.1636762 -54.44  0.001792954    2.084    0.520
        41  -9.0349     41.7101     59.3269   8.8807967475e+01   6.0782100692e+01    0.3182139    0.2091193  50.29  0.001607123    2.278    0.561
        42  -7.9965     41.5051     92.0195   9.8138616268e+01   5.3674384064e+01    0.2064846    0.1173204 -53.44  0.000359732    1.506    0.336
        43 -10.8030    218.4389     29.9807   3.7183675660e+01   2.7679826247e+01    0.4166452    0.3237604  40.38  0.001034326    1.747    0.427
        44 -11.6626    201.3118     43.5704   4.2301582537e+01   2.9784414530e+01     0.532968    0.4146339  78.39  0.002024353    1.237    0.192
        45 -12.1615     14.9812    214.7380   1.2145765685e+02   2.6673282331e+01    0.7619022    0.3890102  45.76    0.0036678    1.722    0.419
        46 -11.3150    134.4990    228.5462   9.7306165119e+01   7.8026658126e+00    0.4804752    0.3440928   9.11  0.002553788    1.745    0.427
        47  -9.5066      1.6272     45.7967   1.0283194426e+02   6.6884950465e+01    0.2515928     0.111375 -40.04  0.001343124    1.748    0.428
        48  -8.3636    133.7307     40.5968   5.2520905577e+01   4.6354285499e+01     0.232304     0.162697 -55.74 0.0006958977    1.695    0.410
        49  -8.2255    133.4499     32.3564   4.9890254309e+01   4.7461309956e+01    0.1707078    0.1285617 -44.15 0.0009157052    1.450    0.310
        50  -9.9111    113.2109    223.5985   1.0125476616e+02   1.2106698613e+01    0.4281276    0.2588755  48.71   0.00218152    1.559    0.359
        51 -12.5977    113.0574    229.8983   1.0211601551e+02   1.0884819490e+01      1.52139    0.5088511  39.42  0.006062211    2.532    0.605
        52  -9.4844     59.0287    229.3325   1.1356063674e+02   1.8629747115e+01    0.2434074    0.1892529 -69.12  0.001062622    1.369    0.269
