#   1 NUMBER                 Running object number                                     
#   2 MAG_AUTO               Kron-like elliptical aperture magnitude                    [mag]
#   3 X_IMAGE                Object position along x                                    [pixel]
#   4 Y_IMAGE                Object position along y                                    [pixel]
#   5 X_WORLD                Barycenter position along world x axis                     [deg]
#   6 Y_WORLD                Barycenter position along world y axis                     [deg]
#   7 A_WORLD                Profile RMS along major axis (world units)                 [deg]
#   8 B_WORLD                Profile RMS along minor axis (world units)                 [deg]
#   9 THETA_WORLD            Position angle (CCW/world-x)                               [deg]
#  10 FWHM_WORLD             FWHM assuming a gaussian core                              [deg]
#  11 ELONGATION             A_IMAGE/B_IMAGE                                           
#  12 ELLIPTICITY            1 - B_IMAGE/A_IMAGE                                       
         1 -19.1882    170.3058    138.0243   1.0649801331e+02   2.1936555484e+01     6.275989     5.516393  65.14   0.01452871    1.312    0.238
         2  -9.5988    115.9778     12.4839   7.9825916241e+01   5.4836266001e+01    0.2977312     0.239154  28.91  0.001210668    1.185    0.156
         3 -10.8982    120.3026      8.9536   7.7219101817e+01   5.4205161671e+01    0.4553984    0.4187216  13.03  0.001372309    1.038    0.036
         4  -9.9107    172.4381      3.3872   6.5747999846e+01   4.1214035094e+01    0.5903313     0.173502 -39.42   0.00183599    3.573    0.720
         5 -10.8382    245.2344      2.8893   5.8224381819e+01   2.2491299884e+01    0.5182011    0.2119755  53.06  0.002175407    2.549    0.608
         6 -10.6071    238.1056      2.2201   5.8593682958e+01   2.4253257933e+01     0.408084     0.172677  81.45  0.001628056    2.778    0.640
         7 -12.0572    178.8800    228.1397   1.1951160506e+02   8.1001191946e+00     1.538475     0.149443  42.32  0.004211973    7.784    0.872
         8  -9.2180    247.4773    250.5142   1.1197354430e+02  -3.6452392341e+00    0.1029013   0.06587929  25.57 -3.505771e-05    1.040    0.038
         9 -11.6789    168.3071    228.6793   1.2128200685e+02   9.6080851684e+00    0.9250243    0.1450985  44.38  0.003195039    4.949    0.798
        10 -11.6784    146.9927    223.8148   1.2421375755e+02   1.3326143520e+01    0.5745673    0.3619098  55.74  0.003310107    1.518    0.341
        11 -12.0382    153.5664    217.7187   1.2241407644e+02   1.3123605088e+01    0.8688428    0.4702199  38.64  0.003477584    1.492    0.330
        12  -8.3422     41.4674    225.4633   1.4153091634e+02   2.6407830763e+01   0.09458777   0.06663821  63.26 0.0001027665    1.016    0.016
        13 -10.4986    202.0446    221.8507   1.1497915620e+02   5.2814389220e+00    0.3393565    0.1316956  34.43  0.001268958    2.206    0.547
        14 -10.1317    216.3833    214.7063   1.1168111120e+02   3.8132486788e+00    0.3790119    0.1300213  32.97  0.001500966    2.782    0.641
        15  -9.7428    222.1764    245.9947   1.1506224264e+02   1.3216677057e-01    0.2387419    0.1238967 -23.69  0.001156992    2.456    0.593
        16 -11.1162     77.2517    110.9508   1.2261679407e+02   4.3432515580e+01    0.3353125    0.2764637  75.37 0.0007076504    1.238    0.192
        17 -11.8771     78.2915    107.0415   1.2160803857e+02   4.4131592345e+01    0.3524264    0.3239072 -26.56  0.001544802    1.296    0.229
        18  -9.5945      2.4474    212.7201   1.4702325230e+02   3.1960294843e+01    0.1532428    0.1132687  74.71  0.000692702    1.163    0.140
        19 -15.0814    133.8507    144.4521   1.1537695095e+02   2.7661397227e+01     1.223611    0.5138249 -51.92  0.003733059    2.646    0.622
        20 -10.6799     66.4275    106.3982   1.2466058458e+02   4.5844338890e+01     0.241993    0.2027353  85.06  0.000673696    1.167    0.143
        21  -9.0255     35.3239    214.3076   1.4193411425e+02   2.8728173677e+01   0.07646299   0.07307845 -71.35 0.0003438091    1.647    0.393
        22 -12.5467     77.9736    117.5639   1.2361085339e+02   4.1917657424e+01    0.6696547    0.5218483 -57.85  0.004097023    1.234    0.190
        23 -10.1664    117.4490    199.9466   1.2664375762e+02   2.0961143392e+01    0.2978809    0.1570031  48.42 0.0005659642    1.559    0.359
        24 -11.2615    224.5355     85.5193   8.3632530321e+01   1.8151383003e+01    0.9803522    0.4271017 -49.58  0.003129913    4.035    0.752
        25 -11.8498     44.7377    173.4830   1.3769756094e+02   3.4688811700e+01    0.3679238    0.3003117  71.62  0.002923906    1.084    0.077
        26  -9.3370    236.3461     82.9464   8.1144803865e+01   1.5843239947e+01    0.2856678    0.2189901 -50.49 0.0006988365    1.605    0.377
        27 -10.8984    232.3231     79.6186   8.0858755774e+01   1.7161730050e+01    0.5142477    0.2859828  54.95  0.002321563    1.906    0.475
        28 -11.5154     69.8628    159.6617   1.3135181406e+02   3.4417769089e+01    0.3762303    0.2713234 -68.21  0.001021756    1.374    0.272
        29 -12.0297    206.2422     65.2214   8.0898267759e+01   2.5198216060e+01    0.9239569    0.5009558 -60.35  0.003140538    3.462    0.711
        30 -10.9815    207.5308     61.4893   7.9590485934e+01   2.5384803851e+01    0.8026388    0.3948733 -56.32  0.002580417    3.736    0.732
        31 -11.2255     69.7084    155.3524   1.3089685504e+02   3.5267353900e+01    0.3545042    0.1959536  85.88  0.001286822    2.191    0.544
        32 -10.3691     60.0382    156.0383   1.3302417058e+02   3.6296272941e+01    0.2400395     0.141362 -78.02 0.0008784111    1.615    0.381
        33 -11.2909    218.2266     74.2240   8.1547477972e+01   2.1110203082e+01    0.4265555    0.3655232  51.20  0.001606551    1.247    0.198
        34 -10.4980    133.2224    204.3674   1.2433793729e+02   1.7983124974e+01    0.3909215    0.2925556 -74.58  0.002724491    1.706    0.414
        35  -9.5085    221.8745     73.5921   8.0801976981e+01   2.0338637037e+01     0.315819    0.2328396 -89.73  0.001400586    2.020    0.505
        36 -11.4190     68.8941    126.1924   1.2725746244e+02   4.1282891777e+01    0.5939618    0.2300631 -56.27  0.002711715    2.384    0.581
        37 -10.3781    107.2538     58.5819   1.0062487825e+02   4.9445417619e+01    0.2805492    0.2191302 -22.10 0.0005909449    1.309    0.236
        38  -9.5089    218.3835     56.2493   7.6395326291e+01   2.3403718262e+01    0.3017906    0.2087632  24.40 0.0006716156    1.582    0.368
        39 -13.0955     67.3910    141.8937   1.2977591100e+02   3.8224364217e+01     1.061734    0.6673368 -82.55  0.006239114    1.592    0.372
        40 -11.4965     64.4654    131.2969   1.2905428167e+02   4.0761322773e+01    0.4211121    0.2921342 -88.51  0.001437368    1.410    0.291
        41 -11.2915    180.2187     50.9238   8.0968344248e+01   3.3691571998e+01    0.4509718      0.39812 -41.58   0.00215237    1.195    0.163
        42  -9.1729    128.5487    196.1891   1.2419191981e+02   1.9891082953e+01    0.2063934    0.1496821  64.13 0.0007421653    1.402    0.287
        43  -9.7475    227.8568     49.6297   7.3168262178e+01   2.1911343005e+01    0.3765529    0.2225377 -34.27  0.001275885    1.589    0.371
        44 -10.9659    134.6294     50.5466   9.0501642607e+01   4.4989423938e+01    0.3834244    0.2915138  77.57 0.0005025879    1.783    0.439
        45 -10.2884    211.5488     49.2017   7.5310822718e+01   2.5970589959e+01    0.4106641    0.2574086  61.83  0.001859841    1.697    0.411
        46 -12.0761    151.3557     49.3532   8.6202315379e+01   4.1179072779e+01      1.13236    0.2867377  53.08  0.003290446    3.690    0.729
        47 -10.4198    161.1193     48.0952   8.3701487570e+01   3.8940586818e+01    0.4220541    0.2723881  27.30  0.001047641    1.795    0.443
        48 -11.4818     18.0005    195.9579   1.4388288275e+02   3.3331465266e+01    0.3248102    0.1972013  89.57  0.002062891    1.382    0.276
        49  -9.4388    248.5362     46.6777   6.9810667881e+01   1.7396569802e+01    0.2233442    0.1969336  36.28  0.000282632    1.194    0.162
        50 -10.7898    140.6206     45.2409   8.7161789265e+01   4.4423396481e+01    0.3767086    0.2560161  43.55 0.0005498797    1.480    0.324
        51 -11.0656    221.9416     40.6249   7.1326365509e+01   2.4406299391e+01    0.5114208    0.3189602 -46.82  0.001318457    1.738    0.425
        52 -10.8163    150.8127     37.7304   8.2160016967e+01   4.3023130133e+01    0.5061405    0.2347865  46.45  0.001623312    2.129    0.530
        53 -10.3377     53.2311    130.4733   1.3161677454e+02   4.2237749151e+01    0.2203401    0.1401378 -70.82 0.0007575735    1.395    0.283
        54 -10.2592     89.0252    128.5152   1.2275642776e+02   3.8058298841e+01    0.2377383    0.1754098 -62.96 0.0005021778    1.306    0.234
        55  -9.7424    165.2498     35.0335   7.8325501995e+01   3.9694010324e+01     0.466988    0.1937541  56.71  0.001188832    2.320    0.569
        56 -10.1791    143.2988     26.2072   7.9382576365e+01   4.6463046096e+01    0.2545176    0.2370308  13.26 0.0002977551    1.013    0.012
        57 -11.3899     12.2865    187.2144   1.4445285474e+02   3.5311036315e+01    0.3785017    0.2327496  63.92     0.001856    1.211    0.174
        58 -11.8074     74.0949    103.2774   1.2200775323e+02   4.5523957754e+01    0.6458834    0.2020448 -49.30  0.002313808    3.134    0.681
        59 -10.4649    249.6851     16.2242   6.1456711559e+01   2.0248250959e+01    0.2938519    0.2072636  34.47  0.001559654    1.593    0.372
        60  -9.0028     63.5076    247.0286   1.3933258517e+02   2.1015269495e+01    0.1332881   0.08841532  53.79 0.0003544775    1.079    0.073
        61 -10.5504    148.8308    238.7631   1.2551132155e+02   1.1255146534e+01    0.3710034    0.1453022  43.41  0.001507657    1.859    0.462
        62 -12.3648    162.4768    223.1470   1.2157724107e+02   1.1120581574e+01    0.9834491    0.3324941  32.97  0.003965989    3.987    0.749
        63 -11.1399     75.6522     98.3446   1.2059268943e+02   4.6385959466e+01    0.4121293    0.1936241 -48.80  0.001877559    2.039    0.509
        64 -12.5438    172.6156    221.6285   1.1972225077e+02   9.7753883051e+00    0.9700471     0.419309  51.03  0.003620496    2.302    0.566
