#   1 NUMBER                 Running object number                                     
#   2 MAG_AUTO               Kron-like elliptical aperture magnitude                    [mag]
#   3 X_IMAGE                Object position along x                                    [pixel]
#   4 Y_IMAGE                Object position along y                                    [pixel]
#   5 X_WORLD                Barycenter position along world x axis                     [deg]
#   6 Y_WORLD                Barycenter position along world y axis                     [deg]
#   7 A_WORLD                Profile RMS along major axis (world units)                 [deg]
#   8 B_WORLD                Profile RMS along minor axis (world units)                 [deg]
#   9 THETA_WORLD            Position angle (CCW/world-x)                               [deg]
#  10 FWHM_WORLD             FWHM assuming a gaussian core                              [deg]
#  11 ELONGATION             A_IMAGE/B_IMAGE                                           
#  12 ELLIPTICITY            1 - B_IMAGE/A_IMAGE                                       
         1 -11.0385    224.4021     26.9402   3.4438924853e+01   2.7155140140e+01    0.6828922    0.5328227 -70.56  0.003451926    1.046    0.044
         2  -8.9094    120.3509      9.2092   4.2965674956e+01   5.3080930072e+01    0.3098682    0.2773294 -55.24  0.001726242    1.272    0.214
         3 -10.4950    247.2170      4.9758   2.8364424561e+01   2.5063537883e+01    0.6057689     0.372623 -64.72   0.00404181    1.269    0.212
         4  -8.2919    165.9206      5.8491   3.5323273558e+01   4.2641029001e+01    0.1842989    0.1538915  83.27 0.0003555992    1.013    0.013
         5  -8.2149      2.3266      2.6421   8.3889807233e+01   7.4520917700e+01   0.09017553   0.08613271  13.81   0.00070441    1.780    0.438
         6  -9.7382     89.1685    227.6679   1.0505091486e+02   1.4417739194e+01    0.3603627    0.2088373  70.27  0.001464862    2.220    0.550
         7  -9.1058    116.5892    247.3437   1.0145680412e+02   6.4990946610e+00    0.4553352     0.181608 -60.84  0.001960397    3.138    0.681
         8 -12.5798     26.0582    222.4890   1.1820366268e+02   2.3535672626e+01     1.767367     1.130214 -55.51   0.01041578    1.871    0.466
         9 -12.7665     10.0888    209.3657   1.2065997954e+02   2.8027659857e+01     1.293115     1.144362 -80.61  0.009306551    1.264    0.209
        10 -12.4823      3.5918    233.1692   1.2326735804e+02   2.3511000287e+01     1.137779    0.7276157  70.83    0.0049389    1.213    0.176
        11  -8.8749    193.5239    235.0219   8.3720911543e+01  -2.8792886152e+00    0.2553211    0.2156543 -57.53  0.001345712    1.689    0.408
        12  -8.7376     70.5697    233.2064   1.0970128586e+02   1.5851271575e+01     0.252368    0.1636397  59.84 0.0006559699    1.429    0.300
        13  -9.7712     86.4265    221.8340   1.0498114842e+02   1.6058365898e+01    0.4062889    0.2417507 -88.35  0.001918088    2.174    0.540
        14 -10.1383    124.1692    230.2828   9.7629792945e+01   8.5993019506e+00    0.4495352    0.3477214 -77.16  0.002550185    1.592    0.372
        15 -10.6894     99.6450    230.9969   1.0313004756e+02   1.2191025394e+01     0.552816    0.2339658  35.82  0.002414581    2.111    0.526
        16 -10.2427    213.4944    229.0316   7.8842658407e+01  -4.7690946147e+00    0.2172538    0.1844267   1.59 0.0003277002    1.085    0.078
        17 -10.3819    112.6302    228.9474   1.0000044312e+02   1.0648370065e+01    0.4453352    0.1843029  42.12   0.00189673    2.124    0.529
        18  -8.6891    181.3889    229.0416   8.5190023446e+01  -9.6394056459e-02    0.2505111    0.1636298  32.86 9.014444e-05    1.398    0.285
        19  -8.6499    182.9016    224.3672   8.4104180353e+01   4.7397997147e-01    0.2142819     0.172076 -20.02 0.0002956844    1.227    0.185
        20  -8.9447    103.2974    222.9137   1.0130218411e+02   1.3320110899e+01    0.3251207    0.1639854  34.75  0.001157068    1.842    0.457
        21  -8.8778     74.7535    219.6945   1.0737086228e+02   1.8179173123e+01    0.3802409    0.2027418 -81.77  0.001739897    2.271    0.560
        22  -8.3773    183.7316    219.7604   8.3152154227e+01   1.1482541206e+00    0.2181855    0.1737386   3.68 0.0004243088    1.202    0.168
        23 -10.1769     48.6338    218.3996   1.1306137278e+02   2.1867925641e+01    0.5705655    0.3408005 -42.49  0.002842134    2.455    0.593
        24  -7.8077    210.7941    217.1887   7.7300772034e+01  -2.5056938858e+00    0.1768802    0.1632694  -1.32 0.0004823719    1.218    0.179
        25 -10.1345    150.3425    213.6734   8.9297867062e+01   7.6750975189e+00    0.2453789    0.2365107 -37.37 0.0004404714    1.133    0.117
        26  -9.4701     36.7829    181.1595   1.1219683996e+02   3.2014694593e+01    0.2290714    0.1979865 -60.77  0.001405558    1.239    0.193
        27 -11.7843     55.0187    209.0549   1.1073064242e+02   2.3193965445e+01     1.666558    0.6951705  62.91  0.006276892    3.238    0.691
        28 -11.4061     40.3991    208.6149   1.1401069196e+02   2.5057051032e+01      1.06736    0.4039894 -60.68  0.004688441    2.537    0.606
        29 -11.4186     18.9797    171.5680   1.1570352816e+02   3.6147318515e+01    0.7984394    0.4236724  70.67  0.002531308    1.996    0.499
        30 -11.7928     25.0649    178.9307   1.1488339387e+02   3.3766935307e+01     1.031653    0.5042933  65.76  0.004685544    2.258    0.557
        31  -8.3902    102.1226    209.1100   9.9709062725e+01   1.6490875498e+01    0.2014897    0.1843807  55.93 0.0003618494    1.006    0.006
        32 -10.6732     32.4598    201.4797   1.1517825944e+02   2.7596551530e+01     0.399626    0.2938675  43.68 0.0007115323    1.345    0.256
        33  -8.8406    173.1201    199.3031   8.1759069178e+01   6.6776441293e+00    0.2245511    0.1934114 -41.28 0.0002863249    1.214    0.176
        34 -10.5961     21.5834    194.5316   1.1708005871e+02   3.0348848930e+01    0.5843751    0.2002967 -72.30  0.002497705    2.500    0.600
        35 -11.1287      5.3289    185.9046   1.2014514296e+02   3.3850874707e+01    0.6487798    0.4028764  85.45  0.003243625    1.356    0.263
        36  -7.5272     81.6655    186.1854   1.0144048062e+02   2.4981536741e+01    0.1948867    0.1230676 -54.85  0.000318806    1.593    0.372
        37  -8.1414     19.4618    186.4658   1.1690865511e+02   3.2473149182e+01     0.129972    0.1040364  81.51 7.168813e-05    1.042    0.040
        38  -7.4675    100.5521    185.5896   9.6540634774e+01   2.2183559900e+01    0.1439627    0.1368581  64.91 0.0001403924    1.011    0.011
        39 -13.5026     15.8755    248.6619   1.2176446188e+02   1.9180355850e+01     3.873372     1.188064  25.19   0.01399131    5.788    0.827
        40 -10.5622     34.8377    196.2767   1.1416333306e+02   2.8564758635e+01    0.4909188    0.2916126 -83.89  0.001276686    1.556    0.357
        41  -7.0495     70.2990    189.3355   1.0475533902e+02   2.5847902732e+01    0.1382253    0.1061264 -34.90 0.0007033172    1.655    0.396
        42  -9.1640    104.2465    177.3344   9.4206168541e+01   2.3564271378e+01    0.3836285    0.2313923 -46.50 0.0008242541    1.741    0.426
        43  -9.4807     60.6936    175.5168   1.0536713565e+02   3.0565110366e+01    0.3987207    0.2778091 -30.36  0.001926431    1.975    0.494
        44  -9.3602     66.0159    170.2698   1.0320404713e+02   3.1178452187e+01    0.2956495    0.2458183 -39.34 0.0004997987    1.376    0.273
        45 -12.2095     43.1796    190.7787   1.1163491680e+02   2.8947288928e+01     1.119857    0.9792685  64.55  0.005325709    1.097    0.088
        46  -6.6955    132.5269    168.4805   8.5296795611e+01   2.0654488922e+01    0.1504254    0.1488774  -7.55 4.972467e-05    1.012    0.012
        47  -9.9620     76.0519    160.6559   9.8925614157e+01   3.2203400610e+01    0.4354865    0.2584777 -56.17 0.0005997656    1.592    0.372
        48 -10.8955      5.7686    146.1946   1.1673490678e+02   4.3502250380e+01    0.6020104    0.2427932 -80.77  0.002627496    2.222    0.550
        49 -10.3302     18.3492    161.2938   1.1486244882e+02   3.8756727294e+01    0.7039238     0.209941  26.91  0.002758795    3.522    0.716
        50 -11.0600     10.3350    155.1313   1.1637262040e+02   4.0945327841e+01    0.7322413      0.31048  89.09  0.003051782    2.568    0.611
        51 -11.2577      2.1409    129.0711   1.1599240761e+02   4.7992546878e+01     1.084017    0.3745666 -72.54  0.004616281    2.282    0.562
        52 -10.9384     63.0713    156.8064   1.0194570361e+02   3.5015984515e+01     0.476256    0.3032922 -44.73  0.001707978    1.686    0.407
        53  -9.9331     83.1448    154.7874   9.5892198886e+01   3.2627320493e+01    0.5188054    0.3448971 -28.80  0.002242907    2.031    0.508
        54 -11.2927     67.6329    144.4373   9.8503202171e+01   3.7581566110e+01    0.8709705    0.6082269  66.38  0.003279919    1.704    0.413
        55  -9.4453    179.8948    146.3629   6.9369814245e+01   1.6296875632e+01    0.2591112    0.2275315 -37.45   0.00025257    1.077    0.072
        56  -8.7152    123.1218    143.7290   8.2475849073e+01   2.8345869891e+01    0.2770219    0.2175082 -40.59 0.0003185313    1.288    0.223
        57  -8.0239    185.0718    143.3282   6.7589404464e+01   1.5888884799e+01    0.2052792    0.1904697  39.86 0.0003821976    1.146    0.127
        58  -9.9395     85.7313    139.8890   9.2231996237e+01   3.6016240246e+01    0.3039704    0.2581948 -44.29 0.0004073451    1.174    0.148
        59  -8.2847     98.7965    140.3324   8.8502484117e+01   3.3697287184e+01    0.3408915     0.210809   4.60  0.001188227    3.087    0.676
        60 -10.1367     57.6103    131.3906   9.9142018922e+01   4.2284958423e+01    0.9236188     0.310341 -68.25  0.002784727    3.761    0.734
        61  -7.9608     86.2996    134.4195   9.0905493410e+01   3.7310066996e+01    0.1955838    0.1445132  46.79 0.0009185071    1.433    0.302
        62  -7.9942    109.9592    130.0368   8.2947406018e+01   3.4197198253e+01    0.2572914     0.194368 -15.11  0.001132956    1.729    0.422
        63  -7.7038     96.4348    126.7840   8.6134822282e+01   3.7485705059e+01    0.2298001    0.1364127 -41.32 0.0009386995    1.743    0.426
        64  -7.6998    106.2078    119.6115   8.1483598923e+01   3.7425447789e+01    0.2062114    0.1507589  26.15 0.0004833179    1.543    0.352
        65  -7.6900    129.1075    118.1161   7.4666274481e+01   3.3166412482e+01    0.2077654    0.1841251 -85.98  0.001021059    1.276    0.216
        66  -8.4767     71.7941    112.6531   9.0537199472e+01   4.5035433307e+01    0.2376323    0.2019017 -33.23 0.0007303255    1.177    0.150
        67  -7.7399    105.7329    101.8578   7.6924322105e+01   4.1638802948e+01    0.2592767    0.1688203  -3.81 0.0008816571    2.769    0.639
        68  -8.8650    185.8317     99.8247   5.6998794596e+01   2.4414957335e+01    0.3361255    0.2499485 -28.93  0.001006836    1.456    0.313
        69 -10.3196     89.9432     94.2296   7.9693875651e+01   4.6346786899e+01    0.2524044    0.2292434 -37.01 0.0002530843    1.057    0.054
        70  -7.0084    101.7094     93.6866   7.5822648220e+01   4.4236762089e+01    0.1533793    0.1186893  -8.79 0.0004880374    1.589    0.371
        71  -7.4843    161.9752     87.9306   5.8630422728e+01   3.2103186448e+01    0.1750523    0.1682055 -63.08 0.0003166648    1.012    0.012
        72  -8.7446    200.8336     57.1731   4.3968796702e+01   2.8241496140e+01    0.1773411    0.1608284  42.75 0.0005027326    1.350    0.259
        73  -7.2373    121.9445     50.0189   5.6355438357e+01   4.7913424172e+01    0.1605497    0.1538256  43.20 0.0009363373    1.018    0.018
        74 -10.9804    201.5934     46.8241   4.1371959527e+01   2.9559345851e+01      1.09399     0.299795  60.70  0.003971213    3.360    0.702
        75 -11.4778    207.9273     39.1987   3.8820497438e+01   2.9171875615e+01    0.8065273    0.6972095 -75.07  0.005187503    1.031    0.030
        76  -8.6372    227.0281     34.0558   3.5717762779e+01   2.5710720220e+01    0.1874512    0.1520842 -70.45 0.0003177272    1.009    0.009
        77 -10.3452    217.7865     32.6690   3.6303219015e+01   2.7854884740e+01    0.5146655     0.325418  40.84  0.001338218    2.448    0.592
        78  -8.5044     80.9471    249.4904   1.0910657634e+02   1.1174989644e+01    0.1904376    0.1049852  38.07  0.001022172    1.559    0.358
        79  -7.3980    160.8297     46.3955   4.7248660883e+01   3.9194582706e+01    0.1863122    0.1207146  53.26 0.0002812969    1.503    0.335
        80  -8.5441    153.3676     44.8051   4.8107179554e+01   4.1209749905e+01    0.2436855    0.2014424  49.15 0.0003234808    1.224    0.183
        81  -8.9358    122.1322     37.8481   5.2267301744e+01   4.9563463013e+01    0.2350337    0.2040048  71.28 0.0003845442    1.171    0.146
        82  -7.7040    239.2735     29.5018   3.3698259787e+01   2.3772435615e+01    0.1409515    0.1047968  68.31 0.0003593252    1.477    0.323
        83  -8.7641    242.0054    247.0123   7.6649731282e+01  -1.0955818627e+01    0.1438401    0.1073381  -4.83 0.0006395525    1.029    0.028
        84  -9.5791    245.4865    237.9965   7.4560906871e+01  -1.0169240950e+01     0.200109    0.1503425  30.68  0.001365255    1.565    0.361
        85 -10.5711     92.4634    233.0822   1.0494983970e+02   1.2817057171e+01    0.4801899     0.312558  78.85  0.002494066    1.893    0.472
