#   1 NUMBER                 Running object number                                     
#   2 MAG_AUTO               Kron-like elliptical aperture magnitude                    [mag]
#   3 X_IMAGE                Object position along x                                    [pixel]
#   4 Y_IMAGE                Object position along y                                    [pixel]
#   5 X_WORLD                Barycenter position along world x axis                     [deg]
#   6 Y_WORLD                Barycenter position along world y axis                     [deg]
#   7 A_WORLD                Profile RMS along major axis (world units)                 [deg]
#   8 B_WORLD                Profile RMS along minor axis (world units)                 [deg]
#   9 THETA_WORLD            Position angle (CCW/world-x)                               [deg]
#  10 FWHM_WORLD             FWHM assuming a gaussian core                              [deg]
#  11 ELONGATION             A_IMAGE/B_IMAGE                                           
#  12 ELLIPTICITY            1 - B_IMAGE/A_IMAGE                                       
         1 -15.9103     10.8821     78.3828   1.1988817761e+02   5.8330202858e+01     2.125739     1.066831 -82.76   0.01132435    1.889    0.471
         2 -16.1814      8.1930     99.0979   1.2341967231e+02   5.3843605935e+01     1.501048     1.422491 -42.72   0.01173096    1.332    0.249
         3 -13.6936     21.0350     43.8682   1.0884392351e+02   6.5222932754e+01    0.7081611    0.4675613  -1.92  0.003914693    1.910    0.476
         4 -13.1027    168.9080     49.3567   6.4157430430e+01   3.6432242064e+01    0.3095651    0.2359531 -16.35  0.001400741    1.425    0.298
         5 -15.9367    246.7320    168.2975   8.0341862903e+01   1.1948427293e+00     2.449669    0.8286954 -28.65   0.01020394    3.009    0.668
         6 -15.6737    247.5892    230.3545   9.0970369436e+01  -5.5822317847e+00     1.946051    0.8244522 -26.02   0.01114879    2.628    0.619
         7 -15.4742    247.1284    199.1545   8.5969000719e+01  -2.4031672468e+00     1.487346    0.7670048 -28.01  0.007254235    2.021    0.505
         8 -16.0260    239.7698    130.0968   7.3453964558e+01   7.4520498909e+00     2.347981     1.582068  63.24   0.01154962    2.030    0.507
         9 -15.5219    221.0985    119.2083   7.4032755617e+01   1.2839450728e+01     2.175539    0.8331115 -40.48  0.007688179    2.694    0.629
        10 -14.7778    116.8068    247.0265   1.1481830412e+02   1.2054892577e+01     2.092023    0.3986478  41.74  0.008217684    3.780    0.735
        11 -15.8142    173.1395    159.3247   9.1922782446e+01   1.6304583044e+01      2.95908    0.8905551  45.88    0.0102337    3.042    0.671
        12 -15.7949    142.6842    239.3462   1.0963634787e+02   9.2964613514e+00     1.297651    0.8453161  49.68    0.0088238    1.223    0.182
        13 -14.6537    132.3477    238.9967   1.1138450235e+02   1.0898616327e+01    0.5884382    0.4960677  53.68  0.003773814    1.137    0.121
        14 -15.5905    138.8240    179.7013   1.0256419020e+02   1.9200669207e+01     1.196627     1.064546   3.84  0.007510621    1.387    0.279
        15 -15.7279    122.7704    196.1489   1.0817148475e+02   1.9047477342e+01     1.492737     1.166615  11.11  0.008910514    1.873    0.466
        16 -17.7810    137.8082    213.5993   1.0750731806e+02   1.3759781373e+01     2.137356     1.926156 -75.45   0.01546466    1.334    0.250
        17 -16.4739    122.8804    219.4020   1.1096124246e+02   1.5213260788e+01     1.490436     1.078707  80.53  0.009760327    1.625    0.384
        18 -16.7857     14.3169     12.9227   1.0140977582e+02   7.1860595974e+01      2.46257     1.465333 -26.79   0.01520174    1.586    0.370
        19 -19.7591     62.3617    167.2375   1.1733707582e+02   3.3531889479e+01      16.4468     2.956852 -68.21   0.04869244    6.268    0.840
        20 -13.9371     10.6320    205.1351   1.3029558261e+02   3.1815887431e+01    0.6145996    0.3461214 -60.36  0.003477233    2.304    0.566
        21 -12.0711     88.7862    211.6254   1.1649661758e+02   2.1529379030e+01    0.2107292    0.1362479  50.13 0.0006916008    1.233    0.189
        22 -13.2044      2.1687    203.1417   1.3167725247e+02   3.2930281331e+01    0.4024348    0.1519207 -85.00  0.002421547    2.249    0.555
        23 -11.3328     31.1885    205.1653   1.2665382531e+02   2.9781665979e+01    0.1403917    0.1160813  74.76 0.0003174588    1.212    0.175
        24 -12.5256     24.0874    202.2867   1.2777305665e+02   3.1033541188e+01    0.2098441    0.1683979  60.29 0.0008758804    1.231    0.187
        25 -11.4338     82.3208    194.6512   1.1606252413e+02   2.5467054591e+01    0.2635379    0.1684825  54.67  0.001624858    1.299    0.230
        26 -11.5401      2.2148    192.6468   1.3124710429e+02   3.4831753593e+01    0.1691169    0.1447386  41.60  0.001443302    1.538    0.350
        27 -13.7652     98.3007    180.0525   1.1109893352e+02   2.5880503725e+01    0.6287148    0.4552647  61.73  0.002467809    1.241    0.194
        28 -13.4657      2.8225    248.9746   1.3309549274e+02   2.5313073030e+01    0.3048436    0.1662861  68.90  0.002231787    1.248    0.199
        29 -12.6892     42.6769    176.4536   1.2242458832e+02   3.4006455927e+01    0.3289663    0.2180008 -70.84  0.001714176    1.479    0.324
        30 -11.8629      8.3914    247.6447   1.3223724226e+02   2.4993609674e+01     0.327543    0.1417636  76.99   0.00233132    1.872    0.466
        31 -12.0045    180.4995    176.0056   9.3586797238e+01   1.2170866701e+01    0.1837864    0.1324981 -39.92  0.001024559    1.571    0.364
        32 -11.7377    225.0212    170.6830   8.4421806824e+01   4.6995770667e+00     0.188868     0.149425  28.66 0.0008134978    1.111    0.100
        33 -13.0100    216.8535    169.5271   8.5624624144e+01   6.3409361758e+00     0.411698    0.2540795  41.51  0.002203822    1.477    0.323
        34 -12.5991    208.5677    164.6677   8.6161819630e+01   8.5741229381e+00     0.319833    0.2283494  70.55  0.001579631    2.296    0.565
        35 -16.3605     12.7610    174.2765   1.2834835373e+02   3.7426081073e+01     1.264512    0.7028741  49.99  0.006598896    1.548    0.354
        36 -11.9809      2.1540    215.6038   1.3213990420e+02   3.0753435172e+01    0.2362107    0.1390074 -83.36  0.001365323    1.541    0.351
        37 -14.7239     34.3056    158.7727   1.2270548417e+02   3.8532123478e+01    0.6307625    0.4111857 -70.23  0.004067949    1.433    0.302
        38 -11.7812     99.3994    159.4930   1.0800208554e+02   2.9799401141e+01    0.4735521    0.2191523 -38.47  0.001670727    4.401    0.773
        39 -10.7104     22.6683    156.2716   1.2506831006e+02   4.0191914495e+01    0.1183737   0.06592593  65.06 0.0002803197    1.590    0.371
        40 -11.5279    104.6882    151.0534   1.0544648792e+02   3.0679156789e+01    0.1825835    0.1655899 -81.58 0.0003835616    1.098    0.089
        41 -12.8864     13.3132    211.9997   1.3013397481e+02   3.0352538178e+01    0.3062581    0.1635216  51.66  0.001420319    1.427    0.299
        42 -16.5782    159.3427    171.6211   9.7009276741e+01   1.6863274862e+01     1.856237     1.266532 -34.18  0.007314071    1.746    0.427
        43 -15.0464     94.7178    141.4963   1.0623234561e+02   3.4346962460e+01     0.876613      0.66615 -52.89  0.004087574    1.390    0.280
        44 -13.1970    104.4367    137.3620   1.0311613025e+02   3.3619805910e+01     0.303157    0.2631605  39.42  0.001135096    1.220    0.181
        45 -12.2052    107.3098    146.9831   1.0414010042e+02   3.1086282806e+01    0.1908038     0.172364 -77.30 0.0005137717    1.106    0.096
        46 -12.4114     14.5965    140.5194   1.2565892173e+02   4.4237983957e+01    0.2780345    0.2438689  -9.35  0.001873164    1.713    0.416
        47 -11.7882      9.9995    136.7483   1.2644403074e+02   4.5413507718e+01    0.2195872    0.1562901 -40.57  0.001234663    1.959    0.489
        48 -13.8965    106.0773    131.4012   1.0158076027e+02   3.4618775799e+01    0.4298598    0.3880411  71.30  0.001491758    1.053    0.050
        49 -14.2147      3.8462    123.4999   1.2690195110e+02   4.8726842430e+01    0.7926294    0.3913644 -85.38  0.004610103    1.638    0.389
        50 -12.8540    164.2431    245.8116   1.0668969615e+02   5.2090710538e+00    0.3528361    0.1915603  42.57  0.001285778    1.359    0.264
        51 -11.7892     28.4855    245.3962   1.2911126380e+02   2.3334314404e+01     0.226756    0.1839981 -59.03  0.001948734    2.005    0.501
        52 -14.6803     21.0098     88.0591   1.1804594985e+02   5.5441205828e+01    0.8090328    0.5322841 -28.49  0.004415303    1.998    0.499
        53 -12.8758     88.4999    122.5147   1.0438870580e+02   3.9519950236e+01     0.248005    0.2233047 -77.67 0.0006712851    1.041    0.039
        54 -11.4612    108.5291    121.5109   9.8946041939e+01   3.6325075989e+01    0.1402114    0.1352516  89.89 0.0002434527    1.038    0.037
        55 -11.5118    167.7796    112.6630   8.2700573855e+01   2.5815842809e+01    0.3316759    0.2301958 -79.95  0.001354481    2.388    0.581
        56 -12.3246     29.5159    109.7279   1.1859275242e+02   4.9798613656e+01     0.449759    0.2185959 -61.10  0.002373573    1.736    0.424
        57  99.0000    108.5188    232.3584   1.1488460582e+02   1.5364838222e+01    0.6875493    0.4168034  53.84  0.004320962    1.306    0.235
        58 -12.2919     35.2524     84.4487   1.1279710764e+02   5.5051784357e+01    0.4048336    0.2359044 -53.00  0.002185244    1.505    0.336
        59 -12.1307    155.2856     64.2722   7.1718634232e+01   3.7553554235e+01    0.2709576    0.2255022  57.91  0.001048033    1.213    0.176
        60 -13.4093     15.6661     51.4526   1.1304280414e+02   6.3987407175e+01    0.6542536    0.1621889 -54.21  0.002768998    2.675    0.626
        61 -11.6908      9.5147    238.1882   1.3175735246e+02   2.6355935631e+01    0.2583485    0.1279957  35.93  0.001829075    2.106    0.525
        62 -12.2410    173.0112     42.7277   6.1271322521e+01   3.6308820493e+01    0.3183843    0.2306731  -8.01 0.0008266943    1.615    0.381
