#   1 NUMBER                 Running object number                                     
#   2 MAG_AUTO               Kron-like elliptical aperture magnitude                    [mag]
#   3 X_IMAGE                Object position along x                                    [pixel]
#   4 Y_IMAGE                Object position along y                                    [pixel]
#   5 X_WORLD                Barycenter position along world x axis                     [deg]
#   6 Y_WORLD                Barycenter position along world y axis                     [deg]
#   7 A_WORLD                Profile RMS along major axis (world units)                 [deg]
#   8 B_WORLD                Profile RMS along minor axis (world units)                 [deg]
#   9 THETA_WORLD            Position angle (CCW/world-x)                               [deg]
#  10 FWHM_WORLD             FWHM assuming a gaussian core                              [deg]
#  11 ELONGATION             A_IMAGE/B_IMAGE                                           
#  12 ELLIPTICITY            1 - B_IMAGE/A_IMAGE                                       
         1 -13.3568    223.4572      7.0873   3.5250004791e+01   2.8936227963e+01     1.193548    0.9037639  61.49  0.004731367    1.430    0.301
         2 -14.2668    196.5342     37.7778   4.5702282465e+01   3.1682550784e+01     2.840296     1.711457  23.80   0.01167553    2.978    0.664
         3  -9.5561    189.6553     15.0963   4.0495967356e+01   3.6036547770e+01    0.2290627    0.1677457  89.96 0.0006394266    1.294    0.227
         4 -11.4439     59.6233      2.9452   6.3252959222e+01   6.6863902234e+01    0.4686951    0.1967881  44.16  0.002305187    2.089    0.521
         5  -9.6429     58.6107    228.8086   1.1757654373e+02   1.9560114056e+01    0.1564734    0.1256044  84.71 0.0005826103    1.146    0.127
         6 -19.4028     12.1810    149.0816   1.2069080576e+02   4.2107571078e+01     19.15932     4.577642 -77.25   0.06551983    3.950    0.747
         7  -8.7821     63.2072    213.7958   1.1531116825e+02   2.2015002420e+01    0.1424148    0.1407632  58.65 0.0004316369    1.335    0.251
         8  -9.9839     56.4681    208.9418   1.1625413367e+02   2.3892608252e+01    0.4723539    0.2226652  86.09  0.001460509    2.739    0.635
         9 -10.7354     66.0096    207.1276   1.1405902313e+02   2.3056370905e+01    0.3073627    0.2590941 -40.04 0.0003092807    1.607    0.378
        10 -11.5236     64.3189    202.7166   1.1396497713e+02   2.4227410560e+01    0.2482565    0.2065052 -78.13 0.0006989703    1.187    0.157
        11 -10.1467     42.1088    208.3154   1.1916951344e+02   2.5741513199e+01    0.2925499    0.1504567  68.58  0.001005399    1.928    0.481
        12  -9.9765     35.7292    208.6925   1.2049480523e+02   2.6376126260e+01    0.1606489    0.1023383  62.50 0.0006453271    1.339    0.253
        13 -11.7595    191.3308    206.3634   8.6959912036e+01   2.9524651261e+00    0.5668796    0.2812041  17.61  0.002046971    3.535    0.717
        14  -8.5429     93.4550    205.5378   1.0791332513e+02   1.9519703387e+01    0.2181295    0.1639886  30.02 0.0004860009    1.458    0.314
        15  -9.0113     96.3443    202.4537   1.0687587651e+02   1.9735516885e+01    0.2500007    0.1903819 -46.72  0.001405854    1.545    0.353
        16 -10.3336     26.5251    203.5426   1.2196674423e+02   2.8446153303e+01    0.3797092     0.104367  49.32  0.001623044    3.073    0.675
        17 -12.6082     52.7878    197.5064   1.1593997859e+02   2.6822467229e+01     0.479121    0.2963996 -46.44  0.002277772    2.138    0.532
        18 -12.7814     63.7729    184.4562   1.1204643381e+02   2.8379951855e+01    0.8301172    0.6800917 -46.74  0.004983751    1.467    0.318
        19 -11.0132    192.6518    194.4915   8.4505767099e+01   4.7541819438e+00     1.047079    0.5542673 -63.08  0.003131767    6.006    0.833
        20 -11.2435    133.7908    194.9025   9.7310437594e+01   1.5166743590e+01    0.2970935    0.2742478 -51.16  0.001245148    1.166    0.142
        21  -9.0773     44.8672    197.9927   1.1769683054e+02   2.7654140406e+01    0.1819533    0.1542766  85.90 0.0005518288    1.083    0.077
        22 -10.5053    105.1262    194.2996   1.0375922596e+02   2.0112419669e+01    0.2294206     0.192768 -50.67  0.001200342    1.312    0.238
        23 -11.8374    114.1193    184.0393   1.0007822333e+02   2.0877963369e+01    0.6060063    0.3247347 -38.69  0.002497525    2.494    0.599
        24  -8.6198     68.1797    193.1725   1.1205911502e+02   2.5820644645e+01    0.1795553    0.1294409  75.32 0.0002463217    1.336    0.251
        25 -11.3567     73.7136    188.3879   1.1021691611e+02   2.6144851474e+01    0.5081246    0.2611522  69.00  0.002123604    2.632    0.620
        26 -10.7728    149.5792    187.9013   9.2534118365e+01   1.3781545939e+01    0.4106354    0.3195773 -88.96  0.001618168    1.778    0.437
        27  -9.3983     81.3896    194.1992   1.0918357208e+02   2.3755462174e+01    0.3530685    0.2161186  69.96  0.001731529    1.856    0.461
        28  -9.0408     92.7638    185.1523   1.0531283440e+02   2.4088492692e+01    0.2462465     0.167228  50.43 0.0008558015    1.405    0.288
        29 -10.8201     98.8611    181.2011   1.0326759510e+02   2.4028172011e+01    0.3883226    0.3051519  -2.47  0.001579309    1.838    0.456
        30 -10.0580    143.2818    179.0173   9.2342212787e+01   1.6779792999e+01    0.2031334    0.1941718 -48.78 0.0004461154    1.095    0.087
        31  -9.8257     72.1794    250.1889   1.1676575733e+02   1.3809449336e+01    0.1894301    0.1252532  53.65 0.0003279992    1.191    0.160
        32  -9.2534    243.6745    178.6851   7.1729565326e+01  -1.2707969871e+00    0.1370453   0.09041231  -0.68  0.000535208    1.668    0.400
        33 -10.1155    188.7359    176.8008   8.1840596500e+01   8.6629185677e+00    0.4321176    0.3690253 -72.97   0.00231545    1.596    0.373
        34 -10.5055     56.0118    166.1059   1.1163912762e+02   3.3674659036e+01    0.5055302    0.2712679 -50.02  0.001917048    2.012    0.503
        35 -10.2638     47.3423    173.3179   1.1462882167e+02   3.2990277602e+01    0.4154508    0.3292659 -41.44  0.001528249    1.587    0.370
        36 -10.6431     53.4560    172.6801   1.1308539193e+02   3.2421057636e+01    0.4096809    0.2355921  70.41   0.00076497    1.950    0.487
        37  -9.2368     84.2861    173.9125   1.0570764155e+02   2.7967819978e+01    0.1896015    0.1658261 -72.54 0.0002964381    1.107    0.097
        38  -9.6882    146.8563    172.5380   9.0271395073e+01   1.7486926524e+01    0.2400609    0.2074217 -81.01 0.0009289062    1.364    0.267
        39  -9.2394    149.1716    176.8503   9.0569278580e+01   1.6137901634e+01    0.2111125    0.1957248  76.93 0.0004747086    1.193    0.162
        40 -10.1534    138.0511    169.4023   9.1741109642e+01   1.9828348573e+01    0.3550797    0.2658925  34.63 0.0007422075    1.334    0.250
        41 -10.0132    240.0460    169.4792   7.0481659588e+01   7.7053098538e-01    0.1887489    0.1282168  37.13 0.0004966906    1.563    0.360
        42 -10.0046     38.8980    199.8820   1.1913029990e+02   2.7916613036e+01    0.2125503    0.1637205  57.80  0.001019005    1.176    0.149
        43  -9.2639    187.7772    162.5129   7.9045174473e+01   1.1566614280e+01    0.2739133     0.201286 -40.08 0.0008441924    1.353    0.261
        44 -11.6599     93.5363    151.5850   9.9605991243e+01   3.1868220812e+01    0.7326366    0.5874645 -30.47   0.00376584    1.490    0.329
        45 -10.7872    133.9406    145.7593   8.7840879171e+01   2.5930789112e+01     1.297631    0.3442737 -55.02  0.003012383    5.838    0.829
        46  -9.4089    187.3735    151.2540   7.6644405728e+01   1.3847363944e+01    0.2127062    0.1372058 -48.92 0.0009442294    1.652    0.395
        47  -9.2636    112.5646    150.7011   9.4402182376e+01   2.8823150703e+01    0.2004025    0.1440911 -66.08 0.0005112196    1.484    0.326
        48  -9.8572    174.5661    149.4370   7.9007776474e+01   1.6837034623e+01    0.2721786    0.2628889  -2.53 0.0007099313    1.016    0.016
        49  -9.2721    143.5075    145.9983   8.5504797793e+01   2.3962366639e+01    0.2226087    0.1376989 -71.35  0.000810577    2.611    0.617
        50 -10.5638    105.7553    137.9143   9.3555668526e+01   3.3096421174e+01    0.5223324    0.3551573 -23.05  0.002027297    2.094    0.523
        51 -10.5068    105.9812    130.7620   9.1912546183e+01   3.4773032713e+01    0.4040391    0.3306215 -59.46  0.001147454    1.202    0.168
        52 -11.6565     93.5747    137.6421   9.6870626374e+01   3.5253964623e+01    0.2913453    0.2622997 -32.86  0.001576979    1.198    0.165
        53 -10.1936    136.0405    128.8547   8.3367085697e+01   2.9358208710e+01    0.4925952    0.2050044 -51.12  0.001669778    2.524    0.604
        54 -10.5475    114.0103    128.9554   8.9269082049e+01   3.3716997717e+01    0.4705274    0.3311418  19.06  0.001608433    1.827    0.453
        55  -8.5325     97.5025    129.4629   9.4012949910e+01   3.6580708349e+01     0.150296    0.1426049 -73.61 0.0002140564    1.039    0.038
        56  -9.2636    160.6824    127.9529   7.7071400699e+01   2.4296164328e+01    0.2324692    0.2065594 -45.02  0.001170141    1.116    0.104
        57 -10.3131    101.0713    124.9613   9.1970724193e+01   3.7043282573e+01    0.3043052    0.2510675 -20.29 0.0006803544    1.412    0.292
        58 -10.8554    119.8430    122.9308   8.6215914322e+01   3.4001037759e+01    0.5395711    0.3657678  -3.76  0.002081815    2.507    0.601
        59  -9.6915    135.0000    120.7681   8.1617936743e+01   3.1399607441e+01    0.4317822   0.08839801 -45.97  0.001035102    4.788    0.791
        60  -9.3299    109.2065    118.3731   8.8059405491e+01   3.7120155175e+01    0.2550097    0.2034456 -49.07 0.0003359532    1.206    0.171
        61  -9.3612     59.6181    220.3044   1.1664554791e+02   2.1134027106e+01    0.2956988    0.1970809  21.82   0.00167288    2.091    0.522
        62 -10.0256    231.2982    113.6309   5.9609891737e+01   1.1818705709e+01    0.2779852    0.2612439   1.04 0.0007857358    1.131    0.115
        63  -8.9680    167.4775    112.6576   7.1589916146e+01   2.5978231144e+01    0.3157577    0.2451024  86.32  0.001410732    1.751    0.429
        64 -11.8453    118.4461    109.4153   8.3131012780e+01   3.7382778393e+01    0.7063321    0.5826953 -66.50  0.002807906    1.351    0.260
        65  -9.3915    205.4767    110.1554   6.3199719548e+01   1.7895650452e+01    0.3089722    0.2160094  40.23  0.000841199    1.565    0.361
        66 -10.0384    134.5807    104.5811   7.7424417044e+01   3.5058697886e+01    0.6579645    0.1792635 -43.59   0.00184076    3.596    0.722
        67  -9.3025     52.3136    219.9995   1.1808082970e+02   2.2103952947e+01    0.3510362    0.1318709  54.80  0.001595443    2.518    0.603
        68  -9.8651     63.0328     99.5220   9.7693183625e+01   4.9085975178e+01    0.3559247    0.1439536  30.01  0.001376905    2.798    0.643
        69  -8.9007     49.3303    216.6891   1.1840068942e+02   2.3143282132e+01    0.2903692    0.2676297  42.31  0.002091157    1.357    0.263
        70  -8.3791    156.3258     82.2927   6.5665360690e+01   3.4554779518e+01    0.1572215    0.1214819  15.95 0.0002996885    1.620    0.383
        71  -8.4519    184.6797     76.7145   5.8254907039e+01   2.8702564570e+01    0.1493061    0.1174858  20.85 0.0003071768    1.593    0.372
        72  -9.3035     64.9704     70.1184   8.8856217635e+01   5.5423784535e+01    0.2081814    0.1858429 -26.88 0.0003176228    1.021    0.021
        73 -11.1441    244.9726    244.8929   8.3557341222e+01  -1.0500162309e+01    0.3028797    0.1455683  31.89  0.001735247    1.804    0.446
        74 -12.5448    180.7406     51.7712   5.1932379252e+01   3.3632893099e+01    0.7168268    0.6650028  29.89  0.000803382    1.195    0.163
        75  -8.1080     84.2544    245.6936   1.1412219972e+02   1.2992967424e+01     0.117092   0.07408671  65.67 0.0002000713    1.513    0.339
        76  -9.5154    163.6622    217.3328   9.4493084521e+01   5.7585020629e+00    0.1320475    0.1012372  66.37 -0.0001708788    1.742    0.426
        77  -9.5040    168.2912    233.1933   9.6002269056e+01   2.3553607863e+00    0.2075332    0.1765468  51.73 0.0005919767    1.310    0.237
        78 -10.5641     74.3074     12.9844   6.2898413832e+01   6.3144552297e+01    0.3818186    0.1896237  56.84  0.001767805    2.410    0.585
