#   1 NUMBER                 Running object number                                     
#   2 MAG_AUTO               Kron-like elliptical aperture magnitude                    [mag]
#   3 X_IMAGE                Object position along x                                    [pixel]
#   4 Y_IMAGE                Object position along y                                    [pixel]
#   5 X_WORLD                Barycenter position along world x axis                     [deg]
#   6 Y_WORLD                Barycenter position along world y axis                     [deg]
#   7 A_WORLD                Profile RMS along major axis (world units)                 [deg]
#   8 B_WORLD                Profile RMS along minor axis (world units)                 [deg]
#   9 THETA_WORLD            Position angle (CCW/world-x)                               [deg]
#  10 FWHM_WORLD             FWHM assuming a gaussian core                              [deg]
#  11 ELONGATION             A_IMAGE/B_IMAGE                                           
#  12 ELLIPTICITY            1 - B_IMAGE/A_IMAGE                                       
         1 -10.3056    227.6794      4.5738   3.1599948876e+01   2.8360948658e+01     1.630038    0.4154037  71.71  0.006600133    3.425    0.708
         2 -14.1580    198.1358     80.4644   5.2938854537e+01   2.4786855564e+01     5.891608     2.654413 -22.97    0.0184781    4.065    0.754
         3 -14.0505    244.2400     15.1640   3.2606513148e+01   2.3734023785e+01     1.304201    0.7300754 -15.99  0.005923124    3.201    0.688
         4 -13.7537    234.3451     30.0514   3.6504000724e+01   2.4022926997e+01     1.406467    0.7716014 -24.24  0.002734782    2.368    0.578
         5 -14.9221    249.3773     40.2336   3.7334353564e+01   1.9611849306e+01     8.006449     1.607129 -30.43   0.01732166   11.320    0.912
         6 -15.1442    245.5733     56.4932   4.1123743408e+01   1.8159187226e+01     1.608835     1.197895 -88.45  0.009832797    1.373    0.272
         7 -14.5043    218.2386     29.8573   3.7967618515e+01   2.7558571235e+01     7.303311     4.037328 -19.65    0.0342987    2.620    0.618
         8 -15.6356    220.3084     82.0649   4.9964704308e+01   1.9565768279e+01     9.394544     5.351664 -73.74   0.03383004    2.773    0.639
         9 -10.9492    164.5677     33.9453   4.5715930297e+01   3.9774613930e+01    0.8429525     0.474512 -23.76  0.002663839    2.105    0.525
        10 -11.1033    145.2112     29.8745   4.7718258670e+01   4.5015265274e+01    0.3452823     0.289144 -14.24  0.001334853    1.375    0.273
        11 -10.0659    115.9697     12.5159   4.7453138507e+01   5.3835843889e+01    0.2989957    0.2364016  62.76  0.001252597    1.156    0.135
        12 -11.5017    120.4459      9.0984   4.5366550337e+01   5.3096076031e+01    0.4277669    0.3864684  66.85   0.00162632    1.077    0.071
        13 -10.7478    135.7099     10.0420   4.3015439683e+01   4.9380327126e+01    0.4597727    0.2111098  69.54  0.001667355    2.012    0.503
        14 -10.4432    136.6402      5.1004   4.1276754618e+01   4.9585629390e+01     0.505821    0.2538995  -9.00  0.002309023    2.779    0.640
        15  -9.8787    128.2894     10.4950   4.4421123795e+01   5.1116511879e+01    0.2160937    0.1815799 -21.50 0.0006922869    1.352    0.261
        16 -10.6414    205.8401      4.2658   3.3210268059e+01   3.3212647121e+01    0.2954656    0.1958542  -8.78  0.001245417    2.308    0.567
        17  -9.3109    158.6319      3.6033   3.7809336501e+01   4.4408388381e+01    0.2586093    0.2026862  24.38 0.0008253391    1.599    0.375
        18  -9.0168    211.1699      1.4577   3.2145928815e+01   3.2290397789e+01    0.1663143     0.102921  80.71 0.0009552405    1.419    0.295
        19  -9.8956    220.4860    184.4633   7.2653646506e+01   1.5491677199e+00    0.2335757    0.1895266  26.01 0.0005314964    1.234    0.190
        20 -10.7340    216.9601    181.9896   7.2818138477e+01   2.5583397682e+00    0.2787442    0.2593986  16.54  0.001042759    1.168    0.144
        21 -12.0922    227.4225    174.8138   6.9461284279e+01   2.0292064526e+00    0.8734061    0.5606453  15.74  0.004361504    1.891    0.471
        22 -11.1935    235.7607    174.3688   6.7906979012e+01   7.3776395249e-01    0.6845906    0.4682741  74.63  0.002918185    3.701    0.730
        23 -10.5098    230.7069    167.1396   6.7315350961e+01   2.7800024242e+00    0.3503495    0.2713729 -39.64  0.001448038    1.260    0.206
        24  -8.5303     46.8380    176.8408   1.1136914767e+02   3.2370913684e+01    0.1763814    0.1335433  72.71 0.0002878163    1.238    0.192
        25  -9.1269    201.2323    173.5285   7.4128324094e+01   6.8195281134e+00    0.2583147    0.1366005  45.43  0.001129608    2.030    0.507
        26 -12.9860      6.0338    166.1390   1.2025238173e+02   3.8936670304e+01    0.9089978    0.6108373 -80.16  0.004286675    1.202    0.168
        27  -8.8875    249.3357    169.3132   6.4624582089e+01  -5.8844863583e-01    0.1334575   0.09011947  -4.41 0.0007045974    1.688    0.407
        28  -9.8258    214.1603    168.9672   7.0691142835e+01   5.3259224098e+00    0.4026532    0.2357664  47.05  0.001198707    1.927    0.481
        29 -10.7767    242.8331    165.6531   6.4950106965e+01   1.0295961969e+00    0.3466716    0.2120408 -38.49  0.001592457    1.462    0.316
        30 -10.3742     24.7778    165.3523   1.1559441501e+02   3.7504008213e+01    0.2302808    0.1667394 -75.83  0.001371192    1.176    0.149
        31  -8.3319    204.5077    243.4399   8.6179216758e+01  -5.1875172687e+00    0.1226431   0.09810132  13.64 5.927736e-05    1.007    0.007
        32  -8.9555    136.1819    242.3841   9.9510295154e+01   5.3417704772e+00    0.1991947   0.09735981  45.33 0.0009599306    1.830    0.453
        33 -10.5588    133.7224    145.3356   8.3188921966e+01   2.5993629793e+01     1.235786    0.3388634 -54.61  0.003007481    5.175    0.807
        34 -10.5263    191.6676    152.8466   7.1626890056e+01   1.2581838437e+01    0.4325499     0.376248 -52.58  0.002331722    1.228    0.186
        35 -14.2774    174.6207     79.9457   5.6938440083e+01   3.0402795844e+01     2.943532      1.53262  56.83  0.001192712    1.949    0.487
        36  -8.0961    217.3297    147.7085   6.5567218200e+01   8.5869935341e+00    0.1353589    0.1118067 -74.03 0.0007019668    1.625    0.385
        37  -8.8041    222.6943    145.5331   6.4139305909e+01   7.9771899580e+00    0.1672211    0.1394006  60.47 0.0009217051    1.477    0.323
        38  -9.1811    192.1234    144.0707   6.9561717722e+01   1.4216021846e+01    0.2553013    0.2160988  56.71 0.0004404934    1.327    0.246
        39  -9.6693    196.5073    143.0572   6.8456449833e+01   1.3526363562e+01    0.2610002    0.2109959  67.00 0.0007716565    1.533    0.348
        40 -10.5435    179.5449    144.0741   7.2171807858e+01   1.6797488464e+01     0.385743     0.252774 -56.54   0.00154674    1.769    0.435
        41  -9.5103    159.5107    142.9250   7.6365080836e+01   2.1221817467e+01    0.3480215    0.2883253  68.45  0.001453085    1.414    0.293
        42 -10.3690    146.2755    142.1880   7.9343317916e+01   2.4145011901e+01    0.4698653    0.2709605 -70.50  0.001558325    3.234    0.691
        43  -9.1452    201.4425    140.2285   6.6851566575e+01   1.3077128259e+01    0.2109388     0.132183 -49.14 0.0006212371    1.635    0.389
        44 -10.1696    155.3707    137.7247   7.6112799624e+01   2.3223038985e+01    0.3360225    0.2616642 -86.94   0.00151683    1.741    0.426
        45  -9.8262    211.1279    136.3047   6.4149229811e+01   1.1882678185e+01    0.2936977    0.2050426 -30.27  0.001064053    1.390    0.281
        46  -9.9818    206.9762    133.9639   6.4376141894e+01   1.3150636043e+01    0.2745911      0.20638  64.37 0.0005415891    1.650    0.394
        47 -12.1677     52.1613    146.6662   1.0587922890e+02   3.9176521346e+01    0.7975883    0.5005897 -81.59  0.001913037    1.659    0.397
        48 -10.5636    140.4918    132.4100   7.8458524043e+01   2.7547869528e+01    0.4066256    0.2968333 -70.46 0.0006817239    1.726    0.420
        49 -10.6702    135.9786    128.0076   7.8526401826e+01   2.9490633232e+01     0.631583    0.2706195 -51.19  0.002174228    2.447    0.591
        50  -8.8254    203.7946    226.1283   8.3488190841e+01  -2.5431440949e+00    0.1769117    0.1715015  33.30  0.001203343    1.386    0.279
        51 -10.0261    158.4330    131.4832   7.3894899939e+01   2.3920043113e+01    0.2897045    0.2599534  68.53  0.000809082    1.218    0.179
        52 -10.6905    160.6713    128.4323   7.2630517085e+01   2.4088045406e+01    0.4381263    0.3236881 -49.84  0.001429177    1.356    0.263
        53  -8.6672    228.9724    221.1348   7.7939343371e+01  -5.4946184496e+00    0.1810486    0.1424191  55.75  0.001073257    2.083    0.520
        54  -8.7202     94.1609    128.0575   9.0053132264e+01   3.7616669469e+01    0.2242522    0.2004978 -27.87 0.0004711774    1.199    0.166
        55 -10.1877    171.6191    125.8159   6.9535049260e+01   2.2244539174e+01    0.3386254    0.3222931  21.21  0.001811481    1.093    0.085
        56  -9.7941    142.8167    122.9916   7.5546159509e+01   2.9151076159e+01    0.4242687    0.3102332  87.18  0.001618272    2.018    0.504
        57 -14.3788    226.7555     70.5469   4.6405482630e+01   2.0004519827e+01     1.792387       1.1374 -63.80  0.006821119    1.675    0.403
        58 -13.1538    241.9314     64.9552   4.3344094508e+01   1.7674256384e+01     0.790873    0.3595088 -46.97  0.003706402    1.885    0.469
        59 -11.2841    135.0278    110.7284   7.4329654439e+01   3.3532552176e+01    0.8144754    0.3595838 -40.10  0.002872737    2.332    0.571
        60 -11.4466    134.9266    100.8724   7.1662892736e+01   3.5659685874e+01    0.7441644    0.3685138 -47.15  0.002109361    2.040    0.510
        61 -10.3954    164.3927    117.0957   6.8943109851e+01   2.5646835082e+01    0.4665245    0.2319721 -44.03  0.001788374    1.957    0.489
        62 -10.2647    168.7157    115.8608   6.7673954856e+01   2.4930989485e+01    0.3656023     0.316341 -32.30  0.001855266    1.160    0.138
        63  -8.0380    222.2909    117.6564   5.7965670865e+01   1.3047761648e+01    0.1447917    0.1040763 -63.53 0.0005249449    1.655    0.396
        64 -13.0722    234.8684     51.7236   4.1196359066e+01   2.1045183753e+01     0.761703    0.2038465 -41.81  0.001286307    2.945    0.660
        65 -10.2869    223.3517    219.5178   7.8676171123e+01  -4.4526828079e+00    0.2245551    0.1885809  -0.89 0.0002313628    1.058    0.055
        66  -9.0716    156.9501    113.7932   6.9783543412e+01   2.8003617295e+01     0.261424    0.1889854  81.68  0.001097086    1.975    0.494
        67 -12.7709    123.1580    103.1192   7.5401397168e+01   3.7750188291e+01     1.308032    0.8948951 -67.60  0.005504108    1.943    0.485
        68 -12.5663    119.2806     92.6438   7.3484193429e+01   4.0806981852e+01     1.009233    0.8125817  -2.41  0.004838694    1.521    0.343
        69  -9.4916    141.9296    106.5385   7.1454799680e+01   3.2903432383e+01    0.2593529    0.2201897 -72.03 0.0008660764    1.331    0.249
        70  -8.4171     79.0527    106.9991   8.9625324675e+01   4.5223422489e+01    0.1687418    0.1648043   6.84 0.0003123521    1.078    0.072
        71  -9.7462    148.8330    103.7780   6.9024913112e+01   3.1919184419e+01    0.3404164    0.2821854  -9.27 0.0006939317    1.443    0.307
        72  -8.9323    211.4696    102.9384   5.6293639440e+01   1.7913274549e+01    0.4663297    0.2155627 -28.78  0.001724257    2.656    0.624
        73 -10.2750    120.8742    112.1187   7.8469131894e+01   3.6243805840e+01    0.3772886    0.2654514 -65.52  0.001637288    1.720    0.419
        74  -9.1664    206.6190    102.8741   5.7088555991e+01   1.8972731371e+01    0.2553974    0.1975943 -57.86 0.0004626618    1.315    0.240
        75 -10.7648    159.3202     99.5804   6.5464343764e+01   3.0353671086e+01     0.576247    0.4470708  17.43  0.001418756    1.659    0.397
        76 -11.4548     18.4848    153.5176   1.1597031057e+02   4.0946887264e+01    0.4153983    0.2281639 -82.72  0.002140767    1.622    0.384
        77 -11.7606    173.4829     93.7012   6.0875668373e+01   2.8180761384e+01     1.047809    0.7492626  33.96  0.004827968    1.663    0.399
        78  -8.8451    191.6671    219.9935   8.4810999069e+01   3.0732397217e-01    0.1750238    0.1547167  -3.58 0.0004236574    1.086    0.079
        79 -10.2655    142.4753     94.5823   6.8005218375e+01   3.5242066480e+01    0.3584635      0.32176  87.98 0.0006411424    1.231    0.188
        80 -11.4167    157.5538     90.7772   6.3434717704e+01   3.2477503843e+01    0.3651654    0.2734156 -34.92  0.001731673    1.359    0.264
        81  -9.1595    158.8164    157.3802   7.9778564807e+01   1.8242408307e+01    0.4373736    0.2493192 -67.28  0.001517323    3.097    0.677
        82  -8.6511    154.3030    152.0945   7.9668125277e+01   2.0302658680e+01    0.2089439    0.1951795 -52.15 0.0003696803    1.087    0.080
        83  -9.6873    162.3116    112.1483   6.8134326544e+01   2.7133903288e+01    0.2761475    0.2120909  36.43  0.001296987    1.405    0.288
        84 -10.0536     96.7166     88.1244   7.8782658206e+01   4.6357890927e+01    0.2399628    0.2193305  23.11 0.0002861069    1.113    0.101
        85  -8.4959    109.4445    110.5718   8.1277611227e+01   3.8911738429e+01    0.1530849    0.1475616 -25.69 6.454335e-05    1.038    0.037
        86  -9.2397    193.0761    215.5992   8.3772595636e+01   8.0456416654e-01    0.1958898    0.1742894 -32.02 0.0003956623    1.250    0.200
        87 -10.6273    126.8967     76.6599   6.6620500323e+01   4.2279590393e+01    0.3234709    0.2967493  84.73  0.001355011    1.206    0.171
        88 -12.6425     45.1388    148.7935   1.0816994127e+02   3.9469069906e+01    0.8652964    0.6652535 -84.55  0.002656624    1.212    0.175
        89  -9.7530    125.1499     69.6519   6.4877041024e+01   4.3952069925e+01    0.2587137    0.2032694 -49.53 0.0006943993    1.352    0.260
        90 -11.4997    144.3921     66.5667   5.9297846353e+01   3.9970359037e+01     0.661589    0.2338571 -38.93  0.001683415    2.800    0.643
        91 -10.8824    144.3774     59.3937   5.7103011608e+01   4.1143402912e+01    0.3677986    0.3126406 -71.62 0.0007822827    1.301    0.231
        92 -10.7131    140.0049     57.8388   5.7575120220e+01   4.2441015630e+01    0.3464229     0.286206 -63.14  0.001810509    1.347    0.257
        93 -12.0401    134.7619     60.9242   5.9740773767e+01   4.3198332359e+01    0.6865817    0.4300355 -19.18  0.002969415    2.044    0.511
        94 -10.0688    125.6700     61.2856   6.2056629273e+01   4.5267900029e+01    0.3224625    0.1926198 -40.39 0.0008893112    1.718    0.418
        95  -8.1935     72.5829     58.4784   7.7211885195e+01   5.6609086716e+01    0.1372779    0.1246843 -11.97 0.0001506214    1.031    0.030
        96 -10.0762    204.6131    153.4985   6.9206525820e+01   9.9312470187e+00    0.4666699    0.3214681 -66.32  0.002091973    2.190    0.543
        97 -10.3099    206.0682     48.3258   4.3729680151e+01   2.7903895972e+01     0.640917    0.3557613 -88.77  0.002816617    2.314    0.568
        98  -9.2165    238.7671    212.5788   7.4675866881e+01  -5.6410294873e+00    0.1631869    0.1107982  41.80 0.0009530411    1.778    0.438
        99  -9.7434    103.2408     44.5461   6.2256598824e+01   5.2915415389e+01    0.2547957    0.1879586 -30.23 0.0005330612    1.403    0.287
       100  -9.7392      6.1462     43.9819   1.0070756962e+02   6.7120621740e+01    0.2881287    0.1111078  42.53  0.001101664    5.264    0.810
       101 -12.2357     66.8260    142.3114   1.0095545480e+02   3.8360425527e+01     1.504816     1.073259  50.27  0.005909006    1.486    0.327
       102  -8.5398    247.4843    211.4771   7.2973508397e+01  -6.6857852016e+00    0.1236805    0.0968162  -5.84  4.03286e-05    1.018    0.017
       103 -10.8022    123.0228     38.7833   5.5165375198e+01   4.9239005377e+01    0.3196802    0.2055646 -42.49  0.001566557    1.699    0.411
       104 -10.3768    109.7956     39.3062   5.8587624162e+01   5.2207705012e+01    0.3384846    0.2201321   4.18  0.001548325    2.132    0.531
       105  -9.0976    205.0044     37.4496   4.1190756181e+01   2.9613331406e+01    0.2576309    0.1514776 -50.46 0.0006886198    1.594    0.373
       106  -9.7761    158.1633     36.0167   4.7356251411e+01   4.1089789613e+01    0.2400543    0.1847059  66.45 0.0003091762    1.206    0.171
       107  -9.1808    171.5358     33.8770   4.4641131329e+01   3.8075018183e+01    0.3498479    0.1803791 -38.00  0.001126497    1.941    0.485
       108  -9.2573    171.1754     28.0520   4.3064969430e+01   3.8865522740e+01    0.2882163     0.187047 -29.81  0.001107967    1.683    0.406
       109 -11.3335    125.0482     31.0370   5.2055772766e+01   4.9738082784e+01    0.4139334     0.296323  50.19  0.002215767    1.271    0.213
       110  -8.8116    193.6731    211.0240   8.2847691970e+01   1.4717250853e+00     0.181972    0.1570544  -8.60 0.0004152907    1.093    0.085
       111  -9.6643    188.0537     28.7173   4.1023368982e+01   3.4701405281e+01    0.2703715    0.1844642 -31.97  0.001247147    1.574    0.365
       112  -9.6913     92.2875     25.7126   5.8200694125e+01   5.7748749451e+01     0.275635    0.2059604 -22.46 0.0007964079    1.406    0.289
       113 -10.0727    179.3477     24.1276   4.0901034513e+01   3.7332108381e+01    0.4389184    0.3523226 -87.93  0.002599517    1.149    0.129
       114  -9.6973    159.8130     28.0902   4.4750926850e+01   4.1644317305e+01    0.2300044    0.2117905 -89.15 0.0008388413    1.042    0.041
       115  -9.9027    160.5948    205.3316   8.8725211203e+01   8.0860431295e+00    0.2372557    0.2178544  21.14 0.0003606377    1.009    0.009
       116  -8.3237    173.0620    205.5322   8.6098997706e+01   5.8942060256e+00    0.1928252    0.1126394  57.20 0.0008087311    2.530    0.605
       117  -8.4222    206.8443     12.5771   3.5049158181e+01   3.2127163355e+01    0.1684086    0.1028125 -86.44 0.0004418957    1.546    0.353
       118 -10.5808    192.9213    194.7749   8.0009247302e+01   4.4209517327e+00    0.9674494    0.5107376 -63.97  0.002770034    6.451    0.845
       119  -8.9085     44.9480    192.5265   1.1352975172e+02   2.8888551475e+01    0.1939046    0.1555383 -70.96 0.0003588248    1.228    0.186
       120  -8.7745    182.8898    190.7769   8.1310132640e+01   6.9109067808e+00    0.2054271    0.1734135   5.08 0.0004849599    1.175    0.149
       121  -8.8075    235.8326    187.7868   7.0545285529e+01  -1.4451349497e+00    0.1592603    0.1491854 -28.61 0.0004163541    1.303    0.233
       122 -10.9625    210.6489    186.9882   7.5003847553e+01   2.7616634394e+00    0.6874127    0.3734875  37.47  0.003279943    1.853    0.460
       123  -9.2816     79.4825     12.8745   5.6618993539e+01   6.1788677240e+01    0.1825768    0.1206571 -18.84  0.001033407    1.593    0.372
       124 -12.0998     37.9055    152.4574   1.1066518142e+02   3.9349757341e+01    0.4890008    0.4100713  10.02  0.001288965    1.522    0.343
