#   1 NUMBER                 Running object number                                     
#   2 MAG_AUTO               Kron-like elliptical aperture magnitude                    [mag]
#   3 X_IMAGE                Object position along x                                    [pixel]
#   4 Y_IMAGE                Object position along y                                    [pixel]
#   5 X_WORLD                Barycenter position along world x axis                     [deg]
#   6 Y_WORLD                Barycenter position along world y axis                     [deg]
#   7 A_WORLD                Profile RMS along major axis (world units)                 [deg]
#   8 B_WORLD                Profile RMS along minor axis (world units)                 [deg]
#   9 THETA_WORLD            Position angle (CCW/world-x)                               [deg]
#  10 FWHM_WORLD             FWHM assuming a gaussian core                              [deg]
#  11 ELONGATION             A_IMAGE/B_IMAGE                                           
#  12 ELLIPTICITY            1 - B_IMAGE/A_IMAGE                                       
         1 -12.1304     76.5464     24.5761   9.1571597345e+01   6.0311565492e+01    0.4163535    0.2932605 -39.36   0.00109408    1.676    0.403
         2 -10.6769    114.1361     25.1925   8.1373919302e+01   5.2927592798e+01    0.2677703    0.2182399  42.30 0.0009419249    1.087    0.080
         3  -9.4164     88.5671      7.2313   8.1272404046e+01   5.9938191466e+01    0.2031021    0.1162904 -11.32 0.0004457503    1.925    0.480
         4 -11.4747     90.2530     16.0268   8.4195493478e+01   5.8770654127e+01    0.3455151    0.2254566 -17.46 0.0004487926    1.598    0.374
         5 -10.7494     87.1704     12.1119   8.3547003931e+01   5.9748646397e+01    0.2627989    0.1973709  18.48  0.001253817    1.216    0.178
         6 -11.0332     13.2658     20.6338   1.1448670283e+02   6.8851248015e+01    0.3024262    0.2406474 -12.56  0.001458551    1.145    0.126
         7 -11.1031     41.3360     18.5048   1.0169032103e+02   6.6286684305e+01    0.3800187    0.2642375  -5.41  0.002568983    1.242    0.195
         8 -10.5100    100.4581     18.9391   8.2552472779e+01   5.6459342868e+01    0.3285966    0.2086437 -50.99  0.001690982    2.303    0.566
         9 -10.3360     38.9254      2.1762   9.5509425930e+01   6.8484085526e+01    0.2528355    0.1454901 -10.83   0.00160195    1.623    0.384
        10 -10.3689     46.4752      4.7901   9.3757117877e+01   6.7194742909e+01    0.3549493    0.1289696  37.50  0.001260143    2.501    0.600
        11 -11.6805     30.1855      7.1737   1.0139271366e+02   6.9002923401e+01    0.2816671    0.2290579   0.23  0.001352377    1.196    0.164
        12 -11.6393     34.8726     13.1557   1.0204954043e+02   6.7740322214e+01    0.3502359    0.2369753 -34.45  0.001518706    1.550    0.355
        13 -11.5817     39.7685      9.8712   9.8626904503e+01   6.7534611665e+01    0.3870367    0.2069179 -20.68  0.001124919    1.732    0.423
        14 -10.7872    144.0129     14.4729   7.1693650114e+01   4.7273348634e+01    0.2134936    0.1962438 -19.06  0.001371085    1.245    0.197
        15 -10.0292     69.0676     11.8209   8.8869121125e+01   6.3004996291e+01    0.2032231     0.155157 -29.01 0.0008972551    1.473    0.321
        16  -9.9635    119.1158     11.8876   7.5673502136e+01   5.3206359204e+01    0.1815496    0.1656618  70.56 0.0003433269    1.194    0.162
        17 -11.9126    150.7464      7.9590   6.8611710986e+01   4.6294289009e+01    0.4305542    0.2979892  33.79  0.002416675    1.606    0.377
        18 -10.9028     93.0716      9.1575   8.0821615392e+01   5.8890084095e+01    0.2340999    0.1714786  29.98 0.0004556916    1.191    0.161
        19  -9.6374     92.7704      4.8015   7.9239690228e+01   5.9332977214e+01    0.2452243    0.1262818 -34.26  0.001291294    2.257    0.557
        20 -11.9770     55.7362      6.6935   9.1206422944e+01   6.5651646707e+01    0.4589175    0.3889894 -12.75  0.001833212    1.289    0.224
        21 -10.0671     60.9987      3.0267   8.7806284282e+01   6.5184761760e+01    0.2175682    0.1493227  44.52  0.000664618    1.479    0.324
        22 -11.0332     22.2023      9.3012   1.0581904706e+02   6.9601009243e+01    0.2875857    0.1702366  -1.28  0.001205496    1.613    0.380
        23 -10.5083     10.0453      1.4619   1.0794283227e+02   7.1711854769e+01     0.140646    0.1044661  12.04 0.0005185039    1.349    0.259
        24 -11.2362     10.4210      6.7855   1.1013912324e+02   7.1007573142e+01    0.4815432    0.3364498  38.13  0.003447983    2.261    0.558
        25 -11.7723      4.0540      8.7458   1.1401822949e+02   7.1242848378e+01    0.2898387    0.2585309 -42.65  0.001375661    1.734    0.423
        26 -10.3524      2.0219      2.9782   1.1254908258e+02   7.2162455744e+01    0.1649526   0.09842365 -14.38  0.001203155    1.343    0.256
        27 -10.8653    210.1549      7.6918   6.1019119970e+01   3.2053976371e+01    0.2174075    0.1542306 -54.16   0.00125003    1.370    0.270
        28 -11.2064     70.4526      6.7505   8.6330512014e+01   6.3271447636e+01    0.3773084    0.3151378  32.68  0.002676566    1.184    0.155
        29 -10.8872     65.5067      6.5055   8.7807200808e+01   6.4124525099e+01    0.3239363    0.1861333  19.54  0.001860455    1.739    0.425
        30 -10.8087    145.0595      5.6333   6.8831389941e+01   4.7843794761e+01    0.2326059    0.1869818   5.81 0.0001135355    1.495    0.331
        31 -10.4750    120.6837      4.2793   7.2776052390e+01   5.3526151982e+01    0.2529243    0.1659952  52.30 0.0003932475    1.267    0.211
        32  -9.6086    235.6580      4.6727   5.8040890198e+01   2.6515410899e+01    0.1165385   0.08782677  49.69 0.0007051235    1.739    0.425
        33 -11.8357    129.3938      3.3679   7.0821628626e+01   5.1651449549e+01    0.4945876    0.2463127  74.33  0.002284878    2.269    0.559
        34  -9.9253    244.0000      2.9782   5.7035826294e+01   2.4860796925e+01    0.1819586    0.0637676 -33.70 0.0008061011    2.968    0.663
        35 -10.4286    176.3481      2.3704   6.3484131518e+01   4.0666029003e+01    0.2341442    0.1621756   4.12  0.001281915    2.124    0.529
        36 -10.2449    160.7996      3.0265   6.5700266585e+01   4.4338104317e+01    0.2079864    0.1316114  30.04  0.001086729    2.006    0.501
        37 -11.6529     80.2494      1.8298   8.1412003997e+01   6.1967578657e+01    0.3485031    0.1533055  48.09  0.001493053    1.896    0.473
        38 -10.0607     16.1582      2.9941   1.0575041687e+02   7.0968664907e+01    0.1667546    0.1422585 -51.48  0.001248072    2.244    0.554
        39 -10.5719     20.1929      1.9694   1.0342277096e+02   7.0690599492e+01    0.2557363    0.1456099  18.35 0.0009979352    1.610    0.379
        40 -11.3411    195.5840      3.7659   6.1617839204e+01   3.5917358836e+01    0.4878463    0.2257886  75.77  0.002311579    1.915    0.478
        41  -9.4179    112.9679      2.5273   7.3745331717e+01   5.5350790784e+01    0.1875675    0.1049177  57.42 0.0006881122    1.520    0.342
        42  -9.1890    204.2857      1.3180   6.0143151164e+01   3.4092327777e+01    0.1192113   0.08848994  48.01  0.000200968    1.589    0.371
        43  -8.9681     28.6492      1.2761   9.9355880718e+01   6.9845362887e+01   0.08850057    0.0818354   9.20 0.0007005756    1.639    0.390
        44  -9.1949    132.2646    114.3126   1.0401601668e+02   3.3650117118e+01    0.1505054    0.1232869 -10.24 0.0002903063    1.540    0.351
        45 -11.7295     17.1204    249.2457   1.4918815087e+02   2.1328817277e+01    0.3100286    0.1534294  32.94  0.001787211    2.876    0.652
        46 -12.1497      5.0669    240.5189   1.5059500001e+02   2.4240562867e+01    0.4140198    0.2065969  56.93  0.002768078    1.575    0.365
        47 -10.8889      1.8212    248.7303   1.5151192157e+02   2.3043869731e+01    0.3412136     0.149392 -83.86  0.002159392    1.837    0.456
        48 -12.8253      8.7151    245.9185   1.5031441838e+02   2.2851615740e+01    0.4911271    0.3634289  45.93   0.00382512    1.623    0.384
        49 -10.3557      3.7791    113.8488   1.4002453580e+02   5.1437045740e+01     0.274468    0.1279119  -7.41  0.001241754    4.239    0.764
        50 -10.1312    249.0078    111.9941   7.9922086801e+01   7.6180974253e+00    0.1734132     0.155452 -50.11  0.001010287    1.009    0.009
        51  -9.3090     65.6715    110.3368   1.2161000958e+02   4.6317988477e+01    0.1384832    0.1040953  82.71 0.0007051923    1.729    0.422
        52 -11.6305      4.8887    108.7023   1.3899737338e+02   5.2502726052e+01    0.3150114    0.2170888  15.85  0.002096641    1.914    0.478
        53 -10.7128     58.4787    107.5189   1.2311894085e+02   4.7887819427e+01    0.2908472    0.1718012 -28.88 0.0009990437    2.242    0.554
        54  -9.4316     34.4647    107.4909   1.3027117205e+02   5.0504650221e+01    0.1273633    0.1051996 -60.49 1.475358e-05    1.019    0.019
        55  -9.4970     20.6681    107.3210   1.3428730484e+02   5.1719353818e+01    0.1196869   0.08529931  78.14 0.0007049326    1.697    0.411
        56  -9.6306     93.6590    104.6665   1.1203759187e+02   4.3302538614e+01    0.1509869    0.1120559 -15.40 0.0007051205    1.753    0.430
        57  -9.7077    113.4883    102.5140   1.0587955762e+02   4.0094334796e+01    0.1489222    0.1441154 -37.59 0.0001021955    1.014    0.014
        58  -9.8109     66.6405    101.8288   1.1934888084e+02   4.8102787195e+01    0.1982869    0.1199681 -62.56 0.0009454301    1.697    0.411
        59 -10.6214     57.9827    101.7014   1.2195695913e+02   4.9255227338e+01    0.1820176    0.1762259 -39.75 0.0008820382    1.111    0.100
        60  -9.7456      4.7099    102.3358   1.3809986589e+02   5.3905066250e+01    0.1125563   0.07849903  82.79 0.0003969648    1.636    0.389
        61 -12.1328     18.0285     94.8565   1.3285532706e+02   5.4655279738e+01    0.5688871    0.3008338 -43.77  0.002541377    1.684    0.406
        62 -11.7129     11.3312     88.1278   1.3368522311e+02   5.6552504114e+01    0.5409856    0.2108302 -62.99  0.002006685    2.003    0.501
        63 -10.3013     17.3279     88.3807   1.3183115989e+02   5.6094979534e+01    0.3794271    0.1978112 -21.96  0.001874452    2.621    0.618
        64  -9.2881    129.5025     97.5043   1.0022939645e+02   3.7830971060e+01    0.1504769    0.1489445 -38.26 0.0008106668    1.007    0.007
        65 -10.5147     38.4195     96.6432   1.2687831558e+02   5.2537564333e+01    0.3263649    0.2101444  89.64  0.001273046    2.332    0.571
        66  -9.0428     38.4669     92.4545   1.2594767756e+02   5.3444889766e+01    0.1975026   0.09479108 -49.88  2.72268e-05    1.696    0.410
        67 -10.5376     78.9184     94.9618   1.1388108929e+02   4.7827331468e+01    0.2078962    0.1877267 -36.26 0.0003209193    1.029    0.028
        68 -10.2440      3.0090     95.1869   1.3747378853e+02   5.5545919842e+01    0.1679249     0.135859 -87.09 0.0007915255    1.310    0.236
        69 -10.6854     84.1025     93.8244   1.1200626211e+02   4.7253493223e+01    0.2651714    0.2292814  -6.68  0.001494357    1.258    0.205
        70 -11.1046     27.3428     90.8122   1.2913490036e+02   5.4804165014e+01    0.4687058    0.3155775  54.70  0.002491958    2.032    0.508
        71 -10.1296     25.6494     85.2808   1.2850145572e+02   5.6121166307e+01    0.2413273    0.1766121 -66.96 0.0009631464    1.319    0.242
        72 -10.4134     57.9521     91.7297   1.1957525395e+02   5.1440826703e+01    0.2717587    0.1843189 -19.29  0.001408103    1.821    0.451
        73 -10.5994     76.4314     89.2217   1.1310962597e+02   4.9426660645e+01     0.240003    0.2252878 -26.50 0.0003950905    1.043    0.041
        74 -10.4900      1.8278     89.7545   1.3693546933e+02   5.6766599851e+01    0.2061369    0.1246592 -64.80 0.0002402362    1.277    0.217
        75 -10.1925     98.5135     89.4816   1.0651769600e+02   4.5687271208e+01    0.1445188    0.1349635 -22.14 0.0004737193    1.040    0.038
        76  -9.7419     44.2404     89.5483   1.2343104783e+02   5.3484221640e+01    0.2165965    0.1194654  35.22  0.001120336    2.091    0.522
        77  -9.5435    123.8416     86.8351   9.8688577790e+01   4.1199151064e+01    0.2040528    0.1810553 -85.29 0.0005709806    1.307    0.235
        78 -10.8005     54.5722     84.8096   1.1890169523e+02   5.3321287866e+01    0.3539216    0.1925812 -48.27  0.001274166    1.576    0.366
        79 -10.6371      3.7675     82.9886   1.3513631553e+02   5.8080607349e+01    0.2394392    0.1422981 -53.60  0.001004151    1.257    0.205
        80 -11.8009     63.6807     80.5659   1.1478689505e+02   5.3037021858e+01    0.4608596    0.3745671 -48.60  0.002757293    1.162    0.139
        81  -9.9715     65.9409     75.2369   1.1252941887e+02   5.3795482967e+01    0.1988064    0.1721102 -29.23  0.001220448    1.022    0.021
        82  -9.7436    250.3713     80.8010   7.2827065869e+01   1.2641526435e+01    0.1886104     0.122948 -32.31 0.0006886999    1.627    0.385
        83 -10.1182     89.2988     80.3778   1.0663120566e+02   4.9153007242e+01    0.2724105     0.181911 -53.76 0.0007464894    1.611    0.379
        84  -8.8390    124.4551     79.4198   9.6346852786e+01   4.2493742380e+01    0.1454818    0.1414201  88.16 0.0002168304    1.099    0.090
        85  -9.9671     23.9849     79.0410   1.2766441570e+02   5.7556728487e+01    0.2017628    0.1138092 -34.90   0.00112861    1.711    0.415
        86 -11.1861     15.4638     75.9847   1.2986214462e+02   5.8809652535e+01    0.2214307    0.1652057 -38.45 0.0009639448    1.169    0.145
        87  -9.9335    176.6961     77.0982   8.3723187038e+01   3.0630449239e+01    0.3042454    0.2210215  50.78  0.001450082    1.370    0.270
        88 -11.1831     55.6129     75.5740   1.1606392127e+02   5.5082453483e+01    0.2959295    0.2583174  -5.47 0.0008102997    1.166    0.142
        89  -9.5677     74.9470     75.5305   1.0968549354e+02   5.2428180472e+01    0.1793106    0.1318859  31.43 1.805802e-05    1.441    0.306
        90 -12.1686     33.4067     72.9371   1.2295788286e+02   5.7997312912e+01    0.4441918     0.287312  18.49 0.0001478521    1.792    0.442
        91  -9.7023    136.6591     74.1179   9.1666624132e+01   4.0754798506e+01     0.205375    0.1874732 -23.85 0.0006027042    1.136    0.120
        92  -9.7655    224.0275     74.2794   7.4959435857e+01   1.9619525840e+01    0.1941761    0.1696231  86.46 0.0003021581    1.107    0.097
        93 -11.2240      3.7099     73.7423   1.3337192699e+02   5.9982061136e+01    0.2926583    0.2001617  11.77 0.0009450038    1.807    0.446
        94  -9.3975     95.9584     73.2143   1.0245601769e+02   4.9351141471e+01    0.2610743    0.1772469  69.90 0.0008013143    2.474    0.596
        95 -10.0067     81.2137     72.5701   1.0679409586e+02   5.2014532880e+01    0.2643672    0.1768209 -60.67  0.001020569    1.949    0.487
        96  -8.9425    216.7124     72.3034   7.5571533664e+01   2.1670626406e+01    0.1488132    0.1032318 -69.76 0.0003434036    1.564    0.361
        97 -10.3072    105.8653     71.5586   9.9046984178e+01   4.7780465649e+01    0.2341441    0.1939304 -32.28 0.0004759865    1.185    0.156
        98  -9.1703     90.6656     69.3084   1.0283928057e+02   5.1023967484e+01     0.132469      0.11219 -88.55 0.0003456785    1.673    0.402
        99 -10.3528     46.0068     69.1439   1.1753768319e+02   5.7473601154e+01    0.2772194     0.201992  38.00  0.001189661    1.644    0.392
       100 -10.0394     10.1237     69.0235   1.3015552625e+02   6.0559516460e+01    0.2201315    0.1258987 -51.23  0.001365596    1.312    0.238
       101  -9.6403    114.2449     66.4129   9.5093261565e+01   4.7003899180e+01    0.1860285    0.1363135  57.44 0.0003258023    1.512    0.338
       102 -11.8559     34.2418     65.0998   1.2056746378e+02   5.9461740186e+01    0.2532069    0.1850903 -36.38  0.000411875    1.130    0.115
       103 -11.6106     39.6661     61.9371   1.1770813608e+02   5.9529731504e+01    0.6264832    0.2444814 -34.84  0.002425181    2.774    0.640
       104 -10.5322     16.9243     64.1439   1.2657111847e+02   6.1071759190e+01    0.3111152    0.2361643   5.04  0.001212193    1.494    0.331
       105 -11.1672     11.0363     48.7129   1.2469519288e+02   6.4371363281e+01    0.5964531    0.2622702  21.76  0.003374747    2.602    0.616
       106 -11.1979     16.8789     44.8899   1.2126162740e+02   6.4645210386e+01    0.3485223    0.2674934  17.10  0.002535102    1.492    0.330
       107  -9.1503     23.9698     61.9953   1.2344623274e+02   6.0955285203e+01    0.2788523    0.1675425 -24.33 0.0009266126    1.700    0.412
       108 -12.5837     20.5632     56.9813   1.2334345711e+02   6.2172580576e+01    0.3247712     0.311753 -35.48  0.001031525    1.297    0.229
       109 -10.7775     20.3508     51.3626   1.2182903874e+02   6.3225365471e+01    0.3178068    0.1603451 -37.73 0.0008400189    1.622    0.383
       110 -10.9136    130.6906     64.1774   9.0115965067e+01   4.3824077480e+01     0.502095    0.3372138  70.61  0.002264553    1.932    0.482
       111  -9.3888     72.7763     63.7296   1.0675703224e+02   5.4979163806e+01     0.201799    0.1006716 -52.36 0.0005742453    2.371    0.578
       112 -11.5426      9.2629     60.6243   1.2849341049e+02   6.2256710366e+01    0.4573662    0.1881193 -41.65 0.0006898863    1.928    0.481
       113 -10.7501     62.6579     62.3309   1.0971412846e+02   5.6697218832e+01    0.2564894    0.1917587 -24.73  0.001172349    1.240    0.194
       114  -9.4236    100.8585     61.8073   9.7391047498e+01   5.0470339224e+01    0.1821855    0.1679327 -74.99 0.0005639609    1.348    0.258
       115 -10.3954     52.4180     60.7733   1.1278971910e+02   5.8310897478e+01    0.4167026    0.2800406 -75.20  0.001962913    3.040    0.671
       116 -10.9816     54.4722     57.6131   1.1106287124e+02   5.8627562170e+01     0.444003    0.2619902 -54.55   0.00138237    1.981    0.495
       117 -11.7572     83.4684     56.8712   1.0104729271e+02   5.4455032024e+01    0.2997248    0.2380029 -25.85 0.0002493172    1.187    0.158
       118 -11.7990     87.7934     53.8264   9.8665176171e+01   5.4208003825e+01    0.5979968    0.2898532  44.51  0.002713796    2.109    0.526
       119  -9.8665    118.8314     59.0778   9.1532042709e+01   4.7266140630e+01    0.2081845    0.1911668 -67.80 0.0004506301    1.268    0.212
       120  -9.4990     71.4229     57.7330   1.0525746713e+02   5.6246861152e+01     0.172955     0.112668 -29.57 0.0002974264    1.465    0.317
       121 -10.3108     60.4635     57.6868   1.0898159068e+02   5.7830085353e+01    0.2278316    0.2188943 -76.36  0.000921405    1.405    0.288
       122  -9.3405    158.4130     57.1628   8.1759239996e+01   3.8416610155e+01    0.1994718    0.1343536 -47.18 0.0005506366    1.576    0.365
       123  -9.5089     99.6352     56.2119   9.5907151468e+01   5.1635270325e+01    0.1859145    0.1238303 -24.16 0.0003385957    1.588    0.370
       124 -10.9967      2.5297     60.2474   1.3086859084e+02   6.2711924634e+01    0.3181784    0.2133162  76.09  0.001889275    2.644    0.622
       125 -10.7867    114.9988     53.9180   9.0871108166e+01   4.8898897864e+01    0.3356327    0.2638642  39.13  0.001831158    1.215    0.177
       126 -10.6904      2.8774     53.8787   1.2921273348e+02   6.3903633337e+01    0.3120431    0.1330386 -29.39  0.001666156    2.406    0.584
       127  -9.2524    199.8638     54.6463   7.3740245393e+01   2.8547727725e+01    0.1962751    0.1265436  78.81 0.0004183424    1.637    0.389
       128  -9.6962    164.3736     54.3441   7.9763705172e+01   3.7385065647e+01    0.3976957    0.1360895  61.03   0.00131997    2.984    0.665
       129 -10.2153    106.0104     52.9708   9.3006015224e+01   5.0897916179e+01    0.2102706    0.1988453  30.89  0.000759276    1.088    0.081
       130 -12.0293     66.1778     52.4097   1.0524854566e+02   5.7935047595e+01    0.5970435    0.2193307  35.65  0.002499592    2.865    0.651
       131  -9.8380     34.8191     52.9164   1.1677210441e+02   6.1673989587e+01    0.1922866     0.127662 -26.55 0.0006241664    1.348    0.258
       132  -9.4550    169.7710     52.6271   7.8257088278e+01   3.6309172598e+01    0.1942924    0.1320608  70.89 0.0002938347    1.493    0.330
       133  -9.2565    147.6299     49.8498   8.1820361098e+01   4.2117192680e+01    0.1971586    0.1277384 -46.01 0.0009286781    1.680    0.405
       134 -10.8271     77.6206     46.5525   9.9380970447e+01   5.7099852569e+01    0.4154033    0.2714792  -1.08  0.002130705    1.884    0.469
       135  -9.9195     38.1603     49.0190   1.1426624774e+02   6.2022228011e+01    0.1857004    0.1290967 -23.15 0.0008083013    1.278    0.217
       136  -9.1035    211.9889     48.7893   7.0529916662e+01   2.6454834394e+01    0.1745394     0.105441  67.00            0    1.577    0.366
       137 -10.1119     53.8306     48.1258   1.0814200518e+02   6.0345967296e+01    0.2080845    0.1577385  -2.48  0.001301178    1.273    0.214
       138  -9.9131    104.7253     47.0156   9.1355422390e+01   5.2058525172e+01    0.1851629    0.1698401   2.78 0.0003145158    1.043    0.041
       139  -9.9145     68.4808     46.7908   1.0251436822e+02   5.8508971779e+01    0.2009602     0.149666  18.74  0.000269791    1.319    0.242
       140  -9.4975     64.6913     46.2767   1.0363809048e+02   5.9154347986e+01     0.186501    0.1213007  37.04  0.000450453    1.613    0.380
       141  -9.0615     47.3288     47.2988   1.1024630194e+02   6.1290063618e+01    0.1261367   0.08150543 -13.16 0.0004423066    1.639    0.390
       142  -6.9796     31.0080     46.3491   1.1614619605e+02   6.3196473665e+01    0.4041014    0.1760762 -31.45  0.001977709    2.311    0.567
       143  -9.6512     36.1215     41.1870   1.1241911441e+02   6.3556061428e+01    0.3730969    0.1540109 -35.54  0.001840439    2.170    0.539
       144  -9.3886     91.4438     44.5181   9.4331821031e+01   5.4987712719e+01    0.1324368    0.1175955   7.19 6.973625e-05    1.010    0.010
       145 -10.9463     20.5113     31.4128   1.1532173737e+02   6.6607761078e+01    0.5659888    0.2623112   5.20  0.002815691    3.056    0.673
       146 -10.9445     25.1853     43.1014   1.1738353195e+02   6.4283531002e+01    0.2849535    0.1909696 -52.43  0.001089978    1.565    0.361
       147 -10.6667     22.8106     38.6271   1.1686213603e+02   6.5242105566e+01     0.216585    0.1837846  21.30 0.0009057059    1.449    0.310
       148 -11.2284     26.4323     35.5589   1.1433042956e+02   6.5422147413e+01    0.3427134     0.180677 -32.54   0.00171959    1.592    0.372
       149 -10.6084     70.4821     41.5769   9.9969768973e+01   5.9005110434e+01    0.3443522    0.2263761 -33.18   0.00196762    1.451    0.311
       150 -10.1112     69.6420     35.8105   9.8130506773e+01   5.9976913449e+01    0.3678769    0.1816006 -15.81  0.001329238    3.030    0.670
       151  -9.9587      2.2114     42.4251   1.2644564199e+02   6.6027763920e+01     0.164643   0.09781963   4.19 0.0006981502    1.883    0.469
       152 -10.1985    182.4619     40.8970   7.2850249994e+01   3.4819712520e+01    0.2708699    0.1885797  85.57    0.0010351    1.514    0.340
       153 -11.1455    139.5039     40.2677   8.0595957794e+01   4.5372428512e+01    0.3210917    0.2278899 -45.50  0.001314772    1.565    0.361
       154  -9.5586    134.3058     39.6441   8.1530141111e+01   4.6664034599e+01    0.2686443    0.1663581  61.77  0.001291568    1.611    0.379
       155 -10.2898    131.0255     37.2896   8.1505086510e+01   4.7723849292e+01    0.2916232    0.2102134  36.12 0.0006343247    1.382    0.277
       156 -11.2069    134.1834     33.9951   7.9751127278e+01   4.7414303065e+01    0.2248964    0.1736445  46.07 0.0003249727    1.184    0.155
       157 -10.2033     13.0852     38.4789   1.2080626990e+02   6.6028184349e+01    0.3626668   0.09029199 -48.06   0.00163005    2.851    0.649
       158 -12.0452    121.4672     36.7942   8.3558474724e+01   4.9933362692e+01    0.4990631    0.4248807  84.48  0.002727458    1.434    0.303
       159 -10.6178    126.4987     32.8274   8.1070218698e+01   4.9310757627e+01    0.3822515    0.2441518  10.93  0.001132127    2.167    0.538
       160  -9.3692    101.2327     39.6038   8.9765955511e+01   5.3808065827e+01    0.1976255    0.1110384  38.31 0.0009506717    1.712    0.416
       161  -8.9622     51.3096     39.6987   1.0609112115e+02   6.2024725775e+01    0.1032512   0.09836247 -72.16 0.0003634269    1.603    0.376
       162 -10.9171      2.0942     35.6529   1.2451692666e+02   6.7210750154e+01    0.2463273    0.1603205 -34.17  0.001415305    1.148    0.129
       163 -11.1034     50.8655     33.8761   1.0410092684e+02   6.2961710071e+01      0.35966    0.2028735  37.42  0.001572255    1.907    0.476
       164 -11.7077    145.0850     32.9795   7.7182796064e+01   4.4982706672e+01    0.2281755    0.2162315  63.56  0.001396275    1.051    0.049
       165  -9.8788    166.6947     31.7541   7.2891758733e+01   3.9895299432e+01    0.3641988    0.1333441 -41.53  0.001396171    2.865    0.651
       166  -9.3629     33.2194     32.3317   1.1040425235e+02   6.5263029098e+01    0.1150444   0.06907457 -21.99 0.0006817888    1.513    0.339
       167 -11.5382     43.8142     29.3350   1.0505848993e+02   6.4510468475e+01    0.4391268    0.2913021 -17.76  0.002124761    1.341    0.255
       168  -9.7190    205.3173     30.6658   6.6993581088e+01   3.0537594532e+01    0.1455277   0.09137821 -69.49 0.0007048053    1.694    0.410
       169  -9.3866    187.5219     29.4821   6.9070510530e+01   3.5039727724e+01    0.2591245    0.1000607  55.27  0.001034467    2.351    0.575
       170 -10.2953    149.7952     29.3282   7.5164855033e+01   4.4295951386e+01    0.4505423    0.1719176  68.27  0.001596896    3.077    0.675
       171 -10.3825    140.8367     27.2353   7.6238741307e+01   4.6667884345e+01    0.4027052    0.2496997  57.64  0.001997459    1.431    0.301
       172  -9.8207    104.2843     29.3708   8.5318895272e+01   5.4507968184e+01    0.3096976    0.1337623  39.94  0.001332565    2.256    0.557
       173 -10.6343     69.2807     28.0162   9.5284016898e+01   6.1088809463e+01    0.2813812    0.2261285 -55.27  0.001677694    1.904    0.475
       174  -9.8563      7.5603     28.0063   1.1969433759e+02   6.8135573513e+01    0.1707758     0.135631  22.50 0.0006859245    1.595    0.373
       175 -10.6629     34.1393    247.1042   1.4632369464e+02   1.9765456434e+01    0.1583953    0.1241839  77.21 0.0004449476    1.170    0.146
       176  -9.4181    200.7698     25.9727   6.6416712570e+01   3.2224893439e+01    0.1580054    0.1106646 -35.89 0.0008520096    1.552    0.356
       177 -10.0681    154.7272     26.0760   7.3299249220e+01   4.3485168917e+01       0.3646    0.1780161  74.86  0.001485506    2.445    0.591
       178  -9.5350    217.2022    244.8266   1.1228345114e+02  -8.7465330385e+00     0.274817   0.07799865  44.88  0.001010546    3.548    0.718
       179  -9.4219    181.3166     25.6695   6.8952732886e+01   3.7025988175e+01     0.142949    0.0951019 -70.99  0.000378204    1.683    0.406
       180 -10.0963     59.0578     24.4346   9.7421051451e+01   6.3122303892e+01     0.228611    0.1440524 -13.08 0.0009631256    1.571    0.363
       181 -10.1487     51.1556     22.9418   9.9716608086e+01   6.4435866928e+01    0.2767696    0.2464108 -24.03  0.001925817    1.373    0.272
       182  -9.3004    192.9964     23.9710   6.6912114257e+01   3.4359989148e+01    0.1608992    0.1395805  86.48            0    1.007    0.007
       183  -9.7544     89.2964     22.2476   8.6826166333e+01   5.8282854272e+01    0.2814156    0.1447666 -27.00  0.001428414    2.013    0.503
       184  -9.4080     74.2727    243.9020   1.3914267580e+02   1.5051005914e+01    0.1603563    0.1249492  74.58 0.0002871787    1.050    0.048
       185 -10.7139     37.8084    241.9428   1.4535406937e+02   2.0301787275e+01    0.3319405    0.1064183  63.34  0.001361001    3.601    0.722
       186  -9.6073    202.4971    240.1063   1.1425319178e+02  -5.6646019404e+00    0.1675852    0.1242814 -35.32  0.000686579    1.524    0.344
       187 -10.6604     19.8435     16.8133   1.1004347807e+02   6.8834343203e+01    0.2043813    0.1386525   4.26  0.001271496    1.331    0.249
       188  -9.2075     60.4556    241.0000   1.4135474327e+02   1.7552007279e+01    0.2436642   0.05803305  39.91   0.00092605    3.865    0.741
       189 -10.5531     12.8948     15.9190   1.1280568646e+02   6.9562738811e+01    0.3275179    0.1549614  20.35  0.001671275    2.185    0.542
       190  -9.8310      1.4878     21.7134   1.2021010114e+02   6.9516535535e+01     0.188792   0.08890244 -53.02  0.001120894    2.122    0.529
       191 -10.0479    124.8620     21.1608   7.7567397977e+01   5.1009836817e+01    0.1838147    0.1718671  83.24 0.0003131912    1.204    0.170
       192  -9.6126     84.9344     21.4361   8.7787150758e+01   5.9186555184e+01    0.1857951    0.1085317  43.97 0.0006013258    1.556    0.357
       193 -12.6655     25.6686    235.9387   1.4698147502e+02   2.2898204934e+01    0.3880352    0.3045857  57.07  0.002702144    1.347    0.258
       194 -10.2951     31.0525     20.2165   1.0659709099e+02   6.7249591737e+01    0.1920875    0.1267422 -27.16 0.0007141684    1.268    0.211
       195 -10.2092    175.1408     20.5079   6.8460765511e+01   3.9131539455e+01     0.209226    0.1171135  65.10  0.001018077    1.555    0.357
       196  -9.4260    131.5242     20.5092   7.5960835044e+01   4.9567938519e+01    0.1344417    0.1149488  44.27 0.0008094835    1.056    0.053
       197  -9.8568    218.5494     25.5085   6.4211622119e+01   2.8015794568e+01    0.1360518    0.1093913 -78.23 6.162009e-05    1.080    0.074
       198  -9.1687    210.6650    235.6991   1.1198951582e+02  -6.3783118965e+00    0.1305232   0.08883186  11.52 0.0003325157    1.658    0.397
       199  -9.6615    148.8133     18.8507   7.2180331731e+01   4.5693134402e+01     0.176553     0.147023 -85.46 0.0003436999    1.298    0.229
       200 -10.3437    199.7104     17.1230   6.4381278092e+01   3.3517294066e+01    0.2195483    0.1586038  89.08 0.0004433151    1.254    0.202
       201  -9.0959    108.3878     16.7066   7.9772775138e+01   5.5052105730e+01    0.1537871    0.1170121  -1.60 0.0003873373    1.409    0.291
       202 -10.1564     26.3502     16.4965   1.0706748379e+02   6.8245911132e+01    0.1881472    0.1544875  -8.61 0.0008002925    1.185    0.156
       203 -11.9563      4.1800    232.6108   1.5030681055e+02   2.5839142810e+01    0.3147517    0.1644014  70.50 0.0004088872    1.472    0.321
       204 -13.0783      9.6390    229.2633   1.4922570102e+02   2.5938508591e+01    0.6089345    0.3154917 -84.85  0.002780174    1.529    0.346
       205  -9.8007    249.1736    234.1394   1.0471643783e+02  -1.2227392862e+01     0.181348    0.1351667   8.32 0.0005222536    1.169    0.145
       206  -9.7353    140.2270    227.2142   1.2445542064e+02   7.4782302710e+00    0.1913671    0.1417004  65.63  0.001044351    1.377    0.274
       207 -10.0310     32.8081    225.1364   1.4497717905e+02   2.4219884813e+01    0.2545567     0.115636  52.27  0.001422659    1.870    0.465
       208  -9.9982     25.5222    225.0242   1.4625145153e+02   2.5078143191e+01    0.1694099   0.09048282 -79.24 0.0009427941    1.573    0.364
       209 -10.7049    239.8351     13.8533   5.9577133231e+01   2.4535454076e+01    0.1805686    0.1186279 -69.56 0.0004052571    1.325    0.245
       210 -10.1942    190.5157     13.9625   6.4705160397e+01   3.6090874310e+01    0.1782665    0.1286389 -35.70 0.0006244904    1.539    0.350
       211 -10.6073    156.1178     14.0366   6.9536087516e+01   4.4433368150e+01    0.2811569    0.1690738  56.93  0.001338525    1.429    0.300
       212  -9.4628     76.2117     14.5799   8.7734627301e+01   6.1496344486e+01    0.1704689   0.09379979  35.13 0.0005772274    1.627    0.385
       213 -11.9035      7.9427    217.6317   1.4879515365e+02   2.8425706391e+01     0.298375    0.2144359  77.17  0.001838796    1.058    0.055
       214  -9.5615    246.4788    216.5223   1.0202480686e+02  -9.3926189413e+00    0.1272992    0.1048925   3.66 0.0002493443    1.040    0.038
       215  -9.4682    209.4140    211.7892   1.0803213892e+02  -2.4188071021e+00    0.1822448    0.1236266 -25.54 0.0009472292    1.625    0.385
       216 -10.5449     15.9205    211.8580   1.4700814487e+02   2.8803757552e+01    0.1648291    0.1327473 -84.02 0.0007326772    1.258    0.205
       217  -9.7000     20.8108    209.8313   1.4597408988e+02   2.8715805623e+01    0.1646291     0.100791  75.51 0.0004112139    1.330    0.248
       218  -9.7272    246.8503    207.1493   1.0020529453e+02  -8.0747723254e+00    0.1825673    0.1632011 -22.11 0.0007081538    1.198    0.165
       219  -9.6909    197.2503    204.0016   1.0898189356e+02   1.1486153765e+00    0.1706384    0.1183183 -40.41 0.0005267766    1.530    0.347
       220 -10.7973      9.4722    203.3566   1.4756809042e+02   3.1217692111e+01    0.2208325    0.1495224  78.53 0.0007052348    1.130    0.115
       221  -8.9948    181.5207    199.4882   1.1133770845e+02   4.9817102271e+00    0.1413209    0.1319107  46.46 0.0001241954    1.056    0.053
       222  -9.4675     22.9981    197.4854   1.4457662360e+02   3.1113412161e+01    0.1587651    0.1076001  45.05 0.0005191357    1.578    0.366
       223  -9.6153      6.5291    191.4798   1.4725048318e+02   3.4010124883e+01    0.1171101   0.08348168  85.32 4.989709e-05    1.042    0.041
       224  -9.6249     15.3828    185.2083   1.4502822947e+02   3.4548972710e+01    0.1720442   0.08731864 -87.13 0.0009432158    1.678    0.404
       225  -9.0859    250.3272    183.3245   9.4936161873e+01  -4.9361696311e+00    0.1378032   0.09549412   0.07 0.0007049364    1.694    0.410
       226  -9.3734      1.3197    183.2119   1.4762815333e+02   3.6239925213e+01    0.1590971   0.07930745 -85.72 0.0004887735    1.582    0.368
       227 -10.6451      4.8003    167.4830   1.4565237458e+02   3.9390368316e+01    0.2834733    0.1573525  61.93  0.001379606    1.792    0.442
       228  -8.8760     41.6763    158.3215   1.3640832041e+02   3.7965674594e+01    0.1345777   0.08544675  75.33 0.0007046462    1.679    0.404
       229  -9.1372    247.4788    155.5302   8.9667975570e+01   2.4561362453e-01    0.1381734    0.1241132 -23.56 8.324169e-05    1.015    0.015
       230  -9.5442      8.3271    153.3309   1.4355073801e+02   4.2269349136e+01    0.1185141   0.07299721 -51.43  0.000705123    1.710    0.415
       231  -9.6910      2.3176    153.6572   1.4492295999e+02   4.2654238896e+01    0.1218493   0.07016201  74.87  0.000704897    1.716    0.417
       232  -9.6682     14.8146    150.8107   1.4180189431e+02   4.2313902390e+01    0.1679313    0.1171601  82.97 0.0009389091    1.314    0.239
       233 -10.1831     22.0264    143.1994   1.3918598658e+02   4.3439070218e+01    0.2280747    0.1470009 -73.14  0.001084552    1.238    0.192
       234  -9.0612    236.3396    139.3201   8.8043934414e+01   5.3010471302e+00    0.1458318    0.1111765   2.75 0.0007049968    1.714    0.417
       235  -9.9990      2.4596    138.4719   1.4334992382e+02   4.6037145502e+01    0.1181469   0.08863383 -76.80 0.0003283669    1.002    0.002
       236 -10.9307     12.3720    130.4002   1.3996183932e+02   4.7147595392e+01    0.4361737    0.2092004  59.95  0.002126221    2.786    0.641
       237  -9.6402     21.2218    126.1711   1.3709094248e+02   4.7416611845e+01    0.1766058    0.1300845 -69.73 0.0004163485    1.080    0.074
       238 -11.2537     24.0825    122.3345   1.3575361489e+02   4.8054793933e+01    0.2478801    0.1843712 -77.59 0.0003142321    1.187    0.158
       239 -10.9861     22.0000    117.9864   1.3564996723e+02   4.9216183628e+01    0.2811981    0.1906931 -76.89  0.001178611    1.323    0.244
       240 -10.5713      3.3732    118.8576   1.4079860036e+02   5.0353410735e+01    0.1732596    0.1476655  70.37 0.0006099808    1.327    0.247
