#   1 NUMBER                 Running object number                                     
#   2 MAG_AUTO               Kron-like elliptical aperture magnitude                    [mag]
#   3 X_IMAGE                Object position along x                                    [pixel]
#   4 Y_IMAGE                Object position along y                                    [pixel]
#   5 X_WORLD                Barycenter position along world x axis                     [deg]
#   6 Y_WORLD                Barycenter position along world y axis                     [deg]
#   7 A_WORLD                Profile RMS along major axis (world units)                 [deg]
#   8 B_WORLD                Profile RMS along minor axis (world units)                 [deg]
#   9 THETA_WORLD            Position angle (CCW/world-x)                               [deg]
#  10 FWHM_WORLD             FWHM assuming a gaussian core                              [deg]
#  11 ELONGATION             A_IMAGE/B_IMAGE                                           
#  12 ELLIPTICITY            1 - B_IMAGE/A_IMAGE                                       
         1 -13.1038    217.7826     27.8541   4.1275698400e+01   2.7660926746e+01     1.449869    0.8414487  38.15  0.006677029    2.491    0.599
         2 -10.5871      1.8245     11.4860   9.7446796272e+01   7.2716937328e+01    0.5314994   0.02506809 -50.78  0.001546855    7.025    0.858
         3 -12.4727    240.8690      6.0964   3.4178761565e+01   2.4909010784e+01    0.7039121    0.4820481 -63.24   0.00269456    1.253    0.202
         4 -12.4331    191.8410    238.6879   9.3551916550e+01  -1.9964024915e+00    0.8430724    0.4305692  21.41   0.00404916    2.234    0.552
         5 -10.3547    248.1762    249.6252   8.5085278480e+01  -1.1364693267e+01    0.3709327    0.2150983  22.08  0.002384741    1.377    0.274
         6 -10.6523    249.3427    242.4440   8.3715387775e+01  -1.0710974092e+01    0.4938485    0.2666914 -25.54  0.003011693    1.791    0.442
         7 -10.4745    231.1552    249.5150   8.8022579313e+01  -9.1075598657e+00    0.4233731    0.1729677  30.04   0.00217477    2.076    0.518
         8 -12.5589    199.3885    248.6217   9.3638243409e+01  -4.4841733487e+00     1.383425     0.368306  37.63  0.005547069    3.082    0.676
         9 -12.5810    131.0671    227.9251   1.0404460885e+02   9.4081913433e+00    0.9981043    0.6496534  36.51  0.004096529    1.355    0.262
        10 -13.5615    138.2502    243.6300   1.0462978948e+02   5.6217773177e+00     1.431207     1.042044  37.59   0.00746462    1.141    0.124
        11 -13.2311    117.4530    245.6688   1.0889490081e+02   8.4481520020e+00     1.367315    0.8270228  39.07  0.006937701    1.384    0.277
        12 -10.5224     65.5898    233.7091   1.1766174199e+02   1.7862000845e+01    0.6708188    0.3695544 -46.12  0.003522421    2.873    0.652
        13 -11.4922    227.0876    232.7004   8.6013831778e+01  -6.4749075604e+00    0.7636477    0.4395476  -8.71  0.004136873    1.985    0.496
        14 -10.9208    108.9536    233.2357   1.0915985778e+02   1.1882860066e+01    0.5644708     0.194068 -51.24  0.002399186    3.454    0.711
        15 -11.2076    118.8314    223.8295   1.0602093827e+02   1.2087433922e+01    0.5455245    0.2918039 -60.61  0.002759488    2.184    0.542
        16 -11.1850    113.9949    223.9883   1.0703732718e+02   1.2812403761e+01    0.4047378    0.3547402   2.42   0.00258396    1.465    0.318
        17  -9.5894    104.1744    232.8600   1.1006838607e+02   1.2664092134e+01     0.240177    0.1847958 -69.79   0.00149713    1.459    0.315
        18 -10.4044    208.5981    232.4154   8.9380882995e+01  -3.6919208000e+00    0.2499399    0.1903914   5.90  0.001600299    1.175    0.149
        19 -10.8083    219.2686    228.7359   8.6777850383e+01  -4.8014439075e+00    0.3626437    0.1980503  -9.41   0.00175178    2.450    0.592
        20 -13.8401     20.6067    247.1803   1.2652775473e+02   2.0578429203e+01      1.55419     1.067596  74.81  0.007663588    1.107    0.096
        21 -10.1951     84.1867    224.7205   1.1319239846e+02   1.7084115433e+01    0.5796636     0.189459  36.88   0.00242938    2.782    0.641
        22 -10.1496     91.4985    225.6533   1.1181878300e+02   1.5865370492e+01    0.3439279    0.2069291  38.46  0.001739829    1.523    0.343
        23 -10.6473     96.6845    222.1559   1.1037736913e+02   1.5782411634e+01    0.5361017     0.388898 -31.81   0.00301532    2.107    0.525
        24 -13.0473     22.5422    213.9608   1.2434535968e+02   2.6698293907e+01     1.342298    0.7735797 -33.69   0.00324887    4.642    0.785
        25 -12.2467     65.6486    220.2206   1.1646516984e+02   2.0472158179e+01      1.35567    0.6965375  74.24   0.00671902    2.310    0.567
        26 -14.2549      3.7150    244.6254   1.2915510152e+02   2.2696537694e+01     15.74218    0.5751169 -78.43   0.02774542   27.131    0.963
        27 -10.2698    104.4031    208.2312   1.0705218806e+02   1.7373953412e+01    0.4404986    0.3538043  43.10  0.002075149    1.156    0.135
        28 -12.0014    115.3125    207.3546   1.0456784759e+02   1.5824554976e+01     1.485293       0.6211 -60.56  0.006203497    2.781    0.640
        29 -11.6065    109.8547    202.4161   1.0507405289e+02   1.7704292298e+01     1.067454    0.4955495 -61.53  0.004694846    2.410    0.585
        30  -9.7063    124.0450    216.5084   1.0396314850e+02   1.2629853370e+01    0.2127229    0.1156887  39.16  0.001044456    1.625    0.384
        31 -10.7558    143.3706    191.1503   9.5809755019e+01   1.4306984711e+01    0.4061898     0.349377  47.37  0.002145298    1.116    0.104
        32 -10.6775     54.5215    183.5149   1.1515166178e+02   2.9720919988e+01    0.3480244    0.2575676 -38.08  0.001626914    1.857    0.461
        33 -11.5286    140.9756    180.4356   9.4445255307e+01   1.6940482356e+01    0.6986402    0.5630668  10.61  0.003636491    1.454    0.312
        34 -10.8045     60.7996    177.1123   1.1296189230e+02   3.0410314266e+01    0.2734959    0.2421148 -56.94 0.0005451761    1.272    0.214
        35 -10.2789     71.8357    166.8181   1.0893195502e+02   3.1369174061e+01    0.2725857    0.2359415 -73.52 0.0005299952    1.089    0.081
        36 -12.3121     58.1645    163.3052   1.1184940261e+02   3.3981670190e+01    0.5175074    0.2932211 -46.41  0.001602213    2.038    0.509
        37 -11.6814     78.9648    159.1147   1.0596337748e+02   3.2203861477e+01    0.8517849     0.552684  63.09  0.002214674    1.744    0.427
        38 -12.3143     67.9352    144.0894   1.0642965427e+02   3.7385457612e+01    0.7708107    0.5247916  73.94   0.00271653    1.744    0.427
        39 -15.0217      9.9935    207.8560   1.2632994494e+02   2.9138590008e+01     6.454837     1.005886 -76.20   0.02246567    5.245    0.809
        40 -10.6327     97.1955    243.0131   1.1249760094e+02   1.1863409216e+01    0.3270237    0.2446442  25.44  0.001668636    1.595    0.373
        41  -9.5170     94.6376    145.1146   9.9348163479e+01   3.3174432389e+01    0.2730319    0.2232123  28.57 0.0009007769    1.349    0.259
        42 -11.2227     82.5572    143.7172   1.0236774704e+02   3.5405238967e+01    0.3204266    0.2540349 -52.50 0.0004084433    1.221    0.181
        43  -8.6599     98.1753    141.2567   9.7621400142e+01   3.3520910110e+01    0.2475139    0.1571553 -19.58 0.0009467398    2.739    0.635
        44 -11.3630     57.4863    130.9708   1.0712144441e+02   4.1942651052e+01    0.6787394    0.2925533 -79.30   0.00218843    3.946    0.747
        45 -11.8323     88.4645    237.1545   1.1359559389e+02   1.4146569543e+01    0.8464206    0.5275723 -54.17  0.005049744    1.946    0.486
        46  -9.9458    106.6312    131.8595   9.3283829205e+01   3.4310683235e+01    0.3788131    0.3424729 -77.48  0.001676615    1.151    0.131
        47  -9.8439     94.1890    129.2701   9.6208299388e+01   3.7086874421e+01    0.2844375    0.2400201 -36.89 0.0005131298    1.229    0.186
        48  -8.7971    105.0966    120.8291   9.1145541992e+01   3.7214240620e+01    0.2182063    0.2015665 -86.77 0.0003489859    1.167    0.143
        49  -8.7652    204.9584    110.8557   6.4560940088e+01   1.7748821892e+01    0.2578177     0.172537  21.39  0.001093941    2.033    0.508
        50 -10.4007     80.2291    238.0067   1.1525592638e+02   1.5127006033e+01    0.3518346    0.2729021 -59.87  0.001527745    1.550    0.355
        51  -9.1934     52.4913     89.5338   1.0011279666e+02   5.2569689081e+01    0.1392314    0.1198946 -45.76 6.715172e-05    1.003    0.003
        52  -9.2597     59.2186     79.9714   9.5197328977e+01   5.3933623343e+01     0.194277     0.102569 -52.24 0.0008743264    1.691    0.408
        53  -9.8457     12.8429     60.1808   1.0792662421e+02   6.2642397279e+01     0.179154    0.1134191 -38.21  0.001075707    1.334    0.251
        54  -9.7536     82.7474    231.4346   1.1414933083e+02   1.6002383827e+01    0.2758818    0.2322461 -69.05  0.001173696    1.349    0.259
        55 -14.2884     34.8507    202.4271   1.2113576479e+02   2.7808887204e+01     2.856206     1.463194 -81.79   0.01245901    1.778    0.438
        56  -8.3423    189.3191     15.3165   4.1210657458e+01   3.5948051963e+01    0.1358809   0.09598308  39.65 0.0003654531    1.657    0.396
        57 -12.1691    183.4324    238.3115   9.5106145021e+01  -6.3706664952e-01    0.8167257    0.4375551  12.91  0.003566625    2.975    0.664
