#   1 NUMBER                 Running object number                                     
#   2 MAG_AUTO               Kron-like elliptical aperture magnitude                    [mag]
#   3 X_IMAGE                Object position along x                                    [pixel]
#   4 Y_IMAGE                Object position along y                                    [pixel]
#   5 X_WORLD                Barycenter position along world x axis                     [deg]
#   6 Y_WORLD                Barycenter position along world y axis                     [deg]
#   7 A_WORLD                Profile RMS along major axis (world units)                 [deg]
#   8 B_WORLD                Profile RMS along minor axis (world units)                 [deg]
#   9 THETA_WORLD            Position angle (CCW/world-x)                               [deg]
#  10 FWHM_WORLD             FWHM assuming a gaussian core                              [deg]
#  11 ELONGATION             A_IMAGE/B_IMAGE                                           
#  12 ELLIPTICITY            1 - B_IMAGE/A_IMAGE                                       
         1 -10.3962    224.3486     26.5238   3.7034771578e+01   2.6566410116e+01    0.3863926     0.224615 -34.98 0.0007523532    1.686    0.407
         2 -10.3691    250.0035      7.7420   3.1055087755e+01   2.3359555061e+01    0.4186935     0.163096 -38.60   0.00207461    2.160    0.537
         3 -10.9615    250.0821     18.5342   3.3184108031e+01   2.2142876661e+01     0.730998    0.2917584 -51.95  0.003569508    2.138    0.532
         4 -10.2437    250.2176     25.8968   3.4657503418e+01   2.1251677728e+01    0.5317214    0.1941097 -47.17  0.002542513    2.227    0.551
         5  -9.7161    239.6518      8.6968   3.1953953050e+01   2.5343412763e+01    0.2302224    0.1675357  51.54  0.001477709    1.773    0.436
         6  -9.6988    236.7152      6.0909   3.1630056181e+01   2.6224491579e+01    0.4020909     0.182039 -29.54  0.002073544    2.380    0.580
         7  -9.0933    232.8515      4.8307   3.1645064301e+01   2.7159219651e+01    0.2347728    0.1493809 -46.25 0.0009098109    1.401    0.286
         8  -9.5894    234.4115      1.5196   3.0854657907e+01   2.7172515792e+01    0.2518665    0.1404411  86.10 0.0001608315    1.650    0.394
         9  -8.5963    230.4640      1.4884   3.1120773857e+01   2.8000072110e+01    0.1812442    0.1010355  79.50 0.0007283133    1.639    0.390
        10  -9.7613    236.8322     15.3395   3.3534921408e+01   2.5199664127e+01    0.3991832    0.1856783 -35.14  0.002092937    2.022    0.505
        11  -9.5380    239.3855     13.1993   3.2895712277e+01   2.4908753059e+01    0.3174761    0.1203875 -41.72  0.001442806    2.175    0.540
        12  -9.4894    196.8869     18.3100   3.7879589977e+01   3.3691289714e+01      0.50274    0.1963897 -59.03  0.001877277    3.474    0.712
        13 -11.0189    133.5172     17.6843   4.6674368122e+01   4.8930288460e+01    0.9620116    0.3292604  53.70   0.00384465    2.395    0.582
        14 -10.9070    141.1053     12.7095   4.3737476094e+01   4.7594471161e+01    0.3539768    0.2918713  17.24 0.0005465335    1.376    0.274
        15 -11.0879     88.0474     16.5540   5.6749117827e+01   5.9282840805e+01    0.4096043    0.3301851 -53.83   0.00241708    1.713    0.416
        16  -9.3453     91.3944     12.7731   5.4271811964e+01   5.8961662950e+01     0.274988    0.1903264  26.06  0.001560726    1.372    0.271
        17 -10.0286     60.7631     12.4186   6.3811755148e+01   6.4952095814e+01    0.7368955    0.2568184 -32.88  0.003204692    2.949    0.661
        18 -10.4091     65.7066     15.0502   6.3229426553e+01   6.3782444560e+01    0.4004611    0.2536533  11.57  0.001002688    1.632    0.387
        19  -8.7912     66.9941     11.7623   6.1286105239e+01   6.3903404228e+01    0.2408383    0.1575781  24.84 0.0004883225    1.375    0.273
        20 -10.3806    204.7016     12.4128   3.5658353573e+01   3.2523565934e+01    0.3396442    0.2014846 -66.22 0.0008749415    1.691    0.409
        21  -9.2435    156.3961     16.0320   4.2375182928e+01   4.3587216293e+01    0.3323091    0.1889974 -36.92  0.001673058    1.856    0.461
        22 -12.5404    113.1174     12.5044   4.8935112020e+01   5.4195916904e+01    0.3678544    0.2769598 -18.72 0.0003078184    1.462    0.316
        23 -10.2868    112.5651      4.7846   4.6227218933e+01   5.4989062418e+01    0.4792947    0.3224873  60.29  0.002378811    1.309    0.236
        24  -9.1660    104.1436      8.3643   4.9370025840e+01   5.6592048811e+01    0.3343162    0.1717476  62.30 0.0006972465    1.844    0.458
        25 -11.4943    101.3509     13.7354   5.2099379676e+01   5.6721094569e+01    0.2802458    0.2292058  33.12 0.0002722685    1.081    0.075
        26  -9.9063    100.2845      9.7023   5.0787837287e+01   5.7328660566e+01    0.1892401    0.1825776  53.95 0.0002107855    1.187    0.158
        27  -9.6821     42.1997     11.4999   7.0881100504e+01   6.8054019884e+01    0.4874898    0.2043356  30.02  0.001386222    2.373    0.579
        28 -10.2413      6.5506      7.7306   8.7326935761e+01   7.2705894124e+01    0.5946212    0.1320572 -45.34  0.002363806    4.099    0.756
        29 -10.7717     25.4999      9.8064   7.7981403250e+01   7.0492094707e+01    0.5485402    0.3619546  51.22  0.002949475    3.170    0.685
        30 -10.5507     13.4956      9.9947   8.4478933248e+01   7.1752946592e+01    0.2306548     0.162613 -22.28  0.001508064    1.126    0.112
        31  -9.0601    232.4088     11.0522   3.2977981816e+01   2.6595407156e+01    0.2872661    0.1007167  57.47 0.0009221708    3.085    0.676
        32  -9.2324    209.2680     10.1237   3.4699389686e+01   3.1729910075e+01    0.2199704    0.1349389 -52.03 0.0003400681    1.513    0.339
        33  -9.1655     84.7373     10.1472   5.5020032091e+01   6.0599365632e+01    0.1841221    0.1533514 -32.97 0.0009204817    1.434    0.303
        34  -9.8142    184.2961      8.6262   3.6797709249e+01   3.7630820445e+01    0.3467991    0.1838163  70.39 0.0008185573    1.672    0.402
        35 -11.2575    186.4104      3.9246   3.5381970788e+01   3.7579409673e+01    0.3925818    0.3083917 -72.91 0.0009779005    1.185    0.156
        36 -10.3210     32.5947      6.3774   7.2718493618e+01   7.0024775427e+01    0.2464754    0.2086067 -11.69 0.0006000829    1.315    0.240
        37  -9.9252     78.0223      2.6747   5.3713509406e+01   6.2626065858e+01    0.2059608    0.1682237  -0.31 0.0003268382    1.228    0.185
        38 -11.6009     65.2707      6.1938   5.9310053444e+01   6.4777743308e+01    0.4763573    0.2496309  38.06  0.001308106    1.627    0.385
        39 -10.0067     74.0501      5.4855   5.6144849497e+01   6.3171796827e+01    0.2874561    0.2416711 -51.01  0.001832553    1.699    0.411
        40 -10.5256    223.7085      6.1769   3.2610725635e+01   2.8960843190e+01    0.2684064    0.1817898 -58.24 0.0003605619    1.291    0.225
        41  -9.5167    138.5371      6.2075   4.2081060315e+01   4.8786856540e+01    0.2211217    0.1877657  46.66 0.0002666875    1.127    0.112
        42  -9.3958    144.2859      5.4391   4.0960698876e+01   4.7477607000e+01    0.3041575    0.1665182 -79.38  0.001341099    2.594    0.614
        43 -10.0558     94.7074      5.3391   5.0407921631e+01   5.8920366492e+01    0.4081996    0.2080785  63.21   0.00186957    1.978    0.494
        44  -9.7732    243.6620      4.7019   3.0874490102e+01   2.4950394739e+01    0.1963465    0.1405846 -63.88  0.001074925    1.129    0.114
        45  -9.5537    241.8472      1.8360   3.0424001941e+01   2.5614761243e+01    0.2944683    0.1645525  87.08  0.001104953    1.654    0.395
        46  -8.5258    168.7594      5.3478   3.7686509850e+01   4.1621096619e+01    0.1836041   0.09912557  62.31 0.0005675574    1.608    0.378
        47  -8.8268    218.0181      3.2758   3.2423096026e+01   3.0486812480e+01    0.1677386    0.1337956 -82.57 0.0004421499    1.055    0.053
        48  -9.5274    203.3999      2.7385   3.3506047328e+01   3.3785664453e+01    0.3254812    0.1553134 -77.80  0.001511035    2.400    0.583
        49  -9.5589    150.0136      2.4390   3.9235146555e+01   4.6355893700e+01    0.3537424    0.1629265  46.11  0.001635775    2.174    0.540
        50  -8.7417     14.9917      3.0047   8.0079665286e+01   7.2565045907e+01    0.1810644    0.1047302  -7.67 0.0009152047    1.595    0.373
        51  -8.7652    248.4437      1.9700   3.0031179976e+01   2.4278408658e+01    0.1584264   0.09762764 -39.18 0.0003433109    1.528    0.345
        52  -8.3046    130.5232      2.5207   4.2172281618e+01   5.0989620645e+01    0.1279899    0.1119904  64.94 0.0002378803    1.046    0.044
        53  -9.7191    250.1949    140.0910   5.9088162357e+01   4.1754114335e+00     0.249703    0.1591806 -31.35 0.0008650004    1.342    0.255
        54  -8.4369    209.4631    250.4580   8.7337376501e+01  -6.6783726605e+00    0.1215601   0.09324961  11.54 0.0002960729    1.019    0.019
        55 -10.3958    248.8890    134.6726   5.8133772893e+01   5.2914392535e+00    0.3885326    0.2012922 -38.60  0.001181774    1.635    0.388
        56  -9.8201    248.9652    130.5029   5.7227702520e+01   5.9681795737e+00    0.2778468    0.1955187  51.40  0.001499225    1.727    0.421
        57  -8.5349    218.6764    138.3392   6.3954795144e+01   1.0141921823e+01    0.1422099    0.1113204 -67.26 0.0007050994    1.722    0.419
        58 -11.0478    242.3671    133.5906   5.8911627723e+01   6.6090276290e+00    0.5611301    0.2568798 -28.65   0.00232367    2.292    0.564
        59  -8.4018    209.3224    137.6633   6.5518990801e+01   1.2077844477e+01    0.1450375    0.1147581 -69.91 0.0007050621    1.713    0.416
        60  -9.6930    234.0342    134.4562   6.0443362168e+01   7.9596517572e+00    0.2385992    0.1637234 -35.74  0.001249322    1.271    0.213
        61  -8.9193     13.6784    133.0635   1.1572903900e+02   4.5628179212e+01    0.1850215    0.1370501 -70.00 0.0005482158    1.097    0.088
        62  -9.0071     65.2197    132.1032   1.0050397550e+02   4.0630304875e+01    0.2122583    0.1808654 -43.90 0.0004132821    1.155    0.134
        63 -10.9343    240.9442    124.6667   5.7180507474e+01   8.3712024244e+00     0.407197    0.2128589 -47.75  0.001854256    1.914    0.478
        64  -9.5218    227.7936    124.6392   5.9275635824e+01   1.0837405879e+01    0.2371071    0.1976323  63.05  0.001325372    1.462    0.316
        65  -9.8460     69.3478    122.9373   9.7398759236e+01   4.2338265987e+01    0.2357896    0.2130866  26.71 0.0002961413    1.209    0.173
        66  -9.8493    243.7616    118.8979   5.5483936854e+01   8.8250004636e+00    0.2302553    0.1390093 -55.83  0.001088231    1.981    0.495
        67  -9.5660    248.9793    117.9979   5.4523051654e+01   8.0292982378e+00    0.2091417    0.1813316 -28.27 0.0009304879    1.062    0.059
        68 -10.2686    230.8557    115.5113   5.6704911892e+01   1.1831658802e+01    0.3554755    0.1845308 -44.57  0.001594663    1.772    0.436
        69 -11.3711    241.8107    105.5004   5.2802568724e+01   1.1411869289e+01    0.3424653    0.2911694 -30.86   0.00206121    1.092    0.084
        70 -11.7622    248.5755    106.1014   5.1987628790e+01   1.0046354032e+01    0.7115991    0.3250265 -44.61  0.003205786    1.933    0.483
        71  -8.9892     22.3096    114.3130   1.1056406017e+02   4.9559225948e+01    0.1369529   0.08191975 -42.59 0.0002280583    1.628    0.386
        72  -9.6927     26.0218    111.9920   1.0900337081e+02   4.9828379332e+01    0.1961217    0.1639824 -60.77            0    1.004    0.004
        73  -9.6937     15.4930    112.0354   1.1236099906e+02   5.0611455878e+01    0.2097763    0.1699256  60.55 0.0006928307    1.432    0.302
        74  -8.3094    104.9870    111.7806   8.3903494970e+01   3.9173997470e+01    0.1973423    0.1268604  37.99 0.0005685522    1.616    0.381
        75 -10.5704    247.8864    112.8647   5.3561687129e+01   9.0697336746e+00    0.3594704    0.2623923 -16.28  0.001970496    1.533    0.348
        76  -8.9580    120.0761    102.9320   7.7172109076e+01   3.8185705484e+01    0.2273223    0.2099356  88.70   0.00116821    1.254    0.203
        77  -8.2258    230.5369    102.5126   5.3777505910e+01   1.4107890770e+01    0.1399561    0.1228573 -41.64 0.0001476115    1.012    0.012
        78  -8.9706     12.1409    115.1526   1.1385787687e+02   5.0083399053e+01     0.167649    0.1331821  84.91 0.0003541872    1.299    0.230
        79  -8.6187    164.9886     94.7773   6.3720443869e+01   2.9888340675e+01    0.2065829    0.2035033  30.48 0.0004771559    1.035    0.034
        80  -8.6047     72.4830     95.5368   8.9819998189e+01   4.8433157213e+01    0.1462299    0.1327567 -33.63 0.0003052973    1.002    0.002
        81 -11.2873    242.4751     91.6148   4.9615412413e+01   1.3536735870e+01     0.395859    0.2196327 -28.05  0.001861866    1.900    0.474
        82  -9.4656     19.7859     91.3904   1.0736944374e+02   5.5236925032e+01    0.2691523    0.2003814 -34.80  0.001247779    1.289    0.224
        83  -8.5999    210.1889     91.1715   5.4258858454e+01   2.0287161688e+01    0.1972546    0.1626358 -73.10 0.0006139231    1.347    0.258
        84  -9.9130    237.1208     90.0932   4.9995117665e+01   1.4835614286e+01    0.2053948    0.1790408 -16.01 0.0008105599    1.277    0.217
        85  -8.5093     38.2860     89.9750   1.0040343071e+02   5.3987870140e+01    0.1876912    0.1497848 -49.28 0.0003454296    1.065    0.061
        86 -10.9074    243.5246     70.2812   4.4749125646e+01   1.6622240798e+01    0.4692671    0.2039691 -54.56  0.001113396    2.579    0.612
        87 -10.4042    236.1701     62.1898   4.3806866954e+01   1.9309063516e+01    0.5324801    0.2557002 -64.30  0.001292134    3.012    0.668
        88  -9.6142    235.3136     57.0664   4.2754530792e+01   2.0222584552e+01    0.2396737    0.1837365 -60.61 0.0003742332    1.187    0.157
        89 -10.6981    248.5331     87.3271   4.7885677513e+01   1.3043195055e+01    0.4770389    0.1941183 -52.76  0.001863703    2.883    0.653
        90 -11.2881    245.6962     78.3333   4.6263389194e+01   1.4979438019e+01     0.888765    0.3895334 -61.88  0.003021493    4.286    0.767
        91  -9.7874    188.9901     88.0217   5.7111227800e+01   2.5581476209e+01    0.2129649    0.2049029 -53.03  0.001193524    1.012    0.012
        92  -8.7825     27.0207     88.5047   1.0416533521e+02   5.5351925205e+01    0.1771025    0.1294454  18.91  0.001027501    1.583    0.368
        93 -10.4910    238.6120     83.8562   4.8386198448e+01   1.5528849106e+01    0.3061931    0.1954093 -63.10  0.001535559    1.799    0.444
        94  -9.5379    228.9939     84.4917   4.9830980912e+01   1.7388406124e+01    0.2526774    0.1673666  45.00 0.0004172998    1.778    0.438
        95  -9.5164    199.5206     76.8584   5.2404146800e+01   2.5063408231e+01    0.2443712    0.2374221  44.82  0.001003336    1.120    0.107
        96  -8.7400    195.6088     77.2927   5.3159807310e+01   2.5888117153e+01    0.2304744    0.1741588 -33.98 0.0006801612    1.304    0.233
        97 -10.8951    195.5837     82.1186   5.4411028459e+01   2.5088242269e+01    0.3274957    0.2509826  62.64  0.000237404    1.378    0.274
        98 -10.1104    189.0356     82.0628   5.5539584111e+01   2.6603438365e+01    0.2893766    0.2090856  52.11 0.0003785087    1.432    0.302
        99  -8.2247    135.5366     83.4630   6.7382679126e+01   3.8816347220e+01    0.1505377     0.149062 -23.85 0.0002327221    1.043    0.041
       100  -9.1539     87.7269     82.4632   8.0968618092e+01   4.8810990711e+01    0.2824105    0.2411665 -55.36  0.001500519    1.293    0.227
       101  -9.0388     63.4947     82.0858   8.9187607525e+01   5.2754851377e+01    0.2157748    0.1284972 -48.45 0.0004359554    1.536    0.349
       102  -8.5535    174.5352     78.9431   5.7395067217e+01   3.0529928374e+01    0.2180819     0.144061 -36.48 0.0004100107    1.490    0.329
       103  -8.2816     48.9723     79.7596   9.3851412986e+01   5.5148455308e+01    0.1682179    0.1149546  22.46 0.0008799775    1.601    0.375
       104  -9.0577     30.6574     77.2934   1.0017877661e+02   5.7597298143e+01    0.3188218    0.1232615  12.98  0.001212187    3.733    0.732
       105 -10.2747    234.4597     74.5598   4.6815706917e+01   1.7816132540e+01    0.3466559    0.1746839 -52.21  0.001410383    1.990    0.497
       106  -9.9293     20.7852     74.8425   1.0342635739e+02   5.8952567545e+01    0.3244782    0.1438205  36.22  0.001503687    2.789    0.641
       107 -10.3650    129.0258     70.9288   6.5191905129e+01   4.2600292409e+01    0.3830339    0.2824326  22.08 0.0004118664    1.579    0.367
       108  -8.3524     72.0177     72.2938   8.3145179327e+01   5.3549924960e+01    0.2367348    0.1614039 -82.84 0.0009077056    3.424    0.708
       109  -8.9855     59.5207     70.9772   8.7295702648e+01   5.5677531358e+01    0.3171809    0.1124571 -43.45    0.0011917    2.537    0.606
       110  -9.8111     28.8986     71.5109   9.9379418475e+01   5.9030555553e+01    0.2336743    0.1736535 -49.23  0.000306006    1.144    0.126
       111  -8.7002    160.9676     71.2708   5.7937106100e+01   3.5060139557e+01    0.2049686    0.1932616  66.33 0.0004039606    1.067    0.063
       112  -9.6424    113.9206     70.4144   6.9097871664e+01   4.6025324560e+01     0.377194    0.3023736  86.85   0.00181532    1.790    0.441
       113  -9.7482     37.4646     71.0649   9.5850873004e+01   5.8314549769e+01     0.217601    0.1838614  -1.27 0.0003747997    1.223    0.182
       114  -8.2283    211.8590     70.1744   4.8840144005e+01   2.3344820850e+01     0.173135    0.1615871   4.80 0.0003094921    1.266    0.210
       115  -8.7976    204.1536     68.8305   4.9640786661e+01   2.5289606900e+01    0.2080467    0.1782054 -68.61 0.0003741153    1.156    0.135
       116  -8.5880    192.1305     69.5922   5.1728751967e+01   2.7941883251e+01    0.2029635     0.127683  46.54 0.0009363944    1.722    0.419
       117  -9.5867    139.3577     69.1045   6.2071205081e+01   4.0541805323e+01    0.4424179    0.2413343  55.36  0.001123833    1.885    0.470
       118  -8.5424    168.6030     67.7371   5.5403679891e+01   3.3817636472e+01    0.2025778    0.1331342 -45.48 0.0007875378    1.538    0.350
       119  -9.0043    227.3181     66.3609   4.5837050238e+01   2.0554839463e+01    0.2860286    0.2023747  -6.58  0.001418407    2.129    0.530
       120  -9.2440    173.0799     66.8472   5.4308107134e+01   3.2889364818e+01    0.2427779    0.2058728 -36.27 0.0004311752    1.183    0.155
       121  -9.8386    149.1318     66.9565   5.9179313301e+01   3.8601867117e+01    0.2716089    0.2040062  50.48 0.0003954312    1.305    0.234
       122  -9.8369     95.2598     66.3332   7.3331987365e+01   5.0593814216e+01    0.2735791    0.2103697  -7.11  0.000679419    1.420    0.296
       123  -9.3466     38.6274     66.8689   9.4173578074e+01   5.9088468917e+01     0.258117    0.1556769 -14.08  0.001269439    1.974    0.493
       124 -10.2710     15.8135     65.8579   1.0323568968e+02   6.1279613416e+01    0.4276154    0.2091441 -17.97 0.0008402255    2.543    0.607
       125 -10.9109    249.6120     63.2025   4.2525406982e+01   1.6449600392e+01    0.6805635    0.2044767 -35.05  0.002618246    2.974    0.664
       126 -10.8724    243.7876     58.2966   4.2091052111e+01   1.8308811268e+01    0.3938452    0.2640618 -74.18    0.0010192    1.622    0.384
       127  -9.9333    239.8140     31.0372   3.6599287634e+01   2.2737438493e+01    0.2724437    0.1711761 -89.03  0.001559464    1.624    0.384
       128 -11.2302    244.1320     50.4394   4.0350434413e+01   1.9331059969e+01    0.5334925    0.3655237 -26.38  0.002729133    1.647    0.393
       129  -9.5234    237.1629     36.1982   3.7952337312e+01   2.2642670298e+01    0.2584883    0.1580761 -58.08 0.0006567233    1.490    0.329
       130 -10.4769    244.0276     42.0324   3.8556189879e+01   2.0475765753e+01    0.3267275    0.3133008 -49.02    0.0022438    1.246    0.198
       131 -10.2449    246.8485     32.0664   3.6201995548e+01   2.1174179854e+01    0.4150107    0.1832393 -51.21  0.001878536    1.975    0.494
       132 -10.1917    249.9978     40.9850   3.7781263842e+01   1.9411678805e+01    0.2827598    0.2627338  25.24 0.0008993893    1.490    0.329
       133 -10.0371    248.9208     36.6571   3.6976364779e+01   2.0182122357e+01     0.351676    0.2764126  40.88  0.001711127    1.789    0.441
       134  -9.3849     49.4324     65.2552   8.9367428871e+01   5.8182656868e+01    0.2584835    0.1841641 -15.65 0.0007344236    1.432    0.302
       135  -8.8940    208.4228     64.6836   4.7977366524e+01   2.4959067881e+01    0.2183057    0.1626809 -29.24  0.000248836    1.403    0.287
       136  -9.3686    144.4031     64.2933   5.9419247537e+01   4.0163043705e+01    0.2732287    0.2526876 -75.51 0.0007399944    1.183    0.155
       137  -8.5726     66.9585     64.7160   8.2491650631e+01   5.5851179095e+01    0.1840788    0.1667512 -11.77 0.0003944972    1.057    0.054
       138  -9.5551      4.9972     64.5024   1.0738014293e+02   6.2221973546e+01    0.1586297    0.1159844   2.55 0.0006395972    1.556    0.357
       139  -8.8908     81.6016     62.1275   7.6390727963e+01   5.3913685363e+01    0.2846908    0.1809438  18.76  0.001308348    1.862    0.463
       140 -10.7254     39.5476     60.3396   9.1793332907e+01   6.0338915952e+01    0.3122899    0.2618386  37.75  0.000692111    1.490    0.329
       141 -10.4254     34.8619     59.6894   9.3537274979e+01   6.0966019767e+01     0.277435    0.2055348 -38.93 0.0005078818    1.130    0.115
       142  -8.2531      1.0000     61.9420   1.0846409256e+02   6.2970997338e+01    0.2013898   0.05531694 -64.06 0.0008006398    2.930    0.659
       143  -9.6133    134.5413     59.2176   6.0104360368e+01   4.3304839692e+01    0.5238867    0.2288169 -50.55  0.001777796    3.237    0.691
       144 -10.5347     25.7205     59.7416   9.7413844665e+01   6.1813519107e+01    0.3848315    0.3407727  52.90  0.002518396    1.564    0.360
       145  -9.0119    185.4416     60.5610   5.0424758126e+01   3.0919889344e+01    0.3303249     0.120251  53.62  0.001209022    2.661    0.624
       146  -8.8932    174.9200     57.8184   5.1448129715e+01   3.3849032769e+01    0.4559167    0.2659751  -2.24  0.001602607    3.626    0.724
       147 -10.3537    100.8514     62.6056   7.0330651823e+01   5.0154562785e+01    0.3951855    0.3062803 -60.23  0.001274403    1.692    0.409
       148 -10.1740     63.5843     56.2668   8.0832533841e+01   5.7975070337e+01    0.3593722     0.296511  82.04 0.0008204362    2.093    0.522
       149  -7.9688      5.3440     58.3188   1.0577449443e+02   6.3527533626e+01    0.1339638   0.06616736 -36.39 0.0007049327    1.722    0.419
       150  -9.5767    192.2042     55.9112   4.8122557996e+01   3.0011996208e+01    0.3057916    0.2177298 -66.95 0.0009319664    1.546    0.353
       151  -8.0905     89.9115     57.0036   7.1816059636e+01   5.3292892905e+01    0.1671052    0.1448925  24.99 0.0003242311    1.109    0.098
       152  -9.2728     20.1748     57.0921   9.9024323827e+01   6.2815524852e+01    0.2020413    0.1337056 -37.12 0.0008799424    1.226    0.185
       153  -9.9648    208.1227     55.0533   4.5631995551e+01   2.6448744779e+01    0.2667052    0.2311794  71.00 0.0008339396    1.172    0.147
       154  -9.3833    204.9484     51.7841   4.5245819846e+01   2.7638920826e+01     0.243583     0.216088 -31.43 0.0003699329    1.210    0.174
       155  -9.6684    207.3381     48.1016   4.4017178950e+01   2.7604057603e+01    0.2327434    0.1971807 -61.15 0.0003527757    1.090    0.083
       156  -9.6630    112.5889     54.6807   6.4205967560e+01   4.9007357675e+01    0.3765256    0.2944833  61.43  0.001875441    1.452    0.311
       157 -10.2030    241.2166     36.6491   3.7669742731e+01   2.1745414790e+01    0.3307371    0.2470247  13.95  0.001476057    2.307    0.567
       158  -8.9726     28.6067     54.1255   9.4453929368e+01   6.2698109195e+01    0.2579418    0.1134143 -41.20  0.000878886    1.885    0.470
       159  -9.1613    142.6002     53.9916   5.6611236673e+01   4.2211520732e+01    0.2647127    0.1843959  40.34 0.0004043493    1.459    0.314
       160  -9.5781    124.9542     54.0181   6.0739461759e+01   4.6340744473e+01    0.2197717    0.2036171  22.73 0.0004277104    1.038    0.037
       161 -10.1694      9.8533     52.4335   1.0225294815e+02   6.4493720210e+01    0.2401007    0.2176066  17.39 0.0008348069    1.384    0.278
       162  -8.9084    184.8335     51.7305   4.8141945876e+01   3.2362198173e+01    0.2387502    0.1967383 -19.50  0.001306055    1.380    0.275
       163  -8.3573    153.3101     52.6762   5.3972866287e+01   3.9834691612e+01    0.1479951    0.1104794 -70.57 0.0007038028    1.653    0.395
       164  -8.3395    227.6580     51.3140   4.2319225556e+01   2.2651287769e+01    0.1407567   0.08755902 -65.50  0.000704733    1.705    0.414
       165  -9.9857    120.2381     50.5241   6.0753712240e+01   4.7948608410e+01    0.2442209     0.229255   5.16 0.0002831094    1.050    0.048
       166  -9.0897     84.4575     51.1432   7.1493640654e+01   5.5317666178e+01    0.2389454    0.1906992  46.99 0.0009161186    1.388    0.280
       167  -9.2398     79.9920     49.8113   7.2515833366e+01   5.6361588272e+01    0.3041267     0.190747  26.01  0.001476633    1.674    0.403
       168  -9.5510     72.9218     50.0375   7.5093467378e+01   5.7569530945e+01    0.3758908    0.2464944 -11.69  0.001848391    1.742    0.426
       169 -10.0154    192.6421     49.0117   4.6250027787e+01   3.0891870384e+01    0.3036055    0.2546143  85.27 0.0009212534    1.174    0.148
       170  -9.3535    237.6808     48.1887   4.0523168183e+01   2.0960955644e+01    0.2085532    0.1326223 -52.01 0.0007663645    1.385    0.278
       171  -9.0953    213.3659     47.5480   4.3124960647e+01   2.6313805415e+01    0.2865536    0.1779174 -73.64  0.001074389    1.879    0.468
       172  -8.4941     92.6144     47.8220   6.7625429688e+01   5.4274915424e+01    0.1971687    0.1268763 -42.50 0.0009522982    1.709    0.415
       173  -8.4704    109.2153     46.8681   6.2401590806e+01   5.0947418911e+01    0.1951945    0.1537866  23.39 0.0009602914    1.275    0.216
       174  -9.3805     41.4019     46.7477   8.6364931019e+01   6.2750129237e+01    0.2625572    0.1906083  52.10  0.001428719    2.192    0.544
       175  -8.7570     20.2447     47.4055   9.6024352029e+01   6.4756209140e+01    0.1478865    0.1110961  24.03 0.0003766612    1.547    0.353
       176  -9.5261    233.8060     45.3119   4.0290478069e+01   2.2159404537e+01    0.2220074    0.1466148 -49.84 0.0005455372    1.326    0.246
       177  -9.8301    154.7919     43.0503   5.0766957123e+01   4.0827712810e+01    0.6707389    0.3345171 -61.23  0.002336483    3.542    0.718
       178  -9.0296     55.2778     45.1940   7.9992280556e+01   6.1187503643e+01    0.2712503   0.09967852 -36.43  0.001077042    2.627    0.619
       179 -10.6371     31.9549     43.6117   8.9384718254e+01   6.4386050926e+01    0.5706815     0.319967  17.62  0.002068373    1.893    0.472
       180  -8.4585    174.0416     44.1961   4.7775597427e+01   3.6000214653e+01    0.1843942    0.1490691   3.53 0.0002437486    1.566    0.361
       181  -8.7678    139.0462     43.9137   5.4166020821e+01   4.4508309708e+01    0.2456611    0.1916537  14.97 0.0003143957    1.496    0.332
       182  -9.6845    140.5148     40.5093   5.2763715256e+01   4.4614196330e+01    0.3243473    0.1609726  50.82  0.001396474    1.852    0.460
       183  -9.8515      3.5304     43.4604   1.0260804076e+02   6.6667896259e+01    0.2397815   0.09337904 -56.82 0.0006091812    2.079    0.519
       184  -9.3007     96.8161     43.1699   6.4613242974e+01   5.4127255249e+01    0.2430564    0.1904139  29.57 0.0006949697    1.197    0.165
       185  -8.5094    162.8833     42.3496   4.9106611559e+01   3.8954519097e+01    0.2037514    0.1152348  51.23 0.0005385621    1.700    0.412
       186  -9.0093    134.9875     43.5684   5.4929420144e+01   4.5521592494e+01    0.3216323    0.1536964 -46.75  0.001272583    2.522    0.604
       187  -8.7942     67.8737     41.9321   7.3837135261e+01   5.9757221711e+01    0.2075038     0.161738   0.99 0.0004694881    1.204    0.169
       188  -8.3993    164.4442     45.9573   4.9889944341e+01   3.8088369883e+01    0.2046901    0.1042109 -53.67 0.0008068149    2.453    0.592
       189  -8.4965    127.2398     41.4035   5.5952258924e+01   4.7639716414e+01    0.1924372    0.1329918  65.84 0.0004530799    1.561    0.360
       190  -8.9932    223.8456     40.0820   4.0163717933e+01   2.4986856715e+01     0.216136    0.1537828 -61.95  0.001242159    1.306    0.234
       191  -8.6381    106.5463     39.9254   6.0633042513e+01   5.2523063076e+01    0.1916227    0.1350631 -28.25 0.0003186851    1.468    0.319
       192  -8.8078     91.1511     40.6334   6.5386793822e+01   5.5650860075e+01    0.3332089    0.1253096  48.72  0.001279249    2.604    0.616
       193  -9.4564     18.3748     39.9889   9.4400190142e+01   6.6326141891e+01    0.4240641    0.1262342  29.71  0.001800498    3.592    0.722
       194  -8.7491    197.2863     48.4324   4.5443203437e+01   2.9881824760e+01     0.244879     0.135558  72.38 0.0009850654    1.934    0.483
       195  -9.2742    119.7658     38.9520   5.6880261266e+01   4.9697072933e+01    0.2220997    0.1862542  53.67 0.0004131732    1.158    0.137
       196  -9.4874    113.2974     36.5903   5.7649486971e+01   5.1475986788e+01    0.3839516    0.2650813 -34.27  0.001877687    1.539    0.350
       197  -9.5267     61.3960     38.2393   7.4828106822e+01   6.1399622334e+01    0.2648104     0.222348 -32.39  0.001083566    1.291    0.225
       198  -9.9616     51.7963     37.5483   7.8402691346e+01   6.2966601631e+01      0.25299    0.1965858 -26.81 0.0005880504    1.188    0.159
       199  -9.6526    215.6434     37.8433   4.0541097226e+01   2.7087855539e+01    0.3202718    0.2208112 -47.60 0.0008222287    1.331    0.248
       200  -9.4437    211.9880     37.5135   4.0876135638e+01   2.7951413277e+01    0.2494825    0.1887459 -82.77 0.0008742095    1.291    0.225
       201  -9.5863     99.5126     37.0158   6.1520759684e+01   5.4431678693e+01    0.3077824    0.1190939 -38.09  0.001197391    2.751    0.637
       202 -10.6064    124.3805     35.2266   5.4502335330e+01   4.9113205993e+01    0.4343463    0.2470267 -32.97  0.002040678    1.849    0.459
       203  -8.5909    192.7658     36.4272   4.2959763995e+01   3.2531700469e+01     0.187788    0.1159984  56.29 0.0009434044    1.607    0.378
       204  -8.1542     20.4708     36.5076   9.2141864690e+01   6.6787899991e+01     0.125059   0.09435785 -24.54 0.0001133547    1.035    0.034
       205  -8.6044     12.4316     35.7950   9.5815403137e+01   6.7567764790e+01    0.1740303   0.08318417 -40.80 0.0009399899    1.621    0.383
       206 -10.2399      4.8567     33.7435   9.8897419661e+01   6.8458317875e+01     0.335904    0.1720732 -57.88   0.00186013    1.935    0.483
       207  -8.9419    165.7288     35.0913   4.6516872253e+01   3.9193180644e+01     0.203868     0.173012 -70.69 0.0004960277    1.221    0.181
       208  -9.2948    152.9592     34.0821   4.8370849083e+01   4.2422677403e+01    0.3378157    0.2670884  87.66  0.001840681    1.368    0.269
       209  -9.7018     92.4054     35.5226   6.3041404903e+01   5.6113323642e+01    0.4169096    0.1257631  49.89  0.001464527    3.147    0.682
       210  -8.4995     33.5467     33.7462   8.4868545916e+01   6.5949355218e+01    0.1637333    0.1104132 -46.93 0.0009402457    1.639    0.390
       211 -10.1675    134.1719     32.3228   5.1398666002e+01   4.7163843910e+01    0.2320236    0.2258664  31.29 0.0003003414    1.063    0.060
       212  -9.8199     68.4543     30.6177   6.9025315696e+01   6.1343902850e+01    0.4745696    0.2733973 -49.49  0.002189504    2.660    0.624
       213  -8.5911     59.4730     33.4609   7.3618541108e+01   6.2437677844e+01    0.1320842    0.1093853   0.60 0.0001232771    1.009    0.009
       214  -9.2738     39.4538     32.5327   8.1673470086e+01   6.5441486479e+01    0.2233198    0.1768072 -11.44 0.0006403857    1.017    0.017
       215 -10.0916     20.4790     31.9321   9.0400913314e+01   6.7599586999e+01    0.2656305    0.2185641  10.85  0.001159718    1.317    0.241
       216  -9.3621     24.0000     31.0044   8.8305410385e+01   6.7426382874e+01    0.3153489    0.1173554 -44.19 0.0003151651    2.293    0.564
       217  -9.5012    211.7760     31.6849   3.9508364885e+01   2.8729341515e+01    0.2388882    0.1868309 -72.86 0.0007297866    1.185    0.156
       218 -10.3740     13.3757     30.5888   9.3440075481e+01   6.8437749369e+01    0.3020914    0.2153355  16.04  0.001244215    1.499    0.333
       219 -10.1720      8.5416     26.2766   9.4288891843e+01   6.9560030768e+01    0.3093164    0.2296215 -29.41  0.001051034    1.048    0.045
       220  -8.0999     47.2744     30.3710   7.7323910052e+01   6.4737710313e+01    0.1338288   0.08394375  -8.34 0.0007003719    1.681    0.405
       221  -9.0622    233.2124    247.1375   8.2475114300e+01  -9.4032722812e+00    0.2003629     0.147585  46.54  0.001251851    2.132    0.531
       222  -8.8899    167.1967     28.8714   4.4499095785e+01   3.9582992737e+01    0.2052572    0.1706478 -73.88 0.0005409568    1.236    0.191
       223  -9.0318     84.8617     29.0702   6.2819282876e+01   5.8480704047e+01    0.2414033    0.1751841  32.88 0.0009636658    1.243    0.196
       224  -8.2858    249.2653    246.6353   7.9582186291e+01  -1.1339004807e+01   0.09506652   0.08602162 -16.60  0.000368486    1.648    0.393
       225  -9.3449    225.3502    242.8391   8.3190601239e+01  -7.8221014863e+00    0.2557614     0.202439 -45.27  0.001529018    1.894    0.472
       226  -9.8184    246.9656    240.4772   7.8955836051e+01  -1.0305347364e+01    0.2534798    0.1760921 -21.22  0.001108515    1.314    0.239
       227 -10.3817    246.2338     23.3786   3.4459301340e+01   2.2349430308e+01    0.3791291    0.2183058 -84.68  0.001242749    1.783    0.439
       228  -8.7495    174.8958     26.7631   4.2790953087e+01   3.7963872509e+01    0.3609966    0.1298918 -45.05  0.001384587    2.930    0.659
       229  -8.9675    156.9445     29.0000   4.6153205395e+01   4.2058969783e+01    0.2315718   0.07242724  63.51 0.0008036002    2.951    0.661
       230  -9.2338    130.2635     26.5722   5.0279037784e+01   4.8762171533e+01    0.4630502     0.148857 -46.85  0.001357989    5.278    0.811
       231  -9.2961    123.7490     26.8283   5.1739515315e+01   5.0265872786e+01    0.2939312     0.184036 -21.61 0.0008617548    1.765    0.434
       232  -9.9455     51.9552     26.0624   7.3480432819e+01   6.4683941916e+01    0.4426522    0.1702316 -38.43  0.001948748    2.623    0.619
       233  -9.9908    137.0001     25.7201   4.8664855944e+01   4.7252490138e+01    0.2433828    0.1958748 -26.53  0.000433713    1.353    0.261
       234  -9.0856     37.8997     26.0614   7.9614963021e+01   6.6652771771e+01     0.223264    0.1414486 -25.60  0.000689572    1.384    0.277
       235  -8.4527    234.7501     26.5962   3.6097108419e+01   2.4333144117e+01    0.1704921    0.1042834 -88.58 0.0009456287    1.658    0.397
       236 -10.0280    218.7168     25.9054   3.7439322221e+01   2.7874483837e+01    0.2122421    0.1758626  84.00 0.0002966511    1.142    0.125
       237  -7.9321    170.5009     26.5135   4.3343317392e+01   3.9053706352e+01    0.1340351    0.1222357  80.59 6.707344e-05    1.000    0.000
       238  -9.7429    142.6439     23.4691   4.6896627408e+01   4.6142463690e+01    0.4023571    0.2636673 -28.53  0.002102171    1.657    0.397
       239  -8.7031    105.3027     26.0275   5.5807353175e+01   5.4554481083e+01    0.1801893    0.1583121  -6.44 0.0003692649    1.171    0.146
       240  -9.7754     63.0871     25.6011   6.8875534998e+01   6.2951873051e+01    0.2422387    0.1887151  20.14 0.0004840365    1.124    0.110
       241  -9.2552    192.9596     24.3867   3.9847076020e+01   3.3932108559e+01    0.2923013    0.1877141  -3.29  0.001410013    2.459    0.593
       242  -9.4625     78.1243     23.6985   6.2767985240e+01   6.0463224306e+01    0.4415664    0.2077184 -32.79  0.002069696    2.202    0.546
       243 -10.5603    157.3122     22.9855   4.4299759790e+01   4.2643243986e+01    0.3008788    0.2322983  67.55 0.0002870911    1.182    0.154
       244  -8.6443    161.3287     22.2998   4.3483557854e+01   4.1742905833e+01    0.2075981    0.1726336  15.50  0.001203884    1.448    0.309
       245  -9.5117    103.1161     20.7632   5.4367118577e+01   5.5620787262e+01    0.3002549    0.1914267 -28.26 0.0008626511    1.683    0.406
       246  -9.9674     17.0150     21.9951   8.8087953220e+01   6.9584995060e+01    0.2169641    0.2136182  18.70  0.001345494    1.654    0.396
       247  -9.2911    243.8344    236.7824   7.8877708126e+01  -9.4465364199e+00    0.1719479     0.145566  12.35 0.0007146941    1.334    0.250
       248  -9.5466    240.2715    240.3892   8.0110604166e+01  -9.4530162855e+00     0.226942    0.1857885 -28.50 0.0009365721    1.523    0.343
       249  -8.3359      1.6864    241.6898   1.2636901559e+02   2.2587374240e+01   0.09064455   0.07580889 -62.53 0.0004106238    1.630    0.387
       250  -8.1537    214.4962    240.5170   8.4812596514e+01  -6.0291638678e+00    0.1240382   0.09667165   8.55 0.0001102974    1.011    0.011
       251  -9.6197    230.7741    236.4425   8.1142895193e+01  -7.7000729728e+00    0.2928129    0.1945328 -36.36  0.001422514    1.695    0.410
       252  -9.6645    239.4409     19.9640   3.4294653455e+01   2.4134653942e+01    0.2493408    0.2250907  31.23  0.001682543    1.566    0.361
       253  -8.9861    205.1405    235.6956   8.5791034837e+01  -4.0177626773e+00    0.1956152    0.1714335 -31.57  0.001315051    1.410    0.291
       254  -9.3147    249.0850    234.2652   7.7536599491e+01  -9.7875269145e+00    0.2003985    0.1491811 -25.26  0.000780702    1.376    0.273
       255  -8.7306    232.1942     20.8092   3.5072968642e+01   2.5552493146e+01    0.1851434    0.1361532 -62.86 0.0004285374    1.166    0.143
       256  -9.8092    244.8468    230.6158   7.7644339773e+01  -8.7777584496e+00    0.3234498    0.1516309 -38.50  0.001701473    2.268    0.559
       257  -9.3881     70.9717     20.4081   6.3763901235e+01   6.2205079020e+01    0.2764297    0.1872051 -41.73 0.0009163023    1.871    0.466
       258  -8.4590     73.2304     17.0086   6.1514872871e+01   6.2173244813e+01    0.2620953    0.1515164  11.26 0.0009287169    2.079    0.519
       259  -9.6896    170.3366     17.9000   4.0956085081e+01   4.0030159064e+01    0.4993755    0.1633918  56.11  0.001618933    2.638    0.621
       260  -9.8734    236.9384    229.7620   7.8893587800e+01  -7.6274220922e+00    0.3280874    0.2892805 -59.89  0.002146001    2.118    0.528
       261 -10.1222    248.5286    227.2416   7.6417023687e+01  -8.8079428353e+00    0.3262349    0.1890741 -31.70  0.001548698    1.630    0.387
       262 -10.2372    229.3235    228.0549   7.9971863188e+01  -6.3608782902e+00    0.2595935    0.1886036 -26.53 0.0009697194    1.348    0.258
       263  -9.9977    227.5737    219.5304   7.8791761035e+01  -4.9037471434e+00    0.4150718    0.2898956 -42.18  0.002452924    1.747    0.428
       264 -10.4526    238.7650    219.3952   7.6741651342e+01  -6.4482338925e+00    0.4596924    0.2751088 -35.76  0.002063836    1.685    0.406
       265 -11.0916    247.8522    216.3347   7.4594104372e+01  -7.2489484447e+00    0.6280946    0.2711655 -31.50  0.003066462    2.101    0.524
       266 -10.4262    213.7917    213.8371   8.0354394562e+01  -2.0181101886e+00    0.3248564    0.1700263 -42.12  0.001602931    2.078    0.519
       267 -10.1075     50.7213     18.1310   7.0405123576e+01   6.5939479558e+01    0.3800283    0.1855226  37.26  0.001237753    1.920    0.479
       268  -9.5154     45.1008     17.3051   7.2401066299e+01   6.6897567834e+01    0.3137954    0.1883802  10.72  0.001469476    1.735    0.424
       269  -8.0300    151.5201     18.5605   4.3878527068e+01   4.4512286603e+01    0.1330552    0.1193451  73.11  7.57513e-06    1.033    0.032
       270 -10.3621    121.7887     17.6589   4.8954773964e+01   5.1699375047e+01    0.2257261    0.2119214  72.75 0.0001548982    1.139    0.122
       271 -10.8197     23.7148     17.8244   8.2762474412e+01   6.9563613172e+01    0.4446561    0.1687997  28.32  0.001605621    2.646    0.622
       272  -9.6084    208.9775     16.0553   3.6105658333e+01   3.1167502328e+01    0.2050103      0.15397 -42.24 0.0007858266    1.320    0.242
       273  -9.7790    232.9244    212.3002   7.6506176417e+01  -4.6118901778e+00    0.3244566    0.2057208 -22.62  0.001527593    1.434    0.303
       274  -9.3154    241.0090    209.5115   7.4545066071e+01  -5.3495714354e+00    0.2456625    0.1493979 -48.32  0.001266386    2.387    0.581
       275  -9.2564    235.3467    203.4432   7.4423394634e+01  -3.6427801768e+00    0.2369187    0.1439301 -34.78 0.0007443495    1.562    0.360
       276 -10.0596    250.0726    200.6113   7.1306873626e+01  -5.3204694649e+00    0.4091789    0.1570879 -34.01  0.001863708    2.314    0.568
       277 -10.4911    247.2177    193.7806   7.0494833092e+01  -3.9078468303e+00     0.358302       0.2761 -28.15  0.002258143    1.228    0.186
       278  -9.6924    242.4907    200.2460   7.2550143554e+01  -4.1971251781e+00    0.2914548    0.1852181 -34.68  0.001033083    1.492    0.330
       279  -9.8630    231.4076    193.7829   7.3289555641e+01  -1.5625200753e+00    0.2571108    0.2141135 -19.99  0.001254695    1.132    0.116
       280  -8.6353     40.2993     15.3306   7.3588895799e+01   6.7845407986e+01    0.1957107    0.1393504  -6.22 0.0006528146    1.198    0.165
       281  -9.1093    237.6230    191.8343   7.1794136375e+01  -2.1998898839e+00    0.2382105    0.1639355 -43.28  0.001067034    1.655    0.396
       282  -7.9464    216.2737     13.7184   3.4893822591e+01   2.9790279856e+01    0.1247778   0.07824194 -64.99 0.0002072922    1.500    0.333
       283  -9.0874    192.9284     13.0282   3.6990112460e+01   3.5170147777e+01    0.2300653    0.1563928  63.68  0.000831177    1.388    0.280
       284 -10.2087     33.3053     12.7434   7.5583895644e+01   6.9131471145e+01     0.200842    0.1387726  23.96 0.0006228749    1.346    0.257
       285 -10.5507    237.2240    187.2718   7.0971962732e+01  -1.4234920666e+00    0.3613427    0.2277426 -40.65  0.001587793    1.621    0.383
       286  -9.5901    249.7239    184.5258   6.8269944626e+01  -2.8675241018e+00    0.3806829    0.1707346 -43.67  0.001722043    2.417    0.586
       287  -8.7895    230.4739    186.0481   7.1941623030e+01  -1.7983153363e-01    0.2066553    0.1171836 -34.30  0.001036659    1.605    0.377
       288  -9.1239    224.4111    184.1077   7.2668101885e+01   1.1075390717e+00     0.308911    0.1143614 -45.78  0.001137951    3.203    0.688
       289 -11.0854    242.5236    180.1841   6.8638685802e+01  -1.1125112785e+00    0.4996248    0.2741989 -41.58  0.002514426    1.813    0.448
       290 -10.1573    123.3918     10.6218   4.6181931825e+01   5.1988688068e+01    0.2980932    0.1140593  63.73  0.001224495    2.358    0.576
       291  -8.9539    210.2910    188.3297   7.6198184943e+01   2.7192161491e+00    0.1420833   0.09716813  -4.48 0.0003556884    1.624    0.384
       292  -9.6532    226.3770    178.6088   7.1196332427e+01   1.7049308078e+00    0.2687596    0.2089994 -10.14    0.0008737    1.177    0.151
       293  -9.7547    233.1997    174.3111   6.9086869261e+01   1.3087304299e+00    0.3030586    0.1610665 -36.76  0.001462088    1.697    0.411
       294  -9.6343    225.6631    172.7706   7.0131576893e+01   2.8093340313e+00    0.3419545    0.2172327 -32.22  0.001763766    1.420    0.296
       295  -9.0402    250.5512    172.0146   6.5643850202e+01  -1.0463465838e+00    0.2038282      0.10912 -33.25  0.001027633    1.595    0.373
       296  -9.4490    237.3590    169.4193   6.7351529108e+01   1.4436976295e+00    0.2644836     0.145938 -37.82  0.001163685    1.633    0.388
       297 -10.5474    246.4217    167.4648   6.5406369446e+01   3.1657267415e-01    0.3656731     0.257877  -7.17  0.002047695    1.450    0.310
       298  -9.5607    246.2444    162.2767   6.4370194366e+01   1.1847055360e+00     0.277658    0.1142502 -42.16  0.001149887    2.290    0.563
       299  -9.6924    246.0253    157.9703   6.3513590852e+01   1.9232740291e+00    0.2604975    0.2192256 -33.13  0.001130449    1.161    0.138
       300  -8.8456    234.3677    164.1801   6.6786665257e+01   2.8090284965e+00    0.1958715    0.1132045 -43.40 0.0009447958    1.723    0.420
       301  -8.7273    240.6175    163.2023   6.5505430801e+01   1.9413861438e+00    0.1971603    0.1101756 -27.59 0.0009489087    1.662    0.398
       302  -9.1034    250.6469    158.0197   6.2772699246e+01   1.1735558947e+00    0.2984605    0.1066768 -37.16  0.001214148    2.382    0.580
       303 -10.2708    250.0811    151.4399   6.1496061274e+01   2.3331445840e+00     0.471013    0.1598035 -39.96  0.001861188    2.544    0.607
       304  -9.1254    226.6533    156.9109   6.6612294481e+01   5.3753100578e+00    0.2398559    0.1860128  16.07  0.001302823    1.369    0.270
       305  -9.4369    242.4774    153.0213   6.3060557279e+01   3.3255603464e+00    0.3053424    0.1794495 -37.50  0.001012188    1.485    0.326
       306 -11.2031    244.1958    148.2596   6.1771114063e+01   3.8312701201e+00    0.6320634    0.3002736 -27.39  0.002636677    2.182    0.542
       307  -9.1065    234.9933    147.4978   6.3132649900e+01   5.5407476635e+00     0.170425    0.1257199  79.14 0.0008096852    2.465    0.594
       308 -10.2588    224.1572    146.0394   6.4693390447e+01   7.7369565138e+00    0.3488336    0.1894656 -37.30  0.001596756    1.649    0.394
       309  -9.3004    230.4106    140.6833   6.2424639157e+01   7.5383970521e+00    0.2744509    0.1188525 -41.16  0.001127621    2.076    0.518
