#   1 NUMBER                 Running object number                                     
#   2 MAG_AUTO               Kron-like elliptical aperture magnitude                    [mag]
#   3 X_IMAGE                Object position along x                                    [pixel]
#   4 Y_IMAGE                Object position along y                                    [pixel]
#   5 X_WORLD                Barycenter position along world x axis                     [deg]
#   6 Y_WORLD                Barycenter position along world y axis                     [deg]
#   7 A_WORLD                Profile RMS along major axis (world units)                 [deg]
#   8 B_WORLD                Profile RMS along minor axis (world units)                 [deg]
#   9 THETA_WORLD            Position angle (CCW/world-x)                               [deg]
#  10 FWHM_WORLD             FWHM assuming a gaussian core                              [deg]
#  11 ELONGATION             A_IMAGE/B_IMAGE                                           
#  12 ELLIPTICITY            1 - B_IMAGE/A_IMAGE                                       
         1 -12.5122    199.0549     40.5264   4.3512469120e+01   3.0791193252e+01    0.9521316    0.9087816 -77.70  0.003579872    1.122    0.109
         2 -12.5504    209.2157     30.3910   3.9798425115e+01   2.9698703303e+01    0.8044208    0.7576333  14.39  0.001900644    1.390    0.281
         3 -10.7130     32.8280     27.7392   8.2287185559e+01   6.7908815882e+01    0.4395711    0.1111799 -40.98  0.001678943    3.517    0.716
         4 -11.2452    236.5389      5.8215   3.1899843975e+01   2.6437873749e+01    0.5361642    0.5179133  -4.14  0.003972703    1.481    0.325
         5 -10.8875    230.5828      4.1490   3.1951188220e+01   2.7886113489e+01    0.5097317    0.3278596 -42.64  0.003155809    1.437    0.304
         6  -9.9706    107.9057    203.9347   1.0144736991e+02   1.7562034935e+01    0.3309908    0.2538496 -26.80  0.001396865    1.804    0.446
         7 -12.0826     55.0153    187.5855   1.1157239020e+02   2.9034997030e+01    0.8535546    0.6783925  87.43  0.004714215    1.108    0.098
         8 -14.5993     45.8182    199.8741   1.1495190277e+02   2.7340032333e+01     11.56348     3.578277  53.18   0.04320972    3.444    0.710
         9  -9.3215    164.0080    216.2279   9.1124283715e+01   5.6623098706e+00    0.1971413    0.1477846 -12.70  0.001062393    1.617    0.382
        10  -9.8747     61.9616    199.5040   1.1131232778e+02   2.5383887156e+01    0.3611995    0.2161775 -62.19 0.0005508694    1.660    0.398
        11  -8.2607     66.0738    194.4666   1.0979741782e+02   2.5980495953e+01    0.1874614    0.1594293  62.72 0.0004359441    1.083    0.076
        12  -8.6916    193.9917    196.7353   8.1523947034e+01   4.0003702191e+00    0.2221675    0.1536633 -80.19 0.0008915953    3.477    0.712
        13  -8.0269    120.1214    194.1495   9.7154314911e+01   1.7632502501e+01    0.1915722    0.1595256  83.36 0.0004553569    1.312    0.238
        14  -8.4716    149.4626    187.7040   8.9312689134e+01   1.3760315298e+01    0.2551793    0.1435044 -54.54 0.0007711211    1.968    0.492
        15  -8.3180     99.6061    180.6118   9.9849801455e+01   2.4156383555e+01    0.1945063    0.1667127 -21.89  0.000539302    1.490    0.329
        16  -9.2433     65.9811    179.7372   1.0797775872e+02   2.9449438078e+01    0.3030063    0.1967267  66.41   0.00097405    1.604    0.376
        17  -9.0257     42.6959    179.8645   1.1362734167e+02   3.2353339472e+01    0.1847468    0.1753501  49.93 0.0003136397    1.266    0.210
        18 -10.5029     69.3898    173.4474   1.0627056284e+02   3.0491869238e+01    0.4587405     0.295431 -34.52  0.001678601    2.268    0.559
        19 -10.3221     73.8092    168.8909   1.0448002177e+02   3.0970661100e+01    0.3475143    0.2693504 -45.63  0.001117773    1.451    0.311
        20  -7.9355    189.7609    178.7711   7.8864115300e+01   8.0398897729e+00    0.3232639    0.1780384 -64.49  0.001059996    4.212    0.763
        21  -9.2211    114.5232    173.6686   9.4995138803e+01   2.3221476957e+01    0.2641455    0.1338388  38.94 0.0007534632    1.950    0.487
        22  -7.7797    146.4890    171.9774   8.6979732626e+01   1.7666782830e+01     0.213633    0.1336027 -74.52 0.0008104544    2.644    0.622
        23 -11.8773     57.8823    130.1770   1.0239461661e+02   4.2812728287e+01     1.184993    0.4634301 -72.97  0.003772323    3.686    0.729
        24 -12.8073     68.7943    144.2948   1.0179080506e+02   3.7794390717e+01     2.472885     1.135351  65.41  0.003115817    5.233    0.809
        25 -14.7331     19.2881    250.1264   1.2371317193e+02   1.9957573158e+01     3.378603    0.9599016  27.56   0.01039297    8.735    0.886
        26 -15.7687      6.4149    204.1503   1.2357136313e+02   3.0529768929e+01     19.07332     1.224737 -76.43    0.0285476   11.510    0.913
        27 -10.4195     88.8192    153.4408   9.7924429258e+01   3.2471064053e+01    0.5920434    0.4192967 -24.87  0.001636587    2.020    0.505
        28  -9.6361     53.8551    148.7331   1.0670802126e+02   3.8659552957e+01     0.440572    0.2525114  88.80  0.001918955    2.163    0.538
        29  -7.7736    175.4570    149.4905   7.5589396357e+01   1.6663516498e+01    0.1501172    0.1455207 -37.37 7.607955e-05    1.039    0.037
        30  -9.0083    134.4861    148.5102   8.4944698851e+01   2.5300089043e+01    0.2725962    0.1508451 -49.40 0.0007752645    1.788    0.441
        31  -9.2187     38.6344    146.2427   1.1055060487e+02   4.1032040349e+01    0.2914914    0.2035841  57.46 0.0007487944    1.505    0.336
        32  -9.5919    102.3585    139.3331   9.1381666888e+01   3.3628208542e+01    0.4823948    0.3409262 -20.47  0.002078989    2.045    0.511
        33 -10.7616     90.1850    138.6900   9.4647613103e+01   3.5896524617e+01    0.3053002     0.269933 -31.22 0.0005430066    1.257    0.204
        34  -9.1377    106.0595    130.8789   8.8454567770e+01   3.5003067533e+01    0.3416216     0.299764  65.16  0.001099583    1.212    0.175
        35  -9.5428     31.2457    129.4863   1.1025086355e+02   4.5952524664e+01    0.4061786    0.2551391  61.24  0.002084051    1.844    0.458
        36  -9.5430    112.0024    129.6795   8.6523258787e+01   3.4165431343e+01    0.3307548    0.2698363  32.92 0.0008922931    1.316    0.240
        37  -8.4261     35.7528    166.9873   1.1389796681e+02   3.6223248698e+01    0.1858007    0.1422337 -83.08 0.0002764339    1.108    0.098
        38  -9.2854     99.0484    125.6474   8.9219011949e+01   3.7553407303e+01    0.3086254    0.2564822   2.92  0.001004331    1.496    0.331
        39  -8.0086     92.8023    125.5506   9.1009195667e+01   3.8682715315e+01    0.2091933    0.1397648  52.87 0.0009304099    1.674    0.403
        40  -8.3843     67.4600    124.4907   9.8370708594e+01   4.2942177606e+01    0.1459994    0.1316595 -59.58 0.0002422899    1.024    0.023
        41  -9.8900    119.5648    122.9900   8.2818135147e+01   3.4251334103e+01    0.3552828    0.2251716 -19.38  0.001300755    2.636    0.621
        42  -8.3930    108.0280    118.9383   8.5007985154e+01   3.7480145021e+01    0.2286695    0.2178839 -33.37 0.0003917801    1.067    0.062
        43 -11.1425     82.2285    160.3341   1.0091122229e+02   3.1812373208e+01     1.042427    0.5104201  62.31 0.0005055774    3.180    0.686
        44  -8.8481    134.8138    112.2266   7.5978514718e+01   3.3482837399e+01    0.3703115    0.1140016 -49.76  0.001032042    3.589    0.721
        45  -9.2144    115.0000    108.4498   8.0287808215e+01   3.8521003576e+01    0.3549008   0.08657896 -46.94 0.0009386645    3.966    0.748
        46 -10.2057     31.7896    107.9878   1.0648368471e+02   5.1207273925e+01    0.2494117    0.2025451  29.74  0.001374242    1.439    0.305
        47 -12.0062     70.5471    155.1353   1.0316429698e+02   3.4834255638e+01    0.5811025    0.4859186 -28.12  0.001050807    1.491    0.329
        48  -8.1924    205.3015    110.0549   6.0247183775e+01   1.8056866373e+01    0.2123041    0.1863523 -48.22 0.0009594648    1.065    0.061
        49 -10.0211     32.9210     98.0984   1.0415069151e+02   5.3488683514e+01    0.5162855    0.1334214 -65.32  0.001620878    3.936    0.746
        50  -8.3588    168.8978    235.9159   9.3224277473e+01   1.5049593316e+00    0.1840829    0.1534787   5.13 0.0004721123    1.223    0.182
        51  -9.3864     58.7606    229.1065   1.1490590940e+02   1.9432343347e+01    0.2915809    0.1801929 -76.77  0.001322297    1.602    0.376
        52  -8.1652    128.4970     95.5612   7.2976625404e+01   3.8454326264e+01    0.1536311    0.1507435 -65.38 9.581054e-05    1.032    0.031
        53  -8.8266     59.0421    220.6398   1.1408572300e+02   2.1147749745e+01    0.3086441    0.2385798 -59.44  0.001282659    1.507    0.337
        54  -7.9927    156.5112     89.0205   6.4296248293e+01   3.3299622757e+01    0.2352965    0.1497854 -40.36 0.0007503729    1.540    0.351
        55  -8.2420    116.8542     85.6609   7.3185887801e+01   4.3039954030e+01    0.2189249    0.1413155  56.65  0.000937172    1.753    0.430
        56  -8.0001     56.3344     66.2950   8.6926162761e+01   5.7912714248e+01    0.1406153   0.09699634 -15.74 0.0002846799    1.643    0.391
        57  -8.2985     53.1091    219.6904   1.1522581613e+02   2.2106578278e+01    0.1861682    0.1333769  65.88 0.0006942084    1.179    0.152
        58 -11.9935    188.7773     48.3612   4.6954877804e+01   3.2190938487e+01    0.7233568    0.4984084  38.80  0.002529087    1.825    0.452
        59 -14.8046      3.4570    247.4633   1.2628488444e+02   2.2067008429e+01     1.101866     0.827205 -82.52  0.008644565    1.391    0.281
        60  -9.8777     48.6958    216.7672   1.1588057730e+02   2.3276595469e+01    0.4214713    0.2923491 -58.70  0.002391149    1.650    0.394
        61  -9.0743    142.5010     47.9287   5.4821243369e+01   4.3639275032e+01    0.2673956    0.1997437  83.26  0.001064828    1.545    0.353
        62 -10.2267     81.1694    245.5966   1.1196962805e+02   1.3198024525e+01    0.3305786    0.2486956  84.93 0.0007124036    1.332    0.249
        63 -13.8426     24.5777    227.0988   1.2144540431e+02   2.3889226026e+01     2.328607     1.083308  79.32   0.01234784    2.083    0.520
        64  -8.4244     68.2026     52.2292   7.7459110284e+01   5.8775509731e+01     0.174963    0.1659866 -78.98  0.001064389    1.400    0.286
        65  -9.7614     95.3871    242.1287   1.0882553020e+02   1.1820815152e+01    0.2759811    0.1955994 -87.12  0.001370634    1.585    0.369
