#   1 NUMBER                 Running object number                                     
#   2 MAG_AUTO               Kron-like elliptical aperture magnitude                    [mag]
#   3 X_IMAGE                Object position along x                                    [pixel]
#   4 Y_IMAGE                Object position along y                                    [pixel]
#   5 X_WORLD                Barycenter position along world x axis                     [deg]
#   6 Y_WORLD                Barycenter position along world y axis                     [deg]
#   7 A_WORLD                Profile RMS along major axis (world units)                 [deg]
#   8 B_WORLD                Profile RMS along minor axis (world units)                 [deg]
#   9 THETA_WORLD            Position angle (CCW/world-x)                               [deg]
#  10 FWHM_WORLD             FWHM assuming a gaussian core                              [deg]
#  11 ELONGATION             A_IMAGE/B_IMAGE                                           
#  12 ELLIPTICITY            1 - B_IMAGE/A_IMAGE                                       
         1 -13.7901    203.5299     18.5189   6.1147316827e+01   3.2608098646e+01     1.619408     1.014582 -21.91  0.007558399    2.188    0.543
         2 -13.9126    210.3983     12.9304   5.9177589428e+01   3.1652416745e+01     3.321375     1.743313  33.02  0.001401749    5.047    0.802
         3 -12.2314      2.9452      6.7509   1.0935241484e+02   7.1880328463e+01    0.7732273     0.229735 -38.61  0.004055887    2.703    0.630
         4 -10.7642     16.0088      3.5155   1.0153092939e+02   7.1097137085e+01    0.1505258    0.0871328  23.98 0.0005805347    1.598    0.374
         5 -13.1167     15.0937    241.2861   1.4679425651e+02   2.2249238638e+01     1.415986    0.6154007  65.84  0.007854732    1.984    0.496
         6 -12.4212    140.3135    248.5088   1.2403529496e+02   2.7442411496e+00     0.605884    0.4446767  57.65  0.003566999    1.303    0.233
         7 -12.5405    126.4234    248.4313   1.2676604648e+02   5.0837367851e+00    0.5345159    0.4699363 -79.55   0.00349728    1.250    0.200
         8 -13.0665     81.2719    248.0478   1.3545848009e+02   1.2321650112e+01    0.8250663    0.7204622 -36.22  0.005416027    1.765    0.433
         9 -13.0401    108.2086    245.7663   1.3001842152e+02   8.5723431748e+00     1.036161    0.6085264  69.39  0.004787386    1.980    0.495
        10 -11.9504    100.6838    249.3233   1.3189132997e+02   9.0955481153e+00    0.5484516    0.4166088  62.79  0.002673939    1.112    0.101
        11 -12.1398     92.7191    249.3603   1.3342213812e+02   1.0331228954e+01    0.5374499    0.3928127 -54.88 0.0005445014    1.677    0.404
        12 -10.9912     89.0300    244.5210   1.3361086002e+02   1.1839383035e+01    0.3136204    0.1980007  80.04  0.001365217    1.691    0.409
        13 -10.6346     63.0124    250.3264   1.3905586355e+02   1.4504968870e+01    0.3547705   0.09454049  46.21  0.001407187    2.902    0.655
        14 -14.8138     34.5045    246.2848   1.4380449212e+02   1.9017809296e+01     11.06291     3.492251  29.96   0.03311324    8.493    0.882
        15 -14.2961     10.1042    206.5989   1.4533979787e+02   3.0021444001e+01     2.582785       1.0159 -52.78     0.011727    3.442    0.709
        16 -15.5566      4.3091    181.1371   1.4448860829e+02   3.6228504056e+01     7.390504     1.222391 -69.43    0.0266813    3.852    0.740
        17 -10.2723    181.9858    250.0000   1.1606340381e+02  -4.4901429069e+00    0.2177853   0.06312094  39.97 0.0001691653    2.974    0.664
        18 -10.2063     60.1852    227.8560   1.3749913833e+02   1.9481047618e+01    0.2039694    0.1409893  71.84 0.0007422264    1.240    0.193
        19 -14.1864     45.9331    215.7562   1.3913671973e+02   2.3989315425e+01     1.189078    0.7943152  70.43  0.005911099    1.297    0.229
        20 -11.3161     26.4424    215.0152   1.4288072116e+02   2.6474220663e+01    0.3504421    0.1578333  85.16  0.001187637    2.307    0.567
        21 -12.9476     52.0077    236.5977   1.3987800740e+02   1.8754338888e+01    0.8131581    0.3898696  65.47  0.002517712    2.042    0.510
        22 -11.3279     53.8433    229.4041   1.3887861528e+02   2.0012095120e+01    0.4282552    0.2225825  76.82  0.001781935    2.043    0.510
        23 -10.7997     42.9025    231.4524   1.4113511182e+02   2.0999365515e+01    0.3419978    0.1311051 -59.80  0.001610151    2.710    0.631
        24 -10.7136    227.3414    203.2372   9.9085952234e+01  -4.3671456715e+00    0.2674066    0.2192947 -55.00 0.0004816493    1.530    0.346
        25 -11.0495     26.4088    203.8617   1.4194079046e+02   2.8941105913e+01    0.2784697    0.1391309  60.05 0.0004696531    1.897    0.473
        26  -9.9822    192.1940    193.3961   1.0407908176e+02   3.7435333583e+00    0.4245701    0.2323869 -64.75  0.001480116    3.580    0.721
        27 -11.6332     64.4788    192.5666   1.3261853370e+02   2.6818561038e+01    0.3974636    0.2567583 -46.64  0.001501641    1.910    0.476
        28 -11.7212     69.7885    185.5266   1.3046294927e+02   2.7736385884e+01    0.3114761    0.2513178 -47.29 0.0007103135    1.466    0.318
        29  -8.5167    181.4739    192.4486   1.0613510605e+02   5.9912897831e+00    0.1445144    0.1374692  13.53 0.0001328036    1.035    0.033
        30 -11.1450     79.3559    173.7916   1.2642905924e+02   2.9150027579e+01    0.2681318    0.2379801 -74.17 0.0004197057    1.075    0.070
        31 -13.2731     66.4755    171.2106   1.2917648779e+02   3.1671708645e+01     0.533771    0.2874802 -45.44  0.001747076    2.202    0.546
        32 -12.1775     85.7669    165.0275   1.2337073930e+02   3.0291577981e+01    0.9963546     0.584783  59.02  0.004370929    1.964    0.491
        33 -13.2816     66.1988    142.3689   1.2442062378e+02   3.8801961719e+01     2.375708      1.18218 -87.40  0.004400226    4.851    0.794
        34  -9.2276    102.1631    145.2733   1.1529249648e+02   3.2361053184e+01     0.327162    0.1878435 -36.58  0.001281305    2.210    0.548
        35 -12.0756     87.8500    148.5905   1.1977630279e+02   3.4001897203e+01    0.3062905    0.2511582 -42.07  0.000488298    1.305    0.234
        36 -11.0773     38.3751    146.7210   1.3259655972e+02   4.1134020694e+01    0.2740148    0.2173447  75.36 0.0009833864    1.297    0.229
        37  -9.9448     99.1873    149.5225   1.1696382114e+02   3.1851028604e+01    0.3007918    0.2754703 -42.72 0.0007088748    1.168    0.144
        38 -12.8929     27.5557    142.2191   1.3476899445e+02   4.3301062054e+01    0.7256166    0.3017188 -75.14  0.003098876    2.356    0.576
        39 -10.5775     97.6725    132.4445   1.1369520380e+02   3.6269089730e+01     0.297717    0.2444007 -21.63  0.001255347    1.475    0.322
        40 -10.6959     68.7297    134.8186   1.2227260570e+02   4.0295384185e+01     0.274646    0.1971612  36.70 0.0007969924    1.545    0.353
        41  -9.6692    110.3588    135.4757   1.1094233747e+02   3.3216478740e+01    0.3238017    0.2408095 -10.23  0.001027729    2.008    0.502
        42 -14.7745     53.5375    208.6198   1.3686661567e+02   2.4598312225e+01     4.209427     1.344529  57.74   0.01398542    4.379    0.772
        43  -9.3197    107.1244    122.7190   1.0879363290e+02   3.6847482037e+01    0.1966476    0.1930636   4.95  0.000336462    1.088    0.081
        44 -11.2350    167.9830    113.0069   9.1083441842e+01   2.5860527541e+01    0.3680981    0.3098598 -79.68 0.0006597613    1.308    0.236
        45 -10.6030     53.1673    111.8370   1.2205522094e+02   4.7811152487e+01    0.2091666    0.1824634 -82.37  0.001246054    1.239    0.193
        46  -9.5761    204.4554    110.8936   8.3246440219e+01   1.7835165015e+01    0.3188874    0.1979275  36.62  0.001343459    2.085    0.520
        47 -11.5220      2.1513     79.6661   1.3187763817e+02   5.9307288702e+01    0.5971755   0.09612524 -61.40  0.002156054    3.863    0.741
        48  -9.2309    108.9478     42.3885   8.4488651756e+01   5.1761318250e+01    0.1877803    0.1539874  47.61 0.0006158511    1.161    0.138
        49 -10.5117    249.5646    248.2226   1.0320600608e+02  -1.4439230785e+01    0.3775362    0.1314519 -29.16  0.001632058    3.261    0.693
        50 -13.6778      5.4351    246.4247   1.4868647586e+02   2.2266135396e+01     2.599937    0.8244504 -76.75   0.01329017    2.631    0.620
        51 -11.1641    189.7518     15.6141   6.2024429977e+01   3.6160252320e+01    0.2381624    0.1978217 -73.78 0.0008473535    1.128    0.113
        52 -12.8065     38.3074    225.1220   1.4146339684e+02   2.2906890294e+01    0.3611617    0.3166085 -88.41 0.0007731699    1.279    0.218
