#   1 NUMBER                 Running object number                                     
#   2 MAG_AUTO               Kron-like elliptical aperture magnitude                    [mag]
#   3 X_IMAGE                Object position along x                                    [pixel]
#   4 Y_IMAGE                Object position along y                                    [pixel]
#   5 X_WORLD                Barycenter position along world x axis                     [deg]
#   6 Y_WORLD                Barycenter position along world y axis                     [deg]
#   7 A_WORLD                Profile RMS along major axis (world units)                 [deg]
#   8 B_WORLD                Profile RMS along minor axis (world units)                 [deg]
#   9 THETA_WORLD            Position angle (CCW/world-x)                               [deg]
#  10 FWHM_WORLD             FWHM assuming a gaussian core                              [deg]
#  11 ELONGATION             A_IMAGE/B_IMAGE                                           
#  12 ELLIPTICITY            1 - B_IMAGE/A_IMAGE                                       
         1 -14.9810    140.5743    107.4011   4.0786353546e+01   3.3074162343e+01     4.401132     1.015452 -47.32   0.01122799    4.592    0.782
         2 -12.9826    120.7415     57.6041   3.1436563212e+01   4.7009724878e+01     1.616651     0.356719 -44.07  0.004326316    5.401    0.815
         3 -15.5116    124.1612     32.1739   2.2450809065e+01   4.9792959204e+01     2.743731     1.354943 -34.19   0.01260512    2.211    0.548
         4 -14.9937    139.3564     69.6653   3.0590265783e+01   4.0665551930e+01     2.236981    0.6169494 -34.69  0.006308203    4.536    0.780
         5 -13.7907      6.4380     11.9015   5.8129927204e+01   7.2478704877e+01    0.7781851    0.2474221 -38.23  0.003871104    2.654    0.623
         6 -13.2029      9.3539      2.2657   5.1865801860e+01   7.3532818170e+01    0.5851257    0.2348118  35.32  0.003187214    2.776    0.640
         7 -12.0176     19.4921     12.5054   5.1190398538e+01   7.1152654124e+01    0.2125206    0.1255645  -5.76  0.001289491    1.713    0.416
         8 -12.3867     13.2003     12.9171   5.4779152525e+01   7.1732811800e+01    0.2180534    0.1217866 -22.79  0.001349775    1.615    0.381
         9 -10.5436    102.5527      6.7990   1.8520889068e+01   5.7351822376e+01    0.2584223    0.1189847 -26.82  0.001263875    2.468    0.595
        10 -12.0806     25.3309      7.6478   4.5845543662e+01   7.1106288410e+01    0.2355409    0.1317957   0.06  0.001332254    2.041    0.510
        11 -11.5525    110.5169      6.4696   1.6708662687e+01   5.5597117735e+01    0.2293571    0.1262642 -22.80  0.001204148    2.144    0.534
        12 -12.1709      2.6920      3.6316   5.6506596179e+01   7.3950468599e+01     0.360372    0.2803995  -9.32  0.002861582    1.121    0.108
        13 -11.9041    117.4229      2.8272   1.4135547237e+01   5.4323021818e+01    0.2899708    0.2199046 -54.01  0.001785025    1.572    0.364
        14 -12.2297    136.6674    127.8154   4.6922491424e+01   2.9438543027e+01    0.5372958    0.2553011 -51.83  0.001912853    2.187    0.543
        15 -13.4246    230.9429    113.7563   2.4579432124e+01   1.1912477653e+01      1.63276    0.3852164 -42.26  0.005180001    3.635    0.725
        16 -16.3893    245.4368    214.4982   4.2079748804e+01  -7.5678571612e+00     7.913543     1.875504 -42.55   0.02789804    4.409    0.773
        17 -10.9583    223.2600    225.8547   4.8012961870e+01  -6.1829308364e+00    0.2640932    0.1455741 -30.72 0.0009822168    1.790    0.441
        18 -10.4960    211.6709    226.4652   5.0292273246e+01  -4.5858294080e+00    0.2071957    0.1106958 -38.04  0.001061388    1.902    0.474
        19 -10.2768    205.6489    223.8175   5.1000208797e+01  -3.2550452972e+00    0.1709313    0.1174309 -46.57 0.0009505014    1.694    0.410
        20 -11.0964    216.8265    221.8290   4.8520396472e+01  -4.6245128293e+00    0.3244851    0.1632072 -45.75  0.001580737    2.256    0.557
        21 -11.0918    225.9016    220.1741   4.6546079744e+01  -5.6950399786e+00    0.2906737    0.1699611 -32.66  0.001073941    1.640    0.390
        22 -11.2135    228.0051    215.9875   4.5427385203e+01  -5.3522039801e+00     0.355599    0.1595682 -36.33  0.001673495    2.142    0.533
        23 -11.0456    220.9287    214.9126   4.6541126041e+01  -4.1407742678e+00    0.4025525    0.1614136 -39.12   0.00178784    2.442    0.590
        24 -10.4863    210.6855    217.4064   4.8918765113e+01  -2.9878427406e+00    0.2216472    0.1116498 -38.74  0.001071508    1.992    0.498
        25 -11.9764    215.7603    209.1098   4.6475523626e+01  -2.4092402657e+00     0.444292    0.1510436 -36.57  0.001712364    3.063    0.674
        26 -11.3384    215.5026    197.5060   4.4393746366e+01  -4.0719360722e-01     0.268217    0.1231351 -40.45  0.001075095    2.108    0.526
        27 -11.3043    148.8686    196.0943   5.8158264656e+01   1.1609494622e+01     0.262569    0.2050628 -42.46  0.001359756    1.369    0.269
        28  -9.5163    124.6547    196.3229   6.3870011804e+01   1.5956746199e+01    0.1548486    0.1085244  69.14 0.0005952573    1.736    0.424
        29 -13.5703    238.8057    123.2025   2.5400062138e+01   8.7447664978e+00    0.9239681    0.5460263 -34.87  0.003445333    1.618    0.382
        30 -10.3770    215.3664    189.8302   4.2968056366e+01   9.5331818995e-01    0.1988396    0.1151274 -30.54 0.0009100652    1.755    0.430
        31 -10.2382    220.3890    187.2330   4.1529666501e+01   5.7783722810e-01    0.1847211    0.1194716 -47.32 0.0007744275    1.640    0.390
        32 -11.0941    224.1058    183.4010   4.0107649392e+01   6.3479684577e-01    0.2619979    0.1814708 -42.43 0.0009191124    1.409    0.290
        33 -14.3449    245.8750    142.6512   2.8325531267e+01   4.0923470102e+00     3.863113    0.9610797 -50.24  0.008232508    9.524    0.895
        34 -10.3272    218.6695    177.1327   3.9879905924e+01   2.6583199234e+00    0.2027799    0.1144778 -32.34 0.0009434254    1.763    0.433
        35 -11.5187    223.2353    172.4526   3.8116347785e+01   2.7158902200e+00     0.255467    0.1720423 -38.19 0.0008315361    1.368    0.269
        36 -16.9036    247.0964     71.6521   1.3608454664e+01   1.5708674359e+01     10.07997     1.460926 -39.52   0.02898649    5.337    0.813
        37  -9.8793    217.2768    167.3295   3.8174842260e+01   4.6859174612e+00    0.1391257    0.1027022  -9.83 0.0003986766    1.596    0.373
        38 -10.2352    221.5647    233.9672   4.9695006782e+01  -7.1541826424e+00    0.1749083    0.1102746 -33.16  0.001018009    1.574    0.365
        39 -10.5883    224.5193    247.9997   5.1434436584e+01  -9.5463793246e+00    0.2854365    0.1589239 -47.38  0.001553359    2.455    0.593
        40 -11.3251    221.5797    161.6930   3.6244797326e+01   4.9534196033e+00    0.2596921    0.1237294 -37.86  0.001086734    1.972    0.493
        41 -11.0654    225.1975    230.7122   4.8481003635e+01  -7.1827176946e+00    0.1931386    0.1566231 -31.56 0.0007404051    1.326    0.246
        42 -10.8107    215.5433    230.5769   5.0252311879e+01  -5.7893388012e+00    0.2797927    0.1715867  -5.74  0.001450821    2.002    0.500
        43 -12.3120    141.5211    147.7942   5.0320981194e+01   2.3832800778e+01    0.7091095     0.410765 -71.78  0.002460314    2.891    0.654
        44 -10.4694      5.4890    229.4978   9.3997529198e+01   2.5149287561e+01    0.1172992   0.08608705  72.75 9.345918e-06    1.002    0.002
        45 -11.1735    223.4146    146.2244   3.2716136753e+01   7.4625089916e+00    0.2572679    0.1569419 -46.72  0.001100448    1.543    0.352
        46 -11.7013    225.4604    242.1501   5.0323888821e+01  -8.8629484596e+00    0.4570786    0.2041865 -38.95  0.002348721    2.312    0.567
        47 -12.4901     65.5466    248.6033   8.3533622660e+01   1.4134952497e+01    0.3732008    0.1720735  47.90  0.001914401    1.739    0.425
        48  -9.9444    114.2585    132.6452   5.4056458440e+01   3.2955007734e+01    0.1578565    0.1215919 -89.06 0.0003820418    1.614    0.380
        49 -11.2288    219.7722    127.4935   2.9332475600e+01   1.1628815758e+01    0.4043432    0.2018653 -46.07  0.001353456    1.846    0.458
        50 -11.8573    227.1539    123.7284   2.7309319891e+01   1.0868223777e+01    0.4309173    0.2669222 -46.87  0.001342004    1.461    0.315
        51 -10.3173    107.7046    125.4217   5.4209878914e+01   3.5960722109e+01    0.2696131    0.1376423 -50.97  0.001039168    1.933    0.483
        52 -11.3090    117.2237    123.6144   5.1089312204e+01   3.4490507404e+01    0.4469183    0.2219984 -51.15  0.001695476    2.021    0.505
        53 -10.6426     99.7516    122.0007   5.5707455888e+01   3.8291366084e+01    0.3219811    0.1723826 -52.56  0.001223733    1.838    0.456
        54 -10.8724     81.0000    122.0126   6.1395200294e+01   4.1582436938e+01    0.2478772   0.08202398 -55.43 0.0007428384    2.901    0.655
        55 -11.5003    218.9978    116.7236   2.7099823359e+01   1.3769217525e+01    0.4594127    0.2514687 -48.78  0.001579263    1.714    0.416
        56 -11.2578    131.0564    116.0462   4.5459422917e+01   3.3301897150e+01    0.3692321    0.2317342 -54.61  0.001319538    1.676    0.403
        57 -10.5401    113.8848    114.6472   4.9792698262e+01   3.7242500740e+01    0.2814726    0.2001872 -41.92  0.001020594    1.442    0.307
        58 -10.9920    123.8557    110.4264   4.5935279080e+01   3.6104481922e+01    0.3628505    0.2157476 -50.45  0.001488495    1.710    0.415
        59 -10.5709    107.4888    110.4481   5.0554965288e+01   3.9490554085e+01    0.3132318    0.1509225 -50.44  0.001182019    2.083    0.520
        60 -10.2779    218.4875    108.9890   2.5467131785e+01   1.5281700634e+01    0.2189613     0.127607 -43.26  0.000674722    1.558    0.358
        61 -10.7087     93.8288    108.6221   5.4184848993e+01   4.2529149178e+01    0.2995576    0.1070587 -48.65 0.0009979105    2.713    0.631
        62 -11.5044    221.8980    104.4737   2.3931754245e+01   1.5383364513e+01    0.3862182    0.1764808 -48.31  0.001384774    2.040    0.510
        63 -10.0225    106.4240    104.4862   4.9300589292e+01   4.1045292908e+01    0.1505686    0.1472457 -74.84 0.0001427982    1.032    0.031
        64 -11.2742     25.9850    248.8239   9.1219623596e+01   1.9048248018e+01    0.2084907   0.08454609  56.30  0.001081455    1.988    0.497
        65 -11.4227    130.2394    101.1572   4.1765595752e+01   3.6713980980e+01    0.5197035    0.2242965 -43.13  0.001857212    2.362    0.577
        66 -10.2504    120.4542    103.0589   4.4912155647e+01   3.8446579470e+01    0.2397574    0.1514916 -45.70  0.001029426    1.593    0.372
        67 -10.2601    112.5560    101.0429   4.6588117642e+01   4.0551376416e+01    0.2356173     0.149649 -48.18     0.001018    1.585    0.369
        68 -11.5610    225.0388     98.8590   2.2221612983e+01   1.5719997751e+01    0.2548571    0.1796731 -46.22 0.0007421417    1.268    0.211
        69 -11.1555     93.5895     95.7213   5.0821116917e+01   4.5470365839e+01    0.3586568    0.1437421 -50.35  0.001275282    2.540    0.606
        70 -11.3099    225.0432     92.3466   2.0787583249e+01   1.6841440553e+01    0.3311174     0.191707 -56.12  0.001571083    1.709    0.415
        71 -11.5863    108.8782     94.8998   4.5954786440e+01   4.2631329540e+01    0.4787015    0.2579016 -44.39  0.001542555    1.871    0.466
        72 -11.4285     33.7944    248.5818   8.9736011981e+01   1.8189402883e+01    0.1732429   0.08025034  48.55 0.0009251963    1.684    0.406
        73 -11.4204    123.1252     88.9518   4.0263564406e+01   4.0806531281e+01    0.5194144    0.2258445 -42.92  0.001907129    2.349    0.574
        74 -10.9687     98.0892     88.9456   4.7501890575e+01   4.6054900122e+01    0.3219023    0.1913317 -59.47  0.001333425    2.089    0.521
        75 -10.9804    130.6840     87.9647   3.7993750116e+01   3.9305159256e+01    0.3978157    0.1729129 -48.19  0.001428286    2.460    0.593
        76 -11.1606    226.1408     87.6356   1.9597171196e+01   1.7409281775e+01    0.2529196    0.1601484 -51.51 0.0009847198    1.420    0.296
        77 -10.6423     86.1406     87.1370   5.0780984928e+01   4.8684422569e+01    0.1995632    0.1759455 -79.88 0.0008086744    1.348    0.258
        78  -9.6071    112.3134     86.6705   4.2607360347e+01   4.3613608604e+01    0.1524047    0.1202433 -88.47 0.0004763046    1.673    0.402
        79 -10.2093    106.3261     86.1090   4.4185289685e+01   4.4981666922e+01    0.2185237    0.1346025 -54.21 0.0009367069    1.816    0.449
        80 -11.8944     51.3235    249.8788   8.6451544716e+01   1.5767781427e+01    0.3444363    0.1413522  40.05  0.001726101    2.012    0.503
        81 -10.4836    110.4685     81.9939   4.1760820554e+01   4.4935067555e+01    0.2273699    0.1465397 -44.83  0.001026973    1.590    0.371
        82 -10.5215     87.9934     80.7953   4.8305383403e+01   4.9656125425e+01    0.2632165     0.184702 -58.92  0.001251404    1.669    0.401
        83 -11.3799    119.8555     78.2916   3.8035491969e+01   4.3605886299e+01    0.4488229     0.257306 -43.21  0.001827952    1.799    0.444
        84 -13.2543    129.6464     72.2874   3.3697751825e+01   4.2482684105e+01    0.8181186    0.3152925 -43.75  0.002921286    2.709    0.631
        85 -10.3872    112.5202     77.0033   3.9676778981e+01   4.5456804806e+01    0.2251805    0.1462746 -42.32  0.001029909    1.585    0.369
        86 -11.7159    223.6861     76.1021   1.7387481811e+01   1.9832000370e+01    0.2260254    0.1433509 -55.23  0.000819669    1.445    0.308
        87 -10.4976     98.4821     73.4450   4.2722212024e+01   4.9063323942e+01    0.2906715    0.1422056 -42.91  0.001188099    2.091    0.522
        88 -11.0763    104.2187     76.7696   4.2014609576e+01   4.7258583651e+01    0.3986464    0.2549132 -67.39  0.001631482    2.453    0.592
        89 -11.2234    116.1494     71.0711   3.6856034699e+01   4.5757339225e+01    0.3972505    0.2162193 -45.39  0.001689797    1.945    0.486
        90 -10.3852    109.5449     72.6814   3.9200639912e+01   4.6903037537e+01    0.2636648     0.144769 -36.90  0.001115804    1.937    0.484
        91 -11.4925     17.2594    250.3988   9.2913967599e+01   1.9709755919e+01    0.2264316   0.08116546  40.28   0.00117538    2.238    0.553
        92 -10.5479    105.5977     68.7811   3.9122987888e+01   4.8452846287e+01    0.2654804    0.1408712 -36.66  0.001119729    2.005    0.501
        93 -11.6765     20.0209    248.0151   9.2278863822e+01   1.9875654985e+01    0.2003087   0.09563581  62.54  0.001134697    1.709    0.415
        94 -12.9164      3.6527    242.7631   9.4995394726e+01   2.2633088153e+01    0.7524521    0.1818426  57.96  0.003143021    3.488    0.713
        95  -9.9846    108.5126    141.9684   5.7737836420e+01   3.1819487233e+01    0.2394851    0.1507639 -53.56  0.001026262    1.572    0.364
        96 -10.0287    100.3744     66.7623   4.0030135778e+01   4.9905164417e+01    0.1944781    0.1349978 -28.88 0.0006810143    1.579    0.367
        97 -10.3916     85.4090     66.7395   4.4759942211e+01   5.2854032173e+01    0.2618119    0.1339376 -46.30  0.001124569    2.058    0.514
        98 -10.1626     93.7890     78.0280   4.5603111618e+01   4.9108694009e+01    0.1958628    0.1157865 -44.12 0.0008681485    1.711    0.416
        99 -11.2862    111.0437     62.8672   3.5690858409e+01   4.8314324640e+01    0.4394995    0.2525222 -52.62  0.001891083    2.141    0.533
       100 -11.2240     94.8933     62.9437   4.0468612590e+01   5.1695304356e+01    0.4208936    0.1990795 -39.87  0.001755378    2.188    0.543
       101 -10.1873    104.2889     63.6464   3.7865184029e+01   4.9634839731e+01    0.2477946    0.1731037 -58.23 0.0009480026    1.800    0.444
       102 -10.2642    104.6117     59.7671   3.6510285036e+01   5.0225072385e+01    0.2151055    0.1425706 -35.72   0.00104349    1.591    0.372
       103 -11.1871    224.9926     81.2793   1.8355672764e+01   1.8708469581e+01    0.2585091     0.164094 -60.37  0.001091652    1.544    0.352
       104 -10.7917    218.2857    246.3220   5.2312021236e+01  -8.4769312414e+00    0.2416752    0.1476482 -28.52  0.001043729    1.649    0.394
       105 -10.4663     99.6950     56.5967   3.6901952336e+01   5.1785867952e+01    0.2435949     0.127227 -38.83  0.001067849    2.009    0.502
       106 -10.6903    110.9074     54.3930   3.2985370997e+01   4.9728547188e+01    0.2671967    0.1935504 -53.04  0.001349341    1.618    0.382
       107 -10.8144    105.2065     50.9255   3.3406668327e+01   5.1512631155e+01    0.3208636    0.1959681 -34.37  0.001455071    1.754    0.430
       108 -11.6388    113.1226     45.1923   2.9359048701e+01   5.0612948488e+01    0.4505807    0.2146387 -32.38  0.001928738    2.320    0.569
       109 -12.3304      5.7978    248.3915   9.4874454664e+01   2.1308215409e+01    0.2695305    0.2057003  30.27  0.001943069    1.721    0.419
       110 -10.2343     91.0000    142.0475   6.2710578005e+01   3.4966408976e+01    0.2526909   0.08420315 -56.38 0.0007997697    2.924    0.658
       111 -11.1668    106.0865     38.7302   2.9005454860e+01   5.3072070774e+01     0.344056    0.1947389 -35.14  0.001660367    1.917    0.478
       112 -10.3995     94.5948     46.4232   3.4942999628e+01   5.4434999962e+01    0.2472505    0.1276473 -40.84  0.001113618    2.102    0.524
       113 -10.6878    224.1478    139.5546   3.1183738922e+01   8.5534817183e+00    0.2688024    0.1767232 -41.91  0.001005001    1.374    0.272
       114 -10.8841    110.3788     31.4735   2.5405323823e+01   5.3045404168e+01    0.3234191    0.1491271 -35.71  0.001440861    2.360    0.576
       115 -12.1726    139.2287    138.6269   4.8823932563e+01   2.6421099377e+01    0.3383576    0.2588545  86.53 0.0009820054    1.684    0.406
       116 -10.9501    102.3297     28.7205   2.6477569481e+01   5.5162413781e+01    0.2688504    0.1775711 -33.59  0.001268624    1.678    0.404
       117  -9.8113     84.2813     27.6102   3.1176755760e+01   5.9080212741e+01    0.1225551    0.1010408 -69.20 0.0005422944    1.744    0.426
       118 -10.1225     90.4624     24.9659   2.8338483754e+01   5.8133577881e+01    0.1732112    0.1036123 -53.53 0.0008092879    2.546    0.607
       119 -10.0647    210.5115    246.9500   5.3862426145e+01  -7.4928658669e+00    0.1646949    0.1130678 -33.77 0.0007801521    1.541    0.351
       120 -11.8864     44.7403    244.3936   8.7331966924e+01   1.7694605572e+01    0.2990778    0.1133557  42.11  0.001457451    2.100    0.524
       121 -10.7512    217.0675    136.4309   3.1733828683e+01   1.0494301040e+01    0.2934335    0.1892709 -47.99  0.001235996    1.464    0.317
       122 -11.0194    103.6146     19.5877   2.2884368889e+01   5.5901038700e+01    0.2608884    0.2181927 -11.49   0.00130527    1.349    0.259
       123 -12.4210    224.9037     18.1429   4.7772946226e+00   2.7706679354e+01    0.2502282    0.1668989 -37.58 0.0009119486    1.624    0.384
       124  -9.8145     96.2864     16.6501   2.3640070995e+01   5.7801806823e+01    0.1206798   0.09755304 -71.73 0.0005013471    1.659    0.397
       125 -12.1193     15.0050    240.4877   9.2793690496e+01   2.1922449540e+01    0.2329685    0.1238806  75.82  0.001377953    1.598    0.374
       126 -10.0544    214.3769    240.1406   5.2048402231e+01  -7.0494939146e+00    0.1511457    0.1121506 -44.75  0.000650542    1.673    0.402
       127 -10.8875    225.5076    133.1645   2.9597259471e+01   9.4679725195e+00    0.3048207    0.1739987 -42.12  0.001077503    1.573    0.364
       128 -11.9475     53.6162    239.1595   8.5147531501e+01   1.7627238404e+01     0.296792    0.1444799  57.81  0.001509999    1.834    0.455
       129 -10.2760    220.0949    239.0913   5.0811755756e+01  -7.6961164140e+00    0.1487544    0.1361343 -14.04 0.0007631237    1.293    0.226
       130 -11.8290     72.8862    239.1206   8.1168285405e+01   1.5014764682e+01    0.2129349    0.1466659  60.72  0.001180292    1.254    0.202
       131 -10.6867     28.6878    243.3470   9.0374289185e+01   1.9831549116e+01    0.1300588   0.06504939  64.41 0.0007046256    1.713    0.416
       132  -9.9726    216.5198    235.5194   5.0891143640e+01  -6.6719226357e+00    0.1251408    0.1010771   5.10 0.0004344142    1.044    0.042
