#   1 NUMBER                 Running object number                                     
#   2 MAG_AUTO               Kron-like elliptical aperture magnitude                    [mag]
#   3 X_IMAGE                Object position along x                                    [pixel]
#   4 Y_IMAGE                Object position along y                                    [pixel]
#   5 X_WORLD                Barycenter position along world x axis                     [deg]
#   6 Y_WORLD                Barycenter position along world y axis                     [deg]
#   7 A_WORLD                Profile RMS along major axis (world units)                 [deg]
#   8 B_WORLD                Profile RMS along minor axis (world units)                 [deg]
#   9 THETA_WORLD            Position angle (CCW/world-x)                               [deg]
#  10 FWHM_WORLD             FWHM assuming a gaussian core                              [deg]
#  11 ELONGATION             A_IMAGE/B_IMAGE                                           
#  12 ELLIPTICITY            1 - B_IMAGE/A_IMAGE                                       
         1 -11.9832    207.8444     34.4016   3.8989772659e+01   2.9527092135e+01     0.615847    0.5757194  88.87  0.001303466    1.199    0.166
         2 -11.1749     32.5656      9.7105   7.2116144457e+01   6.9933188745e+01    0.6792308    0.1282438 -33.77  0.002260631    5.715    0.825
         3 -10.9346     32.8427      2.6706   6.8457582063e+01   7.0708140938e+01    0.4170469    0.2163963  30.93  0.002440016    1.689    0.408
         4 -12.0819    233.0646      7.8665   3.1089740151e+01   2.7218234238e+01     0.806016    0.6222373 -70.61  0.004411298    1.028    0.027
         5 -10.2708     59.0329      3.0601   5.7893000404e+01   6.6398237619e+01    0.2654595    0.1470221  40.57   0.00151991    1.498    0.332
         6  -9.2386     78.8247    237.8666   1.0866400862e+02   1.4442329946e+01    0.3723762    0.2038213 -54.75  0.001943254    2.127    0.530
         7 -10.1598    108.6862    249.6214   1.0366891197e+02   7.8867644308e+00    0.3263704    0.2295397  -6.60   0.00170393    2.418    0.586
         8  -9.0416     72.2617    250.0640   1.1116557621e+02   1.2956796910e+01    0.2289126    0.1505945  56.63 0.0004449974    1.293    0.227
         9  -9.9363     72.5824    245.4546   1.1068643578e+02   1.3801967928e+01    0.4040262    0.2327602  59.06  0.001539388    1.615    0.381
        10 -16.9659      9.2333    243.3490   1.2290444335e+02   2.1696775591e+01     14.86091     4.254943 -77.88   0.02765859    3.220    0.689
        11  -9.6346    140.7661    218.6056   9.2656593822e+01   8.7379292043e+00    0.2077554    0.1132095  45.35 0.0009557464    1.748    0.428
        12 -15.3578      6.0123    207.2886   1.2158101175e+02   2.9519340493e+01     4.793734     1.783042 -70.10    0.0235712    2.338    0.572
        13 -10.1376    119.9258    212.9368   9.6495553586e+01   1.3318255818e+01    0.2779473    0.2064598 -47.78   0.00149723    1.494    0.331
        14  -8.4923     50.0183    213.2948   1.1252640390e+02   2.3470024883e+01    0.1798976    0.1428863  55.56  0.000482534    1.117    0.105
        15  -8.7209     39.6203    212.4992   1.1475513186e+02   2.4895181317e+01    0.2900425    0.1487006  68.20  0.001417475    2.015    0.504
        16 -10.2429    127.4238    211.2827   9.4534203571e+01   1.2423232839e+01    0.2407492    0.1830683 -50.67  0.001009302    1.435    0.303
        17  -8.7152     76.5844    211.1673   1.0626873121e+02   2.0398799816e+01    0.2437139    0.1281845 -73.32  0.001024245    2.093    0.522
        18  -8.2847     46.4971    211.1193   1.1310966396e+02   2.4386465246e+01    0.1780477     0.114961 -74.57  0.000426814    1.485    0.327
        19  -8.0525     88.9766    209.9685   1.0324811154e+02   1.8846075857e+01    0.2230412     0.147113  68.37 0.0007508003    1.683    0.406
        20  -9.1740     41.4194    207.8962   1.1395303159e+02   2.5715590898e+01    0.3251132    0.1982211 -88.29  0.001210753    1.578    0.366
        21  -9.0275     64.6730    205.4800   1.0838285236e+02   2.3332323742e+01    0.3081786    0.1919632  78.74  0.001542914    1.768    0.434
        22 -10.3218    111.0414    203.5033   9.7166463899e+01   1.6792277687e+01    0.3249714    0.2212111  41.26 0.0007459741    1.351    0.260
        23  -9.0195     30.7277    202.4252   1.1587879634e+02   2.8160985543e+01    0.4399649    0.1770803  50.25  0.001507777    2.262    0.558
        24 -10.4554    122.4961    199.3123   9.3808651508e+01   1.5791010103e+01      0.36785    0.2618486 -85.43  0.001629562    1.876    0.467
        25  -8.7279     59.7733    197.1608   1.0860392148e+02   2.5902039676e+01    0.1916028    0.1568019  75.50 0.0003068034    1.106    0.096
        26 -10.5483     49.2800    250.0621   1.1572141164e+02   1.5915415934e+01    0.2057302    0.1558567  57.43 0.0005601553    1.044    0.042
        27  -9.3894    193.0653    195.0976   7.7399800321e+01   4.3610516960e+00    0.3412519    0.1820472 -63.02  0.001154332    4.412    0.773
        28  -9.8029    114.1115    195.7492   9.5241730034e+01   1.7995751952e+01    0.2798442    0.1845033 -29.29  0.001249915    2.150    0.535
        29  -8.8444     49.0051    180.0506   1.0927335053e+02   3.1341735910e+01    0.2447365    0.1839695  85.25 0.0007983923    1.256    0.204
        30  -9.4253     43.1870    178.4524   1.1056094919e+02   3.2419032312e+01    0.4634106    0.2940812  -4.22  0.001345012    2.859    0.650
        31 -11.7109     56.6200    184.9354   1.0794056669e+02   2.9209492054e+01    0.7615768    0.6255203 -83.01  0.002944147    1.128    0.113
        32  -9.3789     99.5604    181.0735   9.6484414347e+01   2.3802352152e+01    0.2696677    0.2136282  31.25 0.0009229317    1.314    0.239
        33  -8.4567     37.9294    181.2899   1.1218843711e+02   3.2328992932e+01    0.1760772    0.1554359  70.16  0.000353782    1.080    0.074
        34 -10.3496    102.9516    172.9046   9.4236306920e+01   2.5177039931e+01    0.4642471    0.3112189 -42.22  0.002153109    1.673    0.402
        35  -8.8112    186.1891    173.9583   7.4710058230e+01   9.5734319522e+00    0.2522357    0.2096565  34.56  0.001123177    1.207    0.171
        36 -10.4692     69.7861    171.4284   1.0273233979e+02   3.0724232578e+01    0.4316401    0.3168231 -17.38  0.002085864    2.019    0.505
        37 -10.6889     74.4638    166.5096   1.0072994232e+02   3.1265253512e+01    0.4355407    0.3760748 -39.76  0.001590713    1.311    0.237
        38  -9.5596    114.4794    171.9744   9.1099295269e+01   2.3391828615e+01    0.3204814    0.1698929  65.52  0.001036346    3.527    0.716
        39  -9.9280     97.6476    169.0795   9.4956853608e+01   2.6990859968e+01    0.2723459    0.2002522  51.10  0.001334969    1.356    0.262
        40  -8.7523     73.2732    238.8499   1.0992685139e+02   1.5011895838e+01    0.3462072    0.1345948 -55.75  0.001486913    2.920    0.658
        41  -9.6840     33.1053    165.5752   1.1170051867e+02   3.6675271522e+01    0.4171951    0.2022008  45.03  0.001960736    2.054    0.513
        42 -11.9178     57.7867    130.4174   9.9374835534e+01   4.2618638845e+01     1.102333    0.4797634 -74.68  0.003712775    3.355    0.702
        43 -11.2108     82.5099    158.4060   9.7183255985e+01   3.2058940762e+01    0.7124283    0.5542983  67.27 0.0005975014    1.377    0.274
        44 -11.9304     71.2364    152.9567   9.9403051050e+01   3.5113567808e+01    0.5912216    0.4788552 -64.33   0.00104235    1.172    0.147
        45 -12.3416     69.2207    144.3606   9.8478993563e+01   3.7560417991e+01     1.023393    0.7021473  81.78  0.003328813    1.816    0.449
        46  -8.5317     63.8951    156.8914   1.0212083081e+02   3.5157765310e+01    0.2135753    0.1879356 -45.95 0.0004925844    1.223    0.183
        47 -10.7459     89.6558    151.6997   9.3970467116e+01   3.2577634085e+01    0.6635962    0.4484428  -9.65  0.002233964    2.508    0.601
        48  -9.3335     54.0715    148.6496   1.0361803821e+02   3.8511787766e+01    0.5836474    0.1674231 -65.99  0.001872878    3.440    0.709
        49  -9.9393    134.3401    147.5672   8.1086561897e+01   2.5347259008e+01    0.7316601    0.1525334 -50.93   0.00176343    5.167    0.806
        50  -9.2406     38.6931    146.2976   1.0771522900e+02   4.0882959350e+01    0.3066686    0.2020956  47.77 0.0008049176    1.594    0.373
        51  -9.6789    102.8399    138.2488   8.7510188701e+01   3.3598132227e+01    0.5491294    0.3188845 -22.71  0.001832678    3.397    0.706
        52  -9.5190    106.0121    130.9433   8.4979507821e+01   3.4772969521e+01    0.3905815    0.3181236 -58.69  0.001386622    1.229    0.186
        53 -10.5207     90.7005    137.3520   9.0809008725e+01   3.5947870631e+01     0.283531    0.2513622 -42.69 0.0002887607    1.153    0.133
        54 -10.6181     31.6928    130.7665   1.0754043062e+02   4.5472472386e+01    0.4388944    0.2329962 -49.53  0.002094349    1.785    0.440
        55 -10.0757    112.4108    128.7317   8.2658926347e+01   3.4079198256e+01    0.3522157    0.2680255  10.32  0.001213992    1.722    0.419
        56  -8.9435    135.3908    128.1649   7.6354042224e+01   2.9559636153e+01    0.2305655    0.1465914 -58.13 0.0009555434    1.740    0.425
        57  -8.1653    168.1801    232.8145   8.8982897166e+01   1.7223729587e+00    0.1763813    0.1393759   8.48 0.0006724311    1.269    0.212
        58  -9.2908     99.3403    124.8444   8.5497889306e+01   3.7464764618e+01    0.2770949    0.2391168   4.56 0.0004790191    1.346    0.257
        59  -9.4528    149.8128    228.4000   9.2174024433e+01   5.4138090825e+00    0.1937243    0.1155309  27.10 0.0007416264    1.659    0.397
        60  -7.7926     90.8296    123.6511   8.7756354289e+01   3.9266597823e+01     0.211508    0.1345683  47.96 0.0004615241    1.675    0.403
        61  -8.4587    108.1080    118.1657   8.1332352209e+01   3.7386235220e+01    0.2261975    0.2054637  -4.42 0.0002450336    1.218    0.179
        62  -9.0258    231.2522    114.0370   5.3739166882e+01   1.2224257683e+01    0.2367861    0.2034196  73.42   0.00095541    1.329    0.247
        63  -9.7945    114.9233    109.9158   7.7285588594e+01   3.7909338035e+01    0.4623814    0.1845226 -46.31  0.001597937    2.487    0.598
        64  -8.3040    205.2323    110.5900   5.7143484340e+01   1.8054316551e+01    0.1977962    0.1345924  41.65 0.0009562445    1.678    0.404
        65 -10.4852     48.5472    107.0407   9.7715253758e+01   4.9507854840e+01     0.261151    0.2163192  24.20 0.0008828843    1.319    0.242
        66  -8.9707    120.4061    103.2081   7.3974703345e+01   3.8243657832e+01    0.2228786    0.1452881 -56.43  0.000952451    1.689    0.408
        67  -9.5746    145.7387    223.6880   9.2341983057e+01   6.9478492644e+00    0.3251203    0.1907596  -6.83  0.001160042    4.069    0.754
        68  -8.6431    155.9560     87.9950   6.1033254146e+01   3.3330276800e+01    0.2505644     0.182263 -77.49 0.0008834937    1.775    0.437
        69  -8.8492     59.7300    218.2831   1.1084826466e+02   2.1134365450e+01    0.2124635    0.1584533  65.04 0.0004026032    1.186    0.157
        70 -10.3839     21.9893     91.5094   1.0400450789e+02   5.5807380330e+01    0.2495207    0.2024931  77.78  0.001505257    1.495    0.331
        71  -9.5679     49.1583    217.8181   1.1313137911e+02   2.2579150922e+01    0.4787588    0.2725035  13.74  0.002152029    3.096    0.677
        72 -11.2761    187.2714     51.8897   4.5809227414e+01   3.1888427617e+01    0.5532268    0.3324725  50.34  0.001846963    1.796    0.443
        73 -11.9082    198.6512     43.3231   4.2159678015e+01   3.0441453741e+01    0.8205239    0.7469946 -71.14  0.003157941    1.096    0.088
        74 -10.3143     94.2780    236.7525   1.0526010390e+02   1.2451582994e+01    0.3716195    0.2238211 -75.44  0.001015833    1.997    0.499
        75  -9.5710    114.9770    249.3376   1.0233456223e+02   7.0064183644e+00    0.1908146    0.1462066  38.95  0.001180702    1.103    0.094
        76 -10.1487    120.2961    245.6723   1.0079115934e+02   6.8713833999e+00     0.230798    0.1798998  55.79  0.001417397    1.252    0.201
        77  -8.8448    125.3115    242.3321   9.9322177772e+01   6.7157174569e+00    0.1250508   0.09739631  -1.26 0.0004914211    1.675    0.403
