#   1 NUMBER                 Running object number                                     
#   2 MAG_AUTO               Kron-like elliptical aperture magnitude                    [mag]
#   3 X_IMAGE                Object position along x                                    [pixel]
#   4 Y_IMAGE                Object position along y                                    [pixel]
#   5 X_WORLD                Barycenter position along world x axis                     [deg]
#   6 Y_WORLD                Barycenter position along world y axis                     [deg]
#   7 A_WORLD                Profile RMS along major axis (world units)                 [deg]
#   8 B_WORLD                Profile RMS along minor axis (world units)                 [deg]
#   9 THETA_WORLD            Position angle (CCW/world-x)                               [deg]
#  10 FWHM_WORLD             FWHM assuming a gaussian core                              [deg]
#  11 ELONGATION             A_IMAGE/B_IMAGE                                           
#  12 ELLIPTICITY            1 - B_IMAGE/A_IMAGE                                       
         1 -13.1408    119.4943     39.4045   3.4407633358e+01   4.9969557840e+01     1.994227    0.6557371 -29.69  0.004536279    3.277    0.695
         2 -12.1823    104.8381     12.9905   2.8241855858e+01   5.6428000416e+01    0.5051015    0.3712565 -21.45  0.001900982    1.462    0.316
         3 -12.1393    105.8718     20.7329   3.1011610873e+01   5.5383697408e+01    0.3419635    0.3339002 -20.83 0.0005718895    1.222    0.181
         4 -11.8550     26.3933     28.2501   6.3853166136e+01   6.7265334412e+01    0.5336857    0.3085482 -36.72  0.002366633    1.400    0.286
         5 -12.0444     20.2331     22.2360   6.4410822373e+01   6.8822220926e+01    0.5699366    0.2860503 -32.24  0.002002962    1.633    0.388
         6 -12.5503    160.0620     29.8171   2.2401546200e+01   4.1247285075e+01    0.4999511    0.4075432  31.13 0.0005079993    1.323    0.244
         7  -9.5893    121.4040     11.7425   2.3871491320e+01   5.2746174559e+01    0.3604536    0.1618225  66.03  0.001490556    2.324    0.570
         8 -11.7568    134.6563     22.7031   2.4954938146e+01   4.8433377817e+01    0.9987877    0.3061247  50.30  0.003571974    2.704    0.630
         9 -10.3045    127.3313     11.9774   2.2708747524e+01   5.1309951769e+01    0.3208513     0.227225  73.26  0.001456052    1.499    0.333
        10 -10.3996    127.2684     16.2145   2.4232118110e+01   5.0911049243e+01    0.3284546     0.200542  37.51   0.00096576    1.589    0.371
        11 -11.2379    134.8420     14.8054   2.2194583253e+01   4.9212814130e+01     0.659905    0.2833921  54.76  0.002698485    1.930    0.482
        12 -10.9823    178.9410     20.7539   1.6712041721e+01   3.7469742965e+01    0.5619455    0.2472245  40.02  0.002092179    3.069    0.674
        13 -11.9806     47.7126     12.8888   4.7439041422e+01   6.7044020794e+01     0.655359     0.296126  37.47  0.003351951    2.168    0.539
        14 -11.8670     35.5540     17.9231   5.5208150204e+01   6.7934568774e+01    0.5752432    0.2166845 -32.54  0.002161017    2.437    0.590
        15 -12.9866    164.2242     18.5614   1.8260111331e+01   4.1456917313e+01    0.5541537    0.2964299  40.35  0.001657793    2.086    0.521
        16 -11.3840     68.2337     18.4981   4.1875103302e+01   6.3100723344e+01    0.4260097    0.3416083  -7.19  0.001945986    1.127    0.112
        17 -11.1007      5.9764     10.3924   6.6827726186e+01   7.1832689815e+01    0.4680668    0.3209483   7.01  0.003392758    1.444    0.307
        18 -10.2288     12.3320      8.4313   6.2505700500e+01   7.1655187915e+01    0.4222084    0.2555533 -53.88  0.002501826    2.411    0.585
        19 -12.2971     16.2781     13.9644   6.2911634101e+01   7.0482639148e+01    0.7197502    0.3083121 -25.02  0.003630861    2.380    0.580
        20 -11.7780     22.4609     11.2534   5.8513214773e+01   7.0322821355e+01    0.4424129    0.2578034  -4.61  0.002250467    1.693    0.409
        21 -11.5906     86.2064     14.0523   3.3896663739e+01   6.0258043733e+01    0.5045382    0.3814236 -17.08  0.001838718    1.345    0.256
        22 -10.2537     87.3536      7.4870   3.0741565327e+01   6.0687669757e+01    0.5416441    0.2800188  51.62  0.002719637    1.749    0.428
        23 -11.0972    225.6662     14.3018   9.6641173268e+00   2.6689455276e+01    0.3021212    0.2079689 -54.30 0.0009486497    1.339    0.253
        24 -11.2817    192.1405      9.2712   1.1890266520e+01   3.5349833205e+01    0.6122734    0.3409953   3.63  0.002469537    3.353    0.702
        25 -11.6126    212.2828      9.0139   9.6964142479e+00   3.0436710591e+01    0.6054245    0.3792212   1.56  0.002882849    2.747    0.636
        26 -10.8989    218.5519      3.8831   7.9005713025e+00   2.9472193629e+01     0.320055    0.2096058  73.63 0.0008083768    1.369    0.270
        27 -11.2489    224.2041      2.6354   7.1288522122e+00   2.8275794535e+01    0.4456111    0.2409582 -81.70 0.0004982615    1.861    0.463
        28 -10.7030    232.6595      7.1816   7.4410242217e+00   2.5854950694e+01    0.2772802    0.1842346 -82.14  0.001170213    1.368    0.269
        29 -12.0971    233.7885      3.0740   6.4492057092e+00   2.6032732166e+01    0.6114041    0.2990857 -77.15  0.002930817    2.185    0.542
        30 -10.9690    169.8001      9.3406   1.4708664727e+01   4.0968282019e+01    0.4381669    0.1708158  55.90  0.001816996    2.175    0.540
        31 -10.1200    145.1507      9.8271   1.8636628170e+01   4.7136603560e+01    0.2176743    0.1775378  34.71  0.000359426    1.242    0.195
        32 -11.6900    228.6934     15.9424   9.7588130868e+00   2.5800197500e+01    0.4724887     0.232603  64.29  0.001348141    1.918    0.479
        33 -10.2554      1.2311      7.9115   6.8380672310e+01   7.2533353024e+01    0.3376889   0.05992249 -46.47    0.0014108    3.554    0.719
        34 -10.9205      2.5122      1.9796   6.4972349606e+01   7.3356854879e+01    0.3223846    0.1692679  -7.05  0.002015296    1.852    0.460
        35 -11.8588    247.0379      6.4309   6.1521056199e+00   2.2734078948e+01    0.3896405    0.3008747  -6.08  0.002393001    1.951    0.488
        36 -11.0891    243.5052      2.7766   5.6489153381e+00   2.3898221825e+01    0.3700116    0.1822576  61.03  0.001933206    2.087    0.521
        37  -9.9571    163.2648      6.8281   1.4879918925e+01   4.2856324599e+01    0.3936575    0.2193514 -15.04  0.001635744    2.246    0.555
        38 -10.7494    185.0968      7.4880   1.2235900839e+01   3.7287294524e+01    0.2370143    0.2152412  76.26 0.0008775142    1.071    0.066
        39 -10.4089    183.5021      4.5277   1.1623734473e+01   3.7968744596e+01    0.2142137    0.1606797  26.43 0.0009296051    1.696    0.410
        40 -11.1036    122.3370      5.4820   2.1389692989e+01   5.3086176639e+01    0.3023308    0.2201856 -16.61 0.0005185803    1.536    0.349
        41 -10.2677     62.2514      7.6396   3.9115935483e+01   6.5385393911e+01    0.2503981    0.1680509   5.63 0.0006487516    1.384    0.277
        42  -8.8868     77.9787      7.4990   3.3611049952e+01   6.2546280451e+01    0.2624949     0.186075  71.28  0.001401367    2.235    0.553
        43 -10.3625     76.6699      3.6487   3.2292414426e+01   6.3165846885e+01    0.2870442    0.1588509  26.64  0.001496436    1.724    0.420
        44 -10.2502     73.0063      3.0053   3.3178295703e+01   6.3922448271e+01    0.3084549     0.203017  23.18  0.001187908    1.338    0.253
        45 -11.5974    133.9348      2.6528   1.8189569788e+01   5.0526842427e+01    0.4162405    0.2791542  56.98  0.002278109    1.252    0.201
        46  -9.3673    128.9376      1.2449   1.8602061845e+01   5.1852172392e+01    0.2713082       0.1138  62.57 0.0008059805    2.001    0.500
        47 -10.4185     41.6025      3.8949   4.5714238247e+01   6.9003738601e+01    0.2858667    0.1646459  -4.49 0.0009302305    1.745    0.427
        48 -10.9994    206.1899      2.8272   8.7869923647e+00   3.2533447420e+01    0.4144783    0.2692766  81.27  0.002303885    1.362    0.266
        49 -10.0908    141.5278      3.3494   1.7121498621e+01   4.8604065573e+01    0.2615759    0.1965787  67.39  0.001487114    1.185    0.156
        50 -10.8232    105.4747      2.2941   2.3852369484e+01   5.7248616245e+01    0.2869684    0.2497439 -62.87  0.001387851    1.512    0.339
        51 -11.0556     23.0719      3.2359   5.4299539267e+01   7.1371482170e+01     0.334594    0.1647867  32.40  0.001955148    2.150    0.535
        52 -11.0542    113.9550      2.1497   2.1900544918e+01   5.5326450174e+01    0.4315529    0.2029885  59.34   0.00166534    1.816    0.449
        53  -9.9012     13.2335      2.0416   5.8944221124e+01   7.2498527812e+01    0.2013883    0.1188297  -6.77 0.0008729541    1.514    0.339
        54  -9.9750    152.5417      1.4309   1.4784016060e+01   4.6021839180e+01    0.2653641    0.1157489  68.35 0.0005936068    1.989    0.497
        55 -10.2684    176.6736      5.8246   1.2805353356e+01   3.9563295951e+01    0.3830796     0.165564  76.60   0.00110492    2.287    0.563
        56  -8.8387     33.5021      1.5054   4.8225505672e+01   7.0364962558e+01    0.1184083   0.08727609  -0.48 -2.637802e-05    1.017    0.017
        57  -9.4186    217.4996    138.9537   4.1203855040e+01   9.1851573222e+00    0.2187335    0.1388361 -36.85  0.000421406    1.507    0.336
        58  -9.3906    188.4118    250.2206   6.8197969316e+01  -3.6222385886e+00    0.1430071    0.1197716 -52.14 0.0005733875    1.687    0.407
        59 -10.7446     51.0074    249.7459   9.3675776026e+01   1.7123682798e+01    0.1632373     0.115206  59.06  0.001174965    1.080    0.074
        60 -10.1984     79.9743    138.1015   7.4219997585e+01   3.7153889784e+01     0.307059    0.2716317  62.98  0.001060701    1.160    0.138
        61  -9.6943     39.5104    133.4978   8.4601894447e+01   4.3332617932e+01    0.1954931    0.1338345  19.62 5.944616e-05    1.851    0.460
        62 -11.3199     23.0391    136.5078   8.9396948314e+01   4.4139442907e+01    0.5461355    0.3511283  40.29   0.00284448    1.728    0.421
        63  -9.9339     32.0514    137.5297   8.7162193732e+01   4.3100164014e+01    0.2530061    0.2044312  37.87 0.0008788357    1.423    0.297
        64 -10.8979     29.9547    133.0871   8.7133621515e+01   4.4343113272e+01    0.3417804    0.2232704 -49.97 0.0008016826    1.512    0.339
        65 -11.2800     12.4125    136.2474   9.2099332443e+01   4.5033763074e+01    0.5116685    0.2689568 -54.90  0.002848387    1.740    0.425
        66  -9.8177     47.3972    134.7911   8.2637595948e+01   4.2190192659e+01    0.2571661    0.1168618 -69.34  0.001124309    2.045    0.511
        67 -10.5373     40.0107    137.7629   8.5078074570e+01   4.2265466547e+01    0.3000674    0.2133842  77.23  0.000795382    1.478    0.324
        68 -10.0805    103.9445    131.1464   6.6153689891e+01   3.4860765667e+01    0.2200619    0.2121203 -58.58  0.001211949    1.018    0.018
        69  -9.7302     93.1505    129.8316   6.8879552695e+01   3.7046155000e+01     0.231243    0.2015307  87.16  0.001230452    1.235    0.190
        70 -11.0960     10.8919    127.2177   9.1498930473e+01   4.7229152118e+01    0.5088086    0.2260585 -58.47  0.001773141    1.825    0.452
        71  -9.7246     12.7483    122.5486   9.0450303229e+01   4.8182818540e+01    0.1879435     0.163555 -51.61 0.0008155223    1.235    0.190
        72 -10.1397     27.0229    126.2357   8.7003960139e+01   4.6218813394e+01    0.3798575    0.1023543 -59.95  0.001118275    2.692    0.629
        73  -9.5766     22.7503    127.0326   8.8285519664e+01   4.6386165414e+01    0.1733796    0.1309162 -72.23 0.0003909296    1.078    0.073
        74  -9.9005     32.9677    125.7004   8.5270835090e+01   4.5818892777e+01    0.2674943    0.1401378  83.84  0.001160433    2.658    0.624
        75  -9.8186      2.0898    125.9278   9.3669673531e+01   4.8092067303e+01     0.187874    0.1310304  82.74  0.001156201    1.339    0.253
        76 -12.0691    103.8010    122.3333   6.4181828990e+01   3.6958403292e+01    0.3446911    0.3320155  47.60  0.001900624    1.069    0.065
        77  -9.0701     78.4789    123.4606   7.1731377536e+01   4.0894860606e+01     0.143125    0.1330591 -62.94  3.54758e-05    1.004    0.004
        78 -10.4889     49.7789    123.0356   8.0033391862e+01   4.4744907151e+01    0.2413215    0.2020027  -4.99  0.001425515    1.493    0.330
        79 -10.5875     44.9852    119.9956   8.0906276442e+01   4.5993378837e+01    0.3463384     0.204992 -55.57  0.001792838    1.455    0.313
        80 -10.2041     43.6942    116.3556   8.0652796244e+01   4.6996181174e+01    0.2568076    0.2229752 -87.55 0.0007760024    1.165    0.141
        81 -11.4773      5.0814    105.1592   9.0424708140e+01   5.2667392785e+01     0.377248    0.3244237  -9.90   0.00272814    1.469    0.319
        82  -9.5249     58.2726    115.2691   7.6060712062e+01   4.5607858559e+01    0.2829879    0.1616178 -83.63  0.001169219    2.561    0.610
        83 -12.3703      2.5441    111.7648   9.1981245897e+01   5.1301070687e+01    0.5116172    0.3251666  77.90  0.002114265    1.679    0.404
        84  -9.9275     79.0642    114.6167   6.9632290251e+01   4.2913676333e+01    0.2844673    0.1976418 -48.42 0.0009957221    1.342    0.255
        85  -9.4455     67.7832    114.8555   7.3093630443e+01   4.4477278768e+01    0.1955653    0.1622038  82.98  0.001067957    1.377    0.274
        86 -10.7923     30.1186     97.2883   8.1398178314e+01   5.2745601858e+01    0.6422616    0.3490076 -51.32  0.003393664    1.521    0.342
        87 -10.1042     36.3343    103.0519   8.0490647423e+01   5.0858027490e+01    0.6784497      0.32971   4.34  0.002766261    3.661    0.727
        88 -10.4662     35.1977     92.5939   7.8796362283e+01   5.3383437460e+01    0.3526663    0.2104631 -63.15  0.001215995    1.466    0.318
        89 -11.8511     27.3566     84.9487   7.9875989567e+01   5.5784989750e+01    0.6257634    0.4679549   0.98  0.003878654    1.590    0.371
        90 -12.0489     42.5902     85.2328   7.4640951662e+01   5.4346578125e+01    0.8456653    0.3616056  15.83  0.003017772    3.401    0.706
        91 -11.5776     25.3706    107.1490   8.4623142511e+01   5.0841134798e+01    0.6960969    0.3723567 -51.58   0.00346358    1.589    0.370
        92 -13.0580     17.5643    100.3309   8.5930452364e+01   5.2998933321e+01    0.3179911    0.3028926 -82.43 0.0005044609    1.193    0.162
        93 -11.9072      9.6866     97.4507   8.7941168785e+01   5.4160702258e+01    0.4561584    0.4327954  -1.14 0.0006716464    1.315    0.239
        94 -11.3008     23.0069     94.6385   8.3222412493e+01   5.3917811740e+01    0.3204312    0.2726371 -16.61  0.001355191    1.347    0.257
        95 -11.0412     17.9723     90.6974   8.4167012513e+01   5.5173693061e+01    0.4989189    0.2609617 -74.77  0.002034571    1.880    0.468
        96 -11.2446     21.4243    114.5775   8.6942713763e+01   4.9411290565e+01    0.4425604    0.2572981  -0.48  0.002300434    2.588    0.614
        97 -11.2770     28.1184    113.2245   8.4770058122e+01   4.9193665013e+01    0.2980739    0.2609515 -16.92 0.0007078932    1.369    0.270
        98  -9.1759    126.5428    113.4611   5.5639536476e+01   3.4520546992e+01    0.1553598    0.1516321 -11.96 2.870263e-05    1.023    0.023
        99  -8.9295     86.3010    113.6615   6.7239427993e+01   4.2006360532e+01    0.1480459    0.1146367  84.26 0.0007036487    1.666    0.400
       100 -10.1310     48.8543    112.3880   7.8364377324e+01   4.7389434849e+01    0.2335748    0.2283004 -71.49 0.0009357603    1.124    0.110
       101  -9.5963    170.5619    111.2010   4.4051091324e+01   2.5056429793e+01    0.3173027    0.1512018 -43.74  0.001151394    2.116    0.527
       102  -9.5312    107.4950    112.5099   6.0724250308e+01   3.8548102503e+01    0.1514309    0.1470939 -41.23 -2.130243e-05    1.004    0.004
       103  -8.8887    104.2841    112.6660   6.1691056766e+01   3.9114315857e+01    0.1513522    0.1205615  89.89 0.0002420265    1.619    0.382
       104  -9.1966     93.6834    112.3553   6.4725225364e+01   4.1081192906e+01    0.1532546    0.1175605  84.86 0.0007045617    1.746    0.427
       105  -9.8964     67.1448    110.4065   7.2328341633e+01   4.5619763747e+01    0.2882704    0.2045531 -34.85  0.001469206    1.508    0.337
       106 -11.2002     79.7036    108.3645   6.7987945283e+01   4.4288116433e+01    0.4814329    0.3314625  23.34  0.001367312    1.694    0.410
       107  -9.5712    121.2233    108.7290   5.5852400262e+01   3.6679912416e+01    0.3241454    0.1971533  19.31  0.001187261    2.563    0.610
       108 -10.0165    102.1156    109.2960   6.1468975778e+01   4.0288106765e+01    0.3078754    0.2248061  14.49 0.0009609237    1.738    0.425
       109 -10.4777     15.2971    108.7162   8.7894966532e+01   5.1217099862e+01    0.3080125    0.2104798  15.33 0.0007683918    1.865    0.464
       110 -10.2888    181.9895    104.7918   3.9848148144e+01   2.3601008773e+01    0.4325251    0.3216058  21.54  0.001465647    1.657    0.396
       111  -9.7563    143.3497    106.0288   4.9211401649e+01   3.2451830019e+01    0.2894139    0.2297733  78.15  0.001305983    1.614    0.381
       112  -9.5161    118.4344    105.4823   5.5761183102e+01   3.7972202462e+01    0.1538891    0.1491807 -25.97 0.0001775538    1.009    0.009
       113  -9.8662     86.0311    103.8521   6.4929385818e+01   4.4333325364e+01    0.2452463    0.2046403  23.66 0.0007226072    1.299    0.230
       114  -9.8573     64.5993    101.5626   7.1126066484e+01   4.8035753692e+01    0.3302298    0.1466183 -52.09  0.001306615    1.967    0.492
       115 -11.9227     68.7602     95.6670   6.8351058986e+01   4.8828875729e+01    0.3250779    0.2835582  10.66  0.000463374    1.253    0.202
       116  -9.7262     50.7655    102.0038   7.5668944011e+01   4.9625861877e+01    0.2887018    0.1753889 -59.31  0.001139121    1.447    0.309
       117 -10.1928     52.6499     98.6934   7.4337255292e+01   5.0182458129e+01    0.4793707    0.1741732 -56.76  0.001516395    2.342    0.573
       118  -9.0683    120.4624    101.4990   5.4099626879e+01   3.8425632202e+01    0.1545339    0.1501497 -16.77 -4.439056e-07    1.005    0.005
       119  -9.4193    210.0260     97.9958   3.2616053004e+01   1.8208250054e+01    0.1792936    0.1770266  63.75  0.000566981    1.052    0.050
       120 -10.1805     81.1484     98.1224   6.4989469424e+01   4.6427805321e+01    0.2165388    0.1869603 -23.81 0.0004383275    1.180    0.153
       121 -10.6746     42.9652     94.6046   7.6630575509e+01   5.2176624036e+01    0.3335667    0.2750759 -52.17  0.002045667    1.030    0.029
       122 -12.0414    125.8931     94.7237   5.0670576669e+01   3.8715787813e+01    0.5107991    0.3740088  66.05 0.0002713787    1.733    0.423
       123 -10.6117    121.6961     93.6733   5.1535484801e+01   3.9838609277e+01    0.3856931    0.3307001  52.36  0.001592585    1.230    0.187
       124 -10.0909     82.9789     93.4707   6.3172496476e+01   4.7184265458e+01    0.6369558    0.5344814  63.46  0.003398064    1.460    0.315
       125 -10.6567     78.3827     93.2824   6.4602219763e+01   4.7953170773e+01    0.4282607     0.403757 -25.71  0.002501848    1.039    0.038
       126 -10.5168     98.5417     91.0738   5.7607449253e+01   4.5013892819e+01    0.2661733    0.2387596  38.53 0.0004234543    1.166    0.142
       127 -11.3323     89.4863     89.3190   5.9941087358e+01   4.7013522614e+01    0.5989803    0.3357666 -34.77  0.002412224    1.914    0.478
       128  -9.5032     89.5310     84.5289   5.8540682487e+01   4.8037860560e+01    0.2107992      0.13825  48.49 0.0009682103    1.748    0.428
       129 -10.4465     49.2496     91.3722   7.3797738432e+01   5.2251117775e+01    0.2880347    0.2471965 -21.03   0.00151171    1.213    0.176
       130 -11.7854      7.0274     88.8759   8.7454980873e+01   5.6249761492e+01    0.4768617    0.3501128   7.83  0.002296531    1.715    0.417
       131  -9.9394     66.3886     88.6558   6.7333464574e+01   5.0741257121e+01    0.2823578     0.178315 -22.56 0.0007659401    2.002    0.500
       132 -10.0409    104.3073     87.3097   5.4747994955e+01   4.4724856551e+01     0.269736    0.2265549  -8.93  0.001080744    1.283    0.221
       133 -11.0589    143.1944     84.6318   4.3130318163e+01   3.6819422717e+01    0.2715099     0.260588 -20.10 0.0002922559    1.045    0.043
       134  -9.8240    133.6818     84.8835   4.5661740545e+01   3.8980177835e+01    0.2868262    0.2058585  79.20 0.0006706454    2.100    0.524
       135  -9.9688    120.5378     83.6988   4.8901424180e+01   4.2136808527e+01    0.5187764    0.2654608 -35.28  0.001931084    2.057    0.514
       136 -10.3884     79.8833     83.9105   6.1509468259e+01   4.9780785409e+01    0.4271392     0.327779  29.26  0.002254394    1.378    0.275
       137 -10.5259     76.4111     80.5495   6.1693937160e+01   5.1048282740e+01    0.3986417    0.2604253 -43.49 0.0005207127    1.407    0.289
       138 -10.6712     73.5347     77.3523   6.1729177595e+01   5.2167854323e+01    0.4852265    0.3247948   3.54  0.002284223    1.969    0.492
       139  -8.9551    165.6555     84.3151   3.7731058146e+01   3.1442444171e+01    0.1625107    0.1246175 -78.87 0.0007047841    1.714    0.417
       140 -10.3083    113.2203     82.7621   5.0721176555e+01   4.3873900381e+01       0.3018    0.2883352 -47.56 0.0004726686    1.114    0.102
       141  -9.9794     67.1315     81.7698   6.5208448703e+01   5.2156144397e+01    0.3275458      0.23999 -18.03  0.001708669    1.515    0.340
       142 -11.2705     53.3739     76.2998   6.8528987642e+01   5.5126719856e+01    0.5375623    0.3082557 -56.38  0.002645565    1.677    0.404
       143 -11.1972     58.7231     77.8076   6.7036485478e+01   5.4140261288e+01    0.4572998    0.3326623 -20.21  0.002475389    1.467    0.318
       144  -9.8389      1.3666     80.4862   8.7977111995e+01   5.8398224176e+01    0.2584012    0.0893136 -68.59 0.0005862188    2.275    0.561
       145  -9.5019     92.0288     71.9971   5.3875623446e+01   5.0170075610e+01    0.2733738    0.2260945 -87.09  0.001276861    1.777    0.437
       146 -10.2097     88.1063     77.6384   5.6928440726e+01   4.9730692632e+01     0.417353     0.316522  64.33   0.00203467    1.846    0.458
       147 -10.0936     93.8579     76.5754   5.4737371280e+01   4.8918651905e+01    0.5470546    0.2817723  38.17  0.001907103    2.004    0.501
       148  -9.9982    233.3921     77.7799   2.3859910739e+01   1.6228760292e+01    0.1952783    0.1309647 -25.98 0.0006028601    1.596    0.373
       149 -11.7398     12.9546     74.0318   8.2726671769e+01   5.9204051393e+01    0.5497354    0.3586812 -69.61  0.002641205    1.417    0.294
       150  -9.8127     14.0096     67.6143   8.0972322087e+01   6.0527638913e+01    0.3877569    0.1770655  11.08  0.001974135    2.750    0.636
       151  -8.9754    134.5213     77.4932   4.3186887123e+01   4.0209451986e+01     0.153832    0.1498406  17.23 0.0008102062    1.017    0.017
       152  -9.4511     46.7164     75.9947   7.0853793261e+01   5.5953196404e+01    0.1995884    0.1504854 -43.40  0.001053084    1.126    0.112
       153  -9.0792    112.4999     75.4963   4.8669352655e+01   4.5464797965e+01    0.1508014    0.1435837  -0.99 -0.0001518554    1.012    0.012
       154  -9.9877    103.5035     74.6333   5.1097567778e+01   4.7466202877e+01    0.3119272     0.261744  74.57  0.001576556    1.587    0.370
       155  -9.3932     24.5337     74.5183   7.8607280252e+01   5.8316102154e+01    0.2479085    0.1331809 -42.62 0.0009038834    1.582    0.368
       156 -10.0465     28.9968     71.7828   7.6310442630e+01   5.8558155554e+01    0.2656557    0.1992141  13.47  0.001398347    1.533    0.348
       157 -11.0198     35.2869     71.8653   7.3983122496e+01   5.7992687846e+01    0.4455006    0.2456223  33.63  0.001847019    2.120    0.528
       158 -10.2424     41.0140     73.0349   7.2159494311e+01   5.7189972417e+01    0.2718196    0.1846273 -41.75 0.0007716047    1.247    0.198
       159 -11.3658     40.6059     69.1268   7.1260430544e+01   5.8065591449e+01     0.285975    0.2319908   4.60 0.0008865498    1.332    0.249
       160 -11.0423      2.0183     71.7885   8.6242114240e+01   6.0266145666e+01     0.361798    0.1434793 -59.77  0.001603936    1.780    0.438
       161 -11.2475    186.9247     71.4591   2.9762879871e+01   2.8384068065e+01    0.5667636    0.3901712 -42.23  0.002207307    1.450    0.310
       162 -11.4390    123.0552     68.8350   4.3521645659e+01   4.4426577731e+01    0.5279995    0.2971253  44.22  0.002223455    1.737    0.424
       163 -10.4629     78.6518     67.6453   5.6944482417e+01   5.3346041993e+01    0.3361966    0.3082787  68.83  0.001942486    1.422    0.297
       164 -10.6528    219.6007     66.9208   2.3175868344e+01   2.1108330732e+01    0.4904142    0.2100935  63.28  0.001897753    2.491    0.599
       165  -9.3423     81.1546     73.8259   5.8057131501e+01   5.1693069905e+01    0.1961507    0.1562665 -11.46 0.0005341054    1.311    0.237
       166  -9.6017     25.8406     65.7660   7.6009472590e+01   6.0098269118e+01    0.1465182    0.1391927 -81.80 0.0004272144    1.314    0.239
       167 -12.7949      6.6302     61.6617   8.2485447963e+01   6.2204505783e+01    0.6757874    0.4254312 -30.31  0.003342724    1.508    0.337
       168  -9.9452    153.6828     72.7337   3.7015864033e+01   3.6482520913e+01    0.3722088    0.1811361  40.71    0.0013494    2.245    0.555
       169 -11.0479     91.7198     62.5275   5.0842909894e+01   5.2041148097e+01    0.3729185    0.2624326  50.97  0.001308794    1.656    0.396
       170  -9.2984     52.1841     65.6659   6.5893000145e+01   5.7507488691e+01    0.1742754    0.1188246  12.05 0.0008372841    1.647    0.393
       171  -9.9295    199.5427     63.8366   2.5478048617e+01   2.6458579449e+01    0.4610647    0.2501062 -79.24   0.00146312    3.919    0.745
       172 -10.4361    157.5278     63.4728   3.3332445744e+01   3.7102364606e+01     0.527146    0.2080013  43.88  0.001672266    2.705    0.630
       173 -10.3027    154.8577     60.8382   3.3105091050e+01   3.8198829649e+01    0.2246647     0.217174  69.27            0    1.053    0.050
       174 -10.0480     58.3882     63.0420   6.2749279950e+01   5.7255833863e+01    0.3529666    0.2671718  62.83  0.001753482    2.101    0.524
       175  -9.5332     64.4054     61.5333   6.0026164342e+01   5.6728436840e+01    0.3842304    0.1877682  31.73  0.001734483    2.185    0.542
       176  -9.4657     51.0998     56.6512   6.3467126284e+01   5.9442266751e+01    0.5516511    0.3270567  54.08  0.002458816    3.109    0.678
       177 -10.6593     51.8959     48.2060   6.0268756373e+01   6.0940496992e+01    0.6849106    0.2589855  26.61  0.002766785    3.131    0.681
       178 -10.7128     40.6487     56.9112   6.7676392390e+01   6.0573778551e+01    0.7123045    0.3685557 -23.22  0.003091144    2.381    0.580
       179 -10.1785     50.7959     61.5642   6.5158021351e+01   5.8506786838e+01    0.2832574    0.2266055  32.00  0.001292271    1.433    0.302
       180 -11.1800     43.1574     62.3273   6.8338455564e+01   5.9216495230e+01    0.3032167    0.2119777 -41.77 0.0005481085    1.202    0.168
       181 -10.9727     46.1504     59.1475   6.6200545317e+01   5.9530709030e+01    0.3238286    0.2474948 -53.15  0.001087401    1.350    0.259
       182 -11.6670     44.0416     43.9678   6.1957007545e+01   6.2667551928e+01    0.5547478    0.2895939 -49.12  0.002806512    1.900    0.474
       183 -11.1270     39.9773     44.0179   6.3677558033e+01   6.3114431332e+01     0.371303    0.2308489 -14.18 0.0008644946    1.714    0.416
       184  -9.8045    105.9701     63.4940   4.6687326775e+01   4.9070786002e+01     0.333293    0.1418417  45.16  0.001256282    2.337    0.572
       185 -10.1122    106.7943     59.2378   4.4987949864e+01   4.9655104000e+01    0.3815703     0.246095 -60.06  0.001600984    2.396    0.583
       186 -11.1350    234.6214     60.8203   1.9629970148e+01   1.8543700884e+01    0.3867073    0.2998533  66.78   0.00215402    1.337    0.252
       187  -9.5828     84.9957     61.7242   5.2804218209e+01   5.3407864779e+01    0.2067089    0.1789894  26.82 0.0006193523    1.167    0.143
       188  -8.6983     83.0095     47.1718   4.8289023161e+01   5.6331461664e+01     1.720726    0.7492332 -19.46  0.004846614    5.500    0.818
       189 -12.3519     74.0317     51.0161   5.2862851572e+01   5.7214220731e+01    0.7405545    0.3890439 -52.85  0.002184897    2.633    0.620
       190 -10.4922    110.0568     40.3887   3.7315167278e+01   5.1952762164e+01    0.6439947    0.4446535 -25.37  0.003256682    1.494    0.331
       191 -10.6580    112.3888     50.7882   4.0402430087e+01   4.9868290049e+01    0.3238277    0.2450083 -27.63 0.0006770781    1.341    0.254
       192 -11.3577    115.9957     49.1345   3.8807405916e+01   4.9331274752e+01      0.35192    0.2856337 -41.80 0.0003783093    1.353    0.261
       193 -10.3210    174.6981    247.2597   7.0375200213e+01  -1.0151202964e+00     0.269505    0.2443271  54.53  0.001883692    1.321    0.243
       194  -9.5308    113.5944     60.7079   4.3491819513e+01   4.7954579666e+01    0.2776565    0.1426668 -32.35  0.001123404    2.027    0.507
       195 -10.8868     32.3376     52.8307   6.9783680683e+01   6.2198243009e+01     1.267045    0.4595533  14.67  0.004800059    4.286    0.767
       196 -11.0790     24.9858     59.5255   7.4708658022e+01   6.1469393603e+01    0.5950516    0.2049663  26.47  0.002675787    3.202    0.688
       197 -10.7215     25.0145     56.1729   7.3771952173e+01   6.2153569994e+01    0.5028349    0.2566384   3.28  0.002459649    2.549    0.608
       198  -9.2279    135.7020     58.6178   3.6868945528e+01   4.3254431487e+01    0.1605338    0.1146872  13.85 0.0007020658    1.768    0.434
       199  -9.9871     92.1326     57.4113   4.8940007909e+01   5.2891771907e+01    0.2804838    0.2139348  59.20 0.0008370025    1.709    0.415
       200 -10.4459     88.0786     56.1113   4.9819217033e+01   5.3876716473e+01    0.4645869    0.1793018 -33.89  0.001575171    2.765    0.638
       201 -10.8380     72.5319     47.5113   5.2119241214e+01   5.8068637895e+01    0.2345084     0.191881  -2.30 0.0002432672    1.123    0.109
       202 -10.8158    158.3104     55.5102   3.0717786719e+01   3.8171430610e+01    0.5064253    0.3850859 -86.56  0.002384394    1.659    0.397
       203  -9.6463    125.0286     56.6735   3.8961132604e+01   4.6078962409e+01    0.2172366    0.1880322  38.78  0.000716493    1.100    0.091
       204  -9.1954     66.9776     55.0516   5.6878277502e+01   5.7588348897e+01    0.1677627    0.1382653 -26.83 0.0009772955    1.086    0.079
       205 -11.2876     60.8572     48.0639   5.6699434803e+01   5.9755944875e+01    0.7652376    0.2850305 -38.77   0.00312547    2.488    0.598
       206 -10.6676    240.2609     50.5743   1.6540003215e+01   1.8744220539e+01    0.2431602    0.2177868 -17.15 0.0008607619    1.331    0.249
       207  -9.2245    201.4900     53.5089   2.2406858561e+01   2.7533446472e+01     0.142638    0.1373904  80.31 -5.157715e-05    1.057    0.054
       208 -10.1708    173.4581     48.6474   2.5695206130e+01   3.5336836974e+01    0.4913569    0.2314266  71.26  0.001769657    2.642    0.621
       209 -10.0987    146.2723     47.6197   3.0804101716e+01   4.2370403611e+01    0.3186904    0.2400792   0.69 0.0009857485    1.614    0.381
       210  -9.6406     26.1937     48.9491   7.1153292548e+01   6.3498076571e+01    0.2190365   0.09835949 -35.87  0.001074089    1.986    0.496
       211  -9.8459      2.1663     49.0436   8.1368045185e+01   6.5018625393e+01    0.1816165    0.1499825 -20.92 0.0008284696    1.252    0.201
       212 -10.9100     20.8083     45.7768   7.2483031998e+01   6.4541807298e+01    0.4766391    0.2040195 -34.85 0.0009903638    2.113    0.527
       213  -9.9224     26.4867     42.9865   6.9121699104e+01   6.4617819300e+01    0.2006141    0.1453645 -13.28 0.0006206404    1.298    0.230
       214 -10.2579     22.8517     37.7673   6.8977314884e+01   6.5894230623e+01    0.4205887    0.3216377  60.94  0.002008046    2.416    0.586
       215  -9.9004     13.8054     46.3168   7.5675091118e+01   6.4923789171e+01    0.2392993   0.09738899 -39.48  0.001186827    1.980    0.495
       216 -10.6414    137.7186     44.7334   3.1783259770e+01   4.4893733479e+01    0.7110616    0.2655325  41.27  0.002246887    3.024    0.669
       217 -10.3598     30.1454     45.4701   6.8358691998e+01   6.3824443239e+01    0.2172728    0.1399053 -30.99  0.001292743    1.312    0.238
       218 -10.5008    200.3296     44.9868   2.0308107212e+01   2.9032916555e+01    0.4551986     0.211626  76.26  0.001689382    2.719    0.632
       219  -9.6103    161.0415     43.6471   2.6503020526e+01   3.9211502838e+01     0.301422    0.1397981  68.63  0.001094514    2.522    0.604
       220 -10.4646    155.8648     42.4155   2.7132031224e+01   4.0695878715e+01    0.3163487    0.2621412  34.17  0.001209291    1.244    0.196
       221  -9.7589     91.9482     41.9830   4.3362604999e+01   5.5481773141e+01    0.3390832    0.1961894  58.40  0.001470116    2.399    0.583
       222  -9.6644     17.1938     42.0243   7.2905760336e+01   6.5527875568e+01    0.2131926   0.08997845 -35.86 0.0009476616    2.040    0.510
       223  -9.7383     57.1262     41.6186   5.5757773716e+01   6.1408996526e+01    0.2275186    0.1182863  36.67  0.001115596    2.044    0.511
       224 -10.2423     88.4552     29.2910   3.9516783442e+01   5.7983379731e+01    0.4133495    0.2031322  40.10  0.001889176    1.889    0.471
       225 -10.2423     79.1541     38.8079   4.6427928802e+01   5.8359093595e+01    0.4533536    0.2947292  64.73  0.001992098    2.926    0.658
       226 -11.4169     79.9585     33.2486   4.3939443922e+01   5.9043412971e+01    0.6435077     0.341455  28.17  0.002949951    2.036    0.509
       227  -9.8465    231.5139     38.4573   1.4700787272e+01   2.2383926520e+01    0.2866433    0.1262644 -32.37   0.00123572    2.256    0.557
       228 -11.2133     61.0549     36.1483   5.2074000351e+01   6.1744630624e+01    0.4459368    0.2730323 -11.26   0.00151088    1.850    0.459
       229  -9.2832     70.8126     34.3904   4.7661039400e+01   6.0471729436e+01    0.1946411    0.1725346 -15.28 0.0004991772    1.166    0.143
       230 -10.0171     67.5442     32.0850   4.7936897010e+01   6.1357098260e+01     0.338188    0.2110602  15.51   0.00111262    1.739    0.425
       231 -11.5201      4.8714     35.8607   7.6598513156e+01   6.7461335788e+01    0.3872438    0.2838515 -22.85  0.001990307    1.216    0.178
       232 -10.4123     11.8602     30.1389   7.1456324489e+01   6.8099033048e+01    0.4147716    0.1417576 -45.53  0.001956287    2.111    0.526
       233 -10.3373      7.2626     30.4231   7.3756068975e+01   6.8337080842e+01    0.2947414    0.1578879 -11.59  0.001270931    1.972    0.493
       234  -8.9592    206.4756     37.4698   1.7484384967e+01   2.8514157571e+01    0.1399323    0.1267867 -83.09 0.0002404972    1.008    0.008
       235 -10.9850    176.2410     34.4858   2.1069308598e+01   3.6534147583e+01    0.6169239    0.2465001 -37.88  0.001843635    2.503    0.601
       236  -9.5033    153.8582     37.1512   2.5862110962e+01   4.1906998659e+01    0.2037453    0.1623342  32.15 0.0004209753    1.322    0.244
       237  -9.5670    132.7521     37.0620   3.0329025229e+01   4.7155857037e+01    0.3631294    0.2086065  87.27  0.001204278    3.946    0.747
       238  -9.3100     12.6882     36.8965   7.3318696750e+01   6.6804060975e+01    0.1583428   0.09310517 -59.23 0.0007071518    1.739    0.425
       239  -9.6457     94.0747     35.8124   4.0319309274e+01   5.5970260657e+01    0.1901829    0.1880098  68.04 0.0006053624    1.293    0.227
       240  -9.9097    142.7623    249.6301   7.6805529755e+01   3.8018627699e+00    0.1842373   0.09127889  46.24 0.0009504058    1.656    0.396
       241  -9.3762    113.4695    249.4814   8.2351327954e+01   8.4410011216e+00    0.1213312   0.09658679  49.74 0.0003364995    1.037    0.035
       242 -11.6203    106.4877     32.5684   3.5397069454e+01   5.3808678318e+01    0.6618497    0.3621003   9.10  0.002495661    3.101    0.678
       243 -12.1500    113.5394     24.9414   3.0630226521e+01   5.3182607287e+01    0.6758618    0.3033269  50.38  0.001900989    1.946    0.486
       244 -10.0733    239.9554     32.8202   1.2509169136e+01   2.1187738605e+01    0.3145772    0.1818112  53.18  0.001595353    1.958    0.489
       245 -12.0100    164.3475     27.6747   2.1003220708e+01   4.0408146817e+01    0.3009563    0.2644852  69.50 0.0004890332    1.051    0.049
       246  -9.5307     43.0464     28.0312   5.6207996965e+01   6.5494377797e+01    0.1852709    0.1203218  -9.87            0    1.496    0.332
       247 -11.0523     57.3606     30.5525   5.1258977443e+01   6.3166820389e+01    0.4301003    0.2607477 -13.92  0.001337066    1.749    0.428
       248 -11.5381     48.7259     30.5177   5.4799163240e+01   6.4376142590e+01    0.5673649    0.2394665  30.17  0.001970591    2.460    0.594
       249 -11.0804     32.4767     31.0577   6.2145612906e+01   6.6193556006e+01    0.2217337     0.168371 -24.84 0.0002932358    1.051    0.049
       250  -9.3972    230.0305     30.7290   1.3048151079e+01   2.3721930344e+01    0.1831134    0.1546906  89.69 0.0003326895    1.096    0.088
       251 -10.4082    197.8832     28.7750   1.6335572375e+01   3.1748648285e+01    0.3297921    0.3088496 -17.68  0.001993237    1.244    0.196
       252 -11.1210    188.9109     28.0910   1.7361184738e+01   3.4091483201e+01     0.377693    0.3094313  -5.33  0.001314591    1.518    0.341
       253  -9.8261    213.7781    248.2014   6.3170846863e+01  -7.2974491190e+00    0.1715997    0.1156099  14.57 0.0008398538    1.347    0.257
       254 -12.0573    126.4497    241.7782   7.8994634924e+01   7.6882416390e+00    0.3958217    0.2889986  63.42  0.001938189    1.386    0.279
       255 -12.1985    126.2749     28.5790   2.8863332387e+01   4.9782313004e+01    0.5228413    0.4056653  65.05  0.002800613    1.338    0.253
       256 -11.1747    182.8536     25.7862   1.7575973174e+01   3.5902291998e+01    0.3508862    0.2686986  43.18  0.001374116    1.400    0.286
       257 -11.8014    146.9827    237.8643   7.4467799000e+01   4.9809439723e+00    0.5397267     0.322323  53.28  0.002279205    1.656    0.396
       258 -10.9606    155.2800     24.3934   2.1551560798e+01   4.3094394390e+01    0.3486772    0.2465113  89.36  0.001122164    1.648    0.393
       259 -10.9604    143.7084     25.1666   2.3958429749e+01   4.5919932024e+01    0.3880785    0.2020397  62.47  0.001665555    1.783    0.439
       260 -10.7643    148.2372     22.5780   2.2244665422e+01   4.5074973514e+01     0.371217    0.1152594  59.62   0.00130734    2.695    0.629
       261  -9.6553    243.6417    235.2227   5.5647611071e+01  -1.0121761231e+01    0.1614399   0.09596362 -16.45 0.0006791502    1.675    0.403
       262 -11.0840    196.3592    232.1714   6.3916736288e+01  -2.3970594486e+00    0.4465231    0.2181447  36.00  0.001995742    1.712    0.416
       263  -9.8839    200.5019    226.4927   6.2182640934e+01  -2.2618663103e+00    0.1312973    0.1061836  21.13 0.0001513063    1.021    0.020
       264 -11.2807    167.3106    238.0048   7.0481696657e+01   1.5694347309e+00     0.237756    0.2094545 -35.80 0.0008603372    1.374    0.272
       265 -11.6307     67.6816    240.9348   9.0058783298e+01   1.6556627863e+01    0.7142856    0.2619711  30.66   0.00278311    4.307    0.768
       266  -9.9135     59.7636     23.5846   4.7336649460e+01   6.3820146717e+01    0.2111952     0.150753 -23.61 0.0003448353    1.291    0.225
       267  -9.1573     15.3819    233.8103   9.8769400175e+01   2.4043189918e+01    0.1393886   0.08062723 -73.71 0.0009453692    1.677    0.404
       268  -9.6549     57.6605    225.3371   9.0625390220e+01   2.0807776921e+01    0.1304008   0.06968982  65.95 0.0007050954    1.758    0.431
       269 -10.7989     38.8419     22.2014   5.5595074358e+01   6.6907453805e+01    0.2122722    0.1594924 -16.16 0.0004200199    1.066    0.062
       270  -9.4475    233.9634    223.4949   5.5354414614e+01  -7.2135887530e+00    0.1843531    0.1051156  33.74 0.0005409928    1.536    0.349
       271  -9.5705    223.4838     22.0619   1.1689927327e+01   2.6311129793e+01    0.2059911    0.1587933  82.90 0.0006074553    1.192    0.161
       272  -9.6693      5.7362     22.0067   7.1576284448e+01   6.9924684313e+01    0.1790419    0.1312626 -15.41 0.0006634824    1.198    0.166
       273  -9.5169    216.4520     20.7227   1.2101855886e+01   2.8142392728e+01    0.1624572    0.1315928 -14.91 0.0008198787    1.555    0.357
       274  -9.7867    247.4623    231.4939   5.4332874663e+01  -1.0218426461e+01    0.1214939   0.09237844   9.27  6.87744e-05    1.009    0.009
       275 -10.3479     90.8805     22.4958   3.5994063169e+01   5.8359089827e+01    0.3086796     0.217027 -16.80  0.001435949    1.436    0.303
       276  -9.5216     65.6953    222.3453   8.8814696271e+01   2.0340170561e+01     0.129915   0.07418892  67.95 0.0007041307    1.691    0.408
       277  -9.8467     74.6528     19.5883   4.0062687364e+01   6.1830538756e+01    0.2442802    0.1723952  17.00 0.0006532614    1.311    0.237
       278 -10.0548     47.0568     19.5772   5.0803138721e+01   6.6236337688e+01    0.2493984    0.1555383 -21.53  0.001454882    1.430    0.301
       279  -9.6909     26.5544     14.2255   5.7836157683e+01   6.9472872992e+01    0.1737008    0.1404424  -7.55 0.0004986491    1.148    0.129
       280  -9.4119     75.5078    224.5026   8.7098230381e+01   1.8575186963e+01     0.123733   0.09905083  65.13 2.168452e-05    1.005    0.005
       281  -9.4762    152.8224    219.3942   7.0637717701e+01   7.1022042688e+00    0.1925518    0.1125061  31.67 0.0005256518    1.663    0.399
       282  -9.5138    144.5025    215.0016   7.1707678496e+01   9.3461226906e+00      0.18694    0.1360035 -51.44   0.00103296    1.590    0.371
       283  -9.8910    164.7507    212.0147   6.6982161392e+01   6.2753283774e+00    0.2374763     0.174814  40.05 0.0005770024    1.185    0.156
       284  -8.7860      1.4781     20.4964   7.3203505348e+01   7.0430958494e+01    0.1156388   0.07836636 -32.08  0.000809234    1.072    0.068
       285 -10.0070    152.8656    207.5256   6.8757392335e+01   9.2242801392e+00    0.2622817    0.1879295 -73.89  0.001322284    1.993    0.498
       286  -9.4332     61.3088    206.5961   8.8193154032e+01   2.4111599569e+01    0.1531769    0.1133059  35.75 0.0009348911    1.505    0.335
       287  -9.5300     78.5715    203.7865   8.4276726496e+01   2.2325723214e+01    0.1698735    0.1129835 -86.36 0.0006249589    1.556    0.357
       288 -11.3712    239.1505     16.0734   8.8501595619e+00   2.3398640358e+01    0.2468065    0.1703056 -78.84  0.001443529    1.330    0.248
       289  -9.9628    147.9201     16.2108   2.0233649923e+01   4.5826620087e+01    0.3647972    0.1395205  52.08  0.001451719    2.210    0.547
       290  -9.7139    120.0432     15.9658   2.5724326606e+01   5.2654016932e+01    0.2233468    0.1417728  29.77 0.0004978145    1.625    0.384
       291 -10.4725    186.7541     15.0436   1.4080684390e+01   3.6106252856e+01    0.2516972    0.1766678  63.53 0.0003828002    1.286    0.222
       292 -10.1606    139.1753    198.9791   7.0334551033e+01   1.3334599939e+01    0.2252175    0.1604257  85.79 0.0009906068    2.022    0.506
       293  -9.6650     74.5137     13.4970   3.7433521073e+01   6.2569213410e+01    0.1935907    0.1206211  55.99  0.000692856    1.978    0.494
       294 -10.8532      6.1116    198.5664   9.8452480079e+01   3.1825144106e+01    0.2256224    0.1098652 -65.60  0.001340913    1.953    0.488
       295  -9.7774    233.9504    196.8094   5.0415635363e+01  -3.4817297886e+00    0.2287248    0.1742612 -22.63 0.0008269959    1.257    0.205
       296  -9.5161     79.4827    190.4916   8.2472463603e+01   2.5046284859e+01    0.1326854    0.1153899  73.98 8.009997e-05    1.005    0.005
       297 -10.9009      2.7682    181.7610   9.8060072100e+01   3.5622001643e+01    0.2322844     0.150203 -80.13  0.001148564    1.249    0.199
       298 -11.6920      5.1386    185.7995   9.7850533913e+01   3.4569762848e+01    0.4696559    0.3150882 -83.36  0.002669439    1.194    0.162
       299  -9.3716     28.1684    175.8455   9.2292948906e+01   3.4629815695e+01    0.1580126    0.1275607 -65.39 0.0005610579    1.305    0.234
       300 -10.2062     51.7571    173.1133   8.6684827268e+01   3.2659016587e+01    0.4568113    0.1979031 -86.47  0.001751323    3.248    0.692
       301  -9.7602     39.5215    173.5090   8.9536330321e+01   3.3972379159e+01    0.1257614    0.1032669  86.92 2.787427e-05    1.001    0.001
       302  -9.6174     66.3484     10.4209   3.8908974761e+01   6.4376284272e+01    0.2413982    0.1020149  41.30  0.001136937    2.111    0.526
       303  -9.0392    170.4796    172.4108   5.8441706816e+01   1.2586817829e+01    0.1486204    0.1370646  29.99 0.0001953279    1.018    0.017
       304 -12.0779      9.7662    165.6391   9.5441284278e+01   3.8562860022e+01    0.5316294    0.3080248 -61.45  0.002295581    1.624    0.384
       305 -10.7453     14.0704    159.2021   9.3937629110e+01   3.9653126799e+01    0.3377391    0.1759127 -81.10  0.001847508    1.593    0.372
       306  -9.1172    187.6803    167.6785   5.3694826369e+01   1.0020423892e+01     0.154048    0.1127949   4.76 0.0007044087    1.669    0.401
       307 -10.2756     18.7135    164.9167   9.3398738133e+01   3.7967945222e+01    0.2184195    0.1775794 -11.47  0.001328979    1.868    0.465
       308  -9.7073    204.9517    163.4076   4.9175906089e+01   7.3282970580e+00     0.218786    0.1890878 -23.55 0.0006000038    1.131    0.116
       309 -10.6001     28.0181    161.8894   9.0980801855e+01   3.7800098199e+01    0.3106598    0.2242318 -68.33  0.001961269    1.243    0.195
       310  -9.7185     38.0533    160.4746   8.8456922501e+01   3.7119528800e+01    0.2032813    0.1498058 -77.66  0.001238586    1.155    0.134
       311 -10.5643      9.3537    155.5004   9.4688762662e+01   4.0864782053e+01    0.2402202    0.1732773 -83.33   0.00106426    1.085    0.079
       312 -10.4303    104.9241    154.3144   7.0641231610e+01   2.9231674158e+01    0.4607004    0.3252099  18.60  0.002127286    1.878    0.467
       313 -12.5134     22.7208    149.2542   9.0923938131e+01   4.1196430076e+01    0.5769725    0.3137268 -38.95  0.001953232    2.568    0.611
       314 -10.9381     16.4693    147.9424   9.2307082946e+01   4.2024531229e+01    0.2915002    0.1923553 -80.76 0.0004009608    1.232    0.188
       315 -10.3582      4.1632    153.7482   9.5723958080e+01   4.1646047169e+01    0.2255451    0.1311878  47.38  0.001080322    1.781    0.439
       316 -11.3369     47.3447    146.9624   8.4435025345e+01   3.9288695600e+01    0.6086814    0.3556103 -48.84  0.003109101    1.789    0.441
       317  -9.1562    142.6916    152.6915   6.0786991024e+01   2.2387227233e+01    0.1536335    0.1222382  -1.97 0.0003574365    1.616    0.381
       318 -10.4590     66.6438    149.2447   7.9739307404e+01   3.6369401461e+01    0.3461576    0.2282772   5.91   0.00131721    2.511    0.602
       319 -10.4432     30.5199    151.8966   8.9306139713e+01   3.9870036151e+01    0.2462344    0.1802974 -35.41  0.001463596    1.794    0.442
       320 -11.3237      5.8266    142.1495   9.4319154547e+01   4.4149352484e+01    0.5598958     0.233883  82.53 0.0003486764    2.850    0.649
       321 -11.0624      2.1273    140.6747   9.5076850752e+01   4.4733687064e+01    0.3773153    0.1677409 -75.87  0.001262197    1.747    0.428
       322 -10.3460      3.0999    147.7527   9.5466102914e+01   4.3068756162e+01    0.2053994    0.1346519 -78.14   0.00123865    1.183    0.155
       323  -9.5973     74.1162    146.1290   7.7249973749e+01   3.6082309188e+01    0.2080524    0.1790297 -41.46 0.0004790441    1.286    0.222
       324 -11.0622     33.2577    144.3225   8.7716965306e+01   4.1382220811e+01    0.2709087    0.2210277 -80.07  0.000766774    1.021    0.021
       325  -9.3059     16.3041    141.3126   9.1659815357e+01   4.3567311453e+01    0.1207702   0.07777789 -50.14 0.0003266738    1.615    0.381
