#   1 NUMBER                 Running object number                                     
#   2 MAG_AUTO               Kron-like elliptical aperture magnitude                    [mag]
#   3 X_IMAGE                Object position along x                                    [pixel]
#   4 Y_IMAGE                Object position along y                                    [pixel]
#   5 X_WORLD                Barycenter position along world x axis                     [deg]
#   6 Y_WORLD                Barycenter position along world y axis                     [deg]
#   7 A_WORLD                Profile RMS along major axis (world units)                 [deg]
#   8 B_WORLD                Profile RMS along minor axis (world units)                 [deg]
#   9 THETA_WORLD            Position angle (CCW/world-x)                               [deg]
#  10 FWHM_WORLD             FWHM assuming a gaussian core                              [deg]
#  11 ELONGATION             A_IMAGE/B_IMAGE                                           
#  12 ELLIPTICITY            1 - B_IMAGE/A_IMAGE                                       
         1 -13.4532    192.2532    129.1173   2.6577280286e+02  -5.7986295578e+01    0.2643667    0.1695185  20.65 0.0005809103    1.592    0.372
         2 -13.8336    207.5218     99.2000   2.6430446383e+02  -5.8910407635e+01    0.3298196    0.2531458 -52.39  0.008040322    1.285    0.222
         3 -13.9085    223.7945    138.5716   2.6726603493e+02  -5.8874203615e+01     0.512158    0.2834419  -5.10   0.01527763    2.821    0.646
         4 -13.6363    221.8705    119.3024   2.6599041081e+02  -5.9097941564e+01    0.9039209    0.3935931  -5.48   0.01526057    8.902    0.888
         5 -14.1523    241.6070     59.5669   2.6260118750e+02  -6.0569099378e+01    0.3969949    0.3445332 -89.78  0.005494526    1.212    0.175
         6 -10.3886    220.4215     33.9577   2.6032116313e+02  -6.0172242334e+01   0.07140245   0.03012414  52.45  0.001958378    3.043    0.671
         7  -8.2477    245.6461     11.9436   2.5940085158e+02  -6.1277172897e+01   0.02565779   0.02312488   5.98  0.000406141    1.121    0.108
         8  -9.2853    243.7061      4.3327   2.5881672130e+02  -6.1295226770e+01   0.03464762   0.03025944  10.67 0.0004282039    1.154    0.133
         9  -8.5125    148.3262      6.3305   2.5692496363e+02  -5.8013155413e+01   0.02007302   0.01273026  53.84 0.0004070662    1.707    0.414
        10  -9.3644    199.4371    235.1987   2.7226495614e+02  -5.6522767191e+01     0.039867   0.02983038  87.61 0.0008996418    1.636    0.389
        11 -11.7924    203.0917    248.7781   2.7314256207e+02  -5.6397577161e+01    0.2636362   0.06602833 -61.24  0.005946616    4.317    0.768
        12 -11.6048    220.2820    248.0247   2.7366575156e+02  -5.6940627467e+01    0.1805208   0.07890292 -64.82  0.005340104    2.584    0.613
        13  -9.9665    196.8395    243.4663   2.7264531654e+02  -5.6297723484e+01   0.05731532   0.03883591 -70.25  0.001987232    1.604    0.377
        14 -10.2698    202.5162    239.9567   2.7263106687e+02  -5.6535412666e+01   0.07433269   0.03145986 -69.55  0.002012986    3.156    0.683
        15 -11.5800    246.6535    247.9364   2.7455842437e+02  -5.7748768469e+01     0.225633    0.1053479  33.53  0.007277232    2.104    0.525
        16 -11.7129    236.9730    248.2867   2.7424431147e+02  -5.7447189907e+01    0.1536044    0.1284209  26.11  0.006570867    1.218    0.179
        17 -11.1484    178.2539    243.6234   2.7206828933e+02  -5.5716767721e+01    0.0994819   0.05451677 -86.92  0.002809278    3.236    0.691
        18 -10.7827    180.1358    249.5490   2.7245345643e+02  -5.5672718735e+01    0.1346494   0.04129907 -64.22  0.003220624    3.894    0.743
        19  -9.6853    169.8732    249.3608   2.7212437760e+02  -5.5356535681e+01    0.0485358   0.03589054  51.96  0.001919364    1.462    0.316
        20 -10.1124    155.7784    250.2076   2.7174082887e+02  -5.4901985260e+01   0.07893824   0.03000972 -56.22  0.002319079    2.461    0.594
        21 -10.4334    164.1613    246.4861   2.7179220180e+02  -5.5227575111e+01   0.06011562   0.03850877 -78.48   0.00212934    1.911    0.477
        22 -10.9519    156.9599    244.7363   2.7147869398e+02  -5.5031928114e+01   0.06786757   0.03770229 -70.12   0.00226951    2.044    0.511
        23 -10.6389    149.3710    247.4538   2.7139941010e+02  -5.4748065730e+01   0.06865999   0.03672979  38.06  0.002353732    1.844    0.458
        24  -9.9866    144.6077    248.5008   2.7131464366e+02  -5.4581014549e+01   0.05578757   0.03431725  59.43  0.001904382    2.089    0.521
        25  -8.8260    131.3336    247.3115   2.7086190030e+02  -5.4183722838e+01   0.01909838    0.0137643  65.18 0.0003650792    1.679    0.404
        26 -11.3395    139.5992    245.9926   2.7103163711e+02  -5.4465754252e+01   0.09414043    0.0602309  58.92  0.003336549    1.935    0.483
        27  -9.9925    126.9964    247.9962   2.7077338028e+02  -5.4035793002e+01   0.03497796   0.02683555   1.23 0.0005738883    1.496    0.332
        28 -10.4039    116.3342    248.7034   2.7050656704e+02  -5.3688016882e+01   0.05226202   0.03501945 -43.48  0.001979231    1.532    0.347
        29  -8.5527    105.2289    236.6113   2.6955110278e+02  -5.3532259720e+01   0.02572522   0.01758217 -78.10 0.0007089896    1.671    0.402
        30  -9.8849    160.1612    234.8520   2.7103228786e+02  -5.5299014485e+01   0.04664511   0.02599635  85.00  0.001287225    3.376    0.704
        31 -10.2010    170.2504    242.5381   2.7176155433e+02  -5.5485429704e+01   0.07122273   0.01755347 -56.97  0.001734092    3.561    0.719
        32  -8.5683    153.9762    232.5023   2.7071867679e+02  -5.5143342054e+01     0.028166   0.01782674 -61.82  0.001027855    1.575    0.365
        33  -8.1889    214.1881    230.8843   2.7249549521e+02  -5.7056799982e+01   0.02579694   0.02115062  61.18 0.0007974606    1.339    0.253
        34  -8.2552    116.3142    231.6600   2.6959179714e+02  -5.3963987103e+01   0.01945734   0.01351993 -26.27 0.0004528093    1.701    0.412
        35  -8.3538    135.3391    229.3040   2.7000078423e+02  -5.4606294583e+01   0.01911892   0.01375203  65.31 0.0007039686    1.674    0.403
        36  -9.9789    189.2631    244.8675   2.7248225028e+02  -5.6037952046e+01    0.0870394   0.03882441 -76.64  0.002094281    4.244    0.764
        37  -8.5545    144.6808    228.5639   2.7022939321e+02  -5.4914479332e+01   0.03351124   0.01827713 -68.54  0.001003365    1.993    0.498
        38  -8.2129    109.7715    227.4162   2.6918156148e+02  -5.3823291372e+01   0.02631632   0.01772288 -80.29 0.0009547344    1.737    0.424
        39  -8.1376    223.0336    225.7807   2.7249224377e+02  -5.7420960012e+01   0.03059352   0.02057105  76.51  0.001005843    2.065    0.516
        40  -8.4440    162.8428    223.9214   2.7050549267e+02  -5.5565639041e+01   0.02883524   0.02468612  67.84 0.0008103143    1.278    0.218
        41  -8.3336    240.4996    218.2905   2.7263735966e+02  -5.8094538492e+01   0.03508377   0.01665952  35.29  0.001126551    2.037    0.509
        42  -8.9988    123.9702    206.0146   2.6839868736e+02  -5.4613858140e+01   0.02556776   0.02513799 -22.09  0.001165951    1.014    0.014
        43  -9.0662    250.5079    201.3526   2.7196979718e+02  -5.8701826489e+01   0.03897382   0.02274692  31.88  0.001383437    1.688    0.407
        44  -8.6604    197.4890    204.0053   2.7042023340e+02  -5.6991447238e+01   0.03576314   0.02304686 -43.50 0.0006958805    1.611    0.379
        45  -8.5200    244.1347    200.2633   2.7169166066e+02  -5.8521779191e+01   0.05017382   0.02895364   2.74   0.00153129    2.703    0.630
        46  -9.2675    218.7404    198.7417   2.7077666773e+02  -5.7750482514e+01    0.0314301   0.02833191 -21.17 0.0003319407    1.166    0.142
        47  -8.9961    199.1884    192.0419   2.6977358016e+02  -5.7242062038e+01   0.03393405   0.02453268 -46.98 0.0005713528    1.388    0.280
        48  -8.4938    227.8181    185.6261   2.7028318838e+02  -5.8255913956e+01   0.02666177   0.02251616 -56.28 0.0003683883    1.173    0.147
        49  -9.2132    223.8521    184.0335   2.7006190908e+02  -5.8156584349e+01   0.03762548   0.02455799 -51.45 0.0003513949    1.507    0.337
        50  -9.2932    249.0305    185.0533   2.7093501105e+02  -5.8934644583e+01   0.03504181   0.02535715 -54.89 0.0005084525    1.360    0.265
        51  -8.2669    202.0502    184.0346   2.6938778815e+02  -5.7463073817e+01   0.03050483   0.02090742 -27.89  0.001116831    1.728    0.421
        52  -8.7152    243.2541    182.0271   2.7056144989e+02  -5.8803559912e+01   0.04872111   0.03353242 -46.94  0.001466756    1.464    0.317
        53  -8.1333    246.8466    180.6313   2.7059331415e+02  -5.8940214555e+01   0.03435756   0.02292628 -41.70 0.0006257198    1.579    0.367
        54  -7.5491    221.2957    179.6806   2.6971969059e+02  -5.8146728269e+01   0.01891571   0.01369457 -25.65 0.0003214634    1.612    0.380
        55  -8.5415    193.0346    179.3882   2.6884153582e+02  -5.7249132875e+01   0.03433009   0.02563243  -3.50 0.0009075294    1.569    0.363
        56  -9.6222    231.4577    175.8742   2.6980831142e+02  -5.8531864431e+01   0.03889696   0.03576782 -46.67 0.0006527978    1.086    0.079
        57  -7.7907    211.3207    176.6795   2.6923097716e+02  -5.7877422640e+01   0.01936747   0.01355419 -27.92  0.000704413    1.669    0.401
        58 -10.0810    186.6595    240.2209   2.7214202143e+02  -5.6037619626e+01   0.05778449    0.0317089  63.39  0.001696474    2.920    0.658
        59  -9.8936    132.8475    240.8622   2.7055802583e+02  -5.4338169521e+01    0.0288382   0.02498774  65.23  0.001230834    1.251    0.200
        60 -12.8895    230.4841    101.4009   2.6508177343e+02  -5.9636784385e+01     0.100077   0.08138739  26.72  0.001392903    1.221    0.181
        61 -13.3802    241.1408     80.7841   2.6401971016e+02  -6.0273365310e+01    0.1833335   0.07212319 -72.82   0.00382178    2.911    0.656
        62 -14.4847    239.1112    125.1980   2.6687330595e+02  -5.9572441060e+01    0.1650693    0.1295759  62.53  0.004069013    1.412    0.292
        63 -12.2613    250.0609    119.5919   2.6684045000e+02  -6.0011652191e+01   0.06263881   0.03374565  24.71 0.0003974009    1.854    0.461
        64 -12.5482    239.4603    140.8833   2.6788441095e+02  -5.9344925833e+01   0.06621712   0.05713585 -84.31 -6.609357e-05    1.231    0.187
        65 -13.7589    248.3510    134.1919   2.6773144974e+02  -5.9734713356e+01    0.2441923    0.0737756  34.83  0.003133246    2.957    0.662
        66 -12.7572    229.2826    118.0343   2.6612336638e+02  -5.9358543354e+01   0.09013624   0.06086546  -9.17  0.001874329    1.829    0.453
        67 -12.2043    228.0640    111.0356   2.6563772495e+02  -5.9420164551e+01   0.04895193    0.0442229 -34.63 0.0003064033    1.125    0.111
        68 -12.8774    235.5384    106.9001   2.6558456517e+02  -5.9724349840e+01   0.05730076    0.0441363  69.12 0.0003299833    1.475    0.322
        69 -12.6837    248.3134     98.5486   2.6540652927e+02  -6.0262218056e+01   0.07651763   0.04498359  38.31 0.0009477589    1.680    0.405
        70 -13.3197    248.8875    110.3777   2.6620318050e+02  -6.0109961105e+01      0.11335    0.0559371  27.03  0.002652624    1.970    0.492
        71 -13.9084    243.5104     98.8613   2.6528781091e+02  -6.0100357409e+01    0.1464382   0.07204463  37.86  0.004816212    1.984    0.496
        72 -13.2184    244.4999     87.2901   2.6454852626e+02  -6.0295084731e+01   0.07950611   0.06086298  64.37 0.0009790681    1.461    0.315
        73 -13.4111    239.9824    112.4031   2.6607210000e+02  -5.9789986837e+01    0.1011797   0.06229821 -67.16  0.001350765    1.646    0.392
        74 -12.3074    241.6466    107.2764   2.6578648947e+02  -5.9918779225e+01   0.03710605   0.03511989  68.66 0.0002574984    1.090    0.083
        75  -9.1334    224.5863    169.4920   2.6920413093e+02  -5.8416539529e+01   0.04846976   0.03350461  38.39  0.001870425    1.437    0.304
        76  -7.7768    207.3345    170.6871   2.6874936452e+02  -5.7845512993e+01   0.01952466   0.01344197 -29.61 0.0003422516    1.684    0.406
        77  -8.1163    183.3721    168.7582   2.6792762890e+02  -5.7104800075e+01   0.02646109   0.01565619  38.11 0.0002988973    1.670    0.401
        78  -7.9088    170.4811    169.5292   2.6760550952e+02  -5.6676354303e+01   0.01794848    0.0178466  67.62 0.0003125992    1.017    0.016
        79  -9.7605    216.5454    166.4456   2.6877139626e+02  -5.8208000206e+01   0.05699238   0.03733098 -13.62    0.0012343    2.025    0.506
        80  -9.9372    206.2998    162.2764   2.6820956866e+02  -5.7944510940e+01   0.07549818   0.04357445 -13.49  0.002313052    2.678    0.627
        81  -7.7458    152.2960    165.6979   2.6687648283e+02  -5.6144243345e+01   0.01890371   0.01349406 -29.27 0.0004849085    1.577    0.366
        82  -8.1864    196.5157    164.0043   2.6802517524e+02  -5.7602396879e+01   0.02674143   0.01557374  -9.35 0.0008103615    2.598    0.615
        83  -9.5233    192.0525    167.5186   2.6810560161e+02  -5.7403973291e+01   0.03953627   0.02871474  13.98 0.0005255027    1.475    0.322
        84  -7.9232    183.4546    162.4604   2.6755442591e+02  -5.7204184342e+01   0.01797209   0.01773944  59.18 0.0003313524    1.026    0.025
        85  -9.0192    190.9676    158.9861   2.6756151210e+02  -5.7500415683e+01   0.04627547   0.02598911  59.74  0.001157814    2.380    0.580
        86  -8.3986    168.4692    159.4165   2.6695099419e+02  -5.6764090241e+01   0.03110724   0.01804477   7.19 0.0009419611    2.145    0.534
        87  -7.8315    159.4831    159.5445   2.6671117052e+02  -5.6469776816e+01   0.01818486    0.0175869 -32.71 0.0002926068    1.035    0.034
        88  -9.8445    196.8659    156.9738   2.6761053246e+02  -5.7722026244e+01   0.04663415   0.02736071  18.30 0.0007417995    1.832    0.454
        89 -10.1144    209.3165    155.4429   2.6788252220e+02  -5.8147821981e+01   0.05160988   0.03220617 -75.74  0.001833158    1.804    0.446
        90  -9.3818    215.6096    239.1521   2.7301130570e+02  -5.6955175597e+01   0.03777485    0.0267098  60.84  0.001421846    1.682    0.405
        91  -9.8379    207.1201    150.3289   2.6750423684e+02  -5.8155392029e+01   0.03363534   0.02389553  37.09  0.001307103    1.395    0.283
        92 -10.0625    183.1803    142.2153   2.6632538461e+02  -5.7498671228e+01   0.03997723   0.02992608  -9.30 0.0009789576    1.539    0.350
        93 -10.3706    192.5236    148.5028   2.6697085719e+02  -5.7709657171e+01   0.05251897   0.03488882  37.46  0.001444786    1.490    0.329
        94 -10.8557    187.5841    146.7061   2.6672163950e+02  -5.7575832791e+01   0.06623589   0.04250835 -31.84  0.001422858    1.810    0.448
        95  -8.6743    163.0807    150.1669   2.6625287854e+02  -5.6725468818e+01   0.02958561   0.02496842  59.54  0.001240865    1.262    0.208
        96  -9.8071    198.6352    149.2951   2.6719430240e+02  -5.7896172784e+01   0.03130559   0.02681109 -69.31  0.001049965    1.182    0.154
        97  -9.2360    133.7778    147.9693   2.6534943564e+02  -5.5796889920e+01   0.02993769   0.02392846  53.12  0.001221158    1.322    0.243
        98  -9.0578    141.3799    141.8240   2.6518358939e+02  -5.6133896827e+01   0.02750779   0.01547784  36.10   0.00059381    1.734    0.423
        99  -9.3136    175.5251    140.3382   2.6600065249e+02  -5.7275852003e+01   0.03398349   0.02930139 -52.29   0.00104012    1.148    0.129
       100  -8.3751    166.6487    139.6953   2.6572144412e+02  -5.6994352938e+01   0.01958765   0.01347499  62.17 0.0007041231    1.705    0.414
       101  -8.5424    172.2258    136.2240   2.6566160088e+02  -5.7227225131e+01    0.0258659   0.02078842 -29.90 0.0006822991    1.325    0.245
       102  -9.0467    155.3779    135.5725   2.6517479009e+02  -5.6682889126e+01   0.03602119   0.01705441   2.80 0.0009510208    3.338    0.700
       103 -12.2294    209.1929     90.3374   2.6377828813e+02  -5.9086239805e+01    0.1306548    0.0896684 -30.61 0.0003684081    1.627    0.385
       104  -8.4548    167.6142    130.8049   2.6520924171e+02  -5.7153020188e+01   0.02618128   0.01752549   5.65 0.0009482023    1.697    0.411
       105  -8.2143    153.2427    129.9854   2.6478361242e+02  -5.6690966980e+01    0.0243427   0.01543177  22.13 0.0005316141    1.585    0.369
       106  -9.0931    147.1133    130.0986   2.6463296554e+02  -5.6487052309e+01   0.02896207    0.0244111  54.85 0.0008854653    1.243    0.196
       107  -9.3733    166.0582    125.5447   2.6484818253e+02  -5.7175776285e+01   0.03582265   0.02610574  -5.14  0.001267489    1.571    0.363
       108  -9.4501    175.6069    124.2374   2.6502042972e+02  -5.7508881498e+01   0.03941854   0.02289372  34.94  0.001392524    1.675    0.403
       109  -9.6389    177.7499    117.9926   2.6469248401e+02  -5.7666940626e+01   0.02965006   0.02485712 -28.99  0.001003283    1.252    0.201
       110  -8.2872    132.3394    124.3214   2.6391713957e+02  -5.6077182560e+01    0.0198151   0.01326837  59.11 0.0002914114    1.717    0.418
       111  -9.1239    157.4477    120.1693   2.6429797330e+02  -5.6965716216e+01   0.04281722   0.01854811  18.81  0.001265372    2.463    0.594
       112  -9.2670    152.1472    121.0830   2.6421832083e+02  -5.6777714538e+01   0.02885097   0.02467274  59.35  0.001058245    1.234    0.190
       113 -10.2215    178.6131    131.0219   2.6551708478e+02  -5.7511474154e+01   0.04708919   0.02069548  25.91  0.001452891    2.210    0.548
       114  -9.7871    170.6127    117.2444   2.6445902090e+02  -5.7441497489e+01   0.04099742   0.03187325 -42.88  0.001082915    1.306    0.234
       115  -9.1943    163.3032    115.5954   2.6416879110e+02  -5.7222214939e+01   0.05777247   0.02439645  53.72  0.001509437    3.378    0.704
       116  -8.8708    140.5579    116.7079   2.6366409318e+02  -5.6452517028e+01   0.03539816   0.01661605  27.69 0.0009634974    2.030    0.507
       117  -8.6821    152.4921    113.9118   2.6379176108e+02  -5.6886489362e+01   0.02824457   0.01799168  21.38  0.001028249    1.576    0.366
       118  -8.2439    176.2960    111.9317   2.6427896113e+02  -5.7702602865e+01   0.02690629    0.0232148  26.56 0.0009304761    1.154    0.133
       119  -9.1499    182.1121    108.9999   2.6424859584e+02  -5.7935312138e+01   0.05333509   0.02248609  32.20  0.001637466    2.212    0.548
       120  -9.1183    178.9044    106.1759   2.6398858246e+02  -5.7867543601e+01   0.04511146   0.02768759  16.27  0.001344648    1.706    0.414
       121  -9.1704    169.4557    107.7020   2.6384012649e+02  -5.7533413916e+01   0.05131889   0.02086268  37.14   0.00153358    2.352    0.575
       122  -9.7156    154.9015    106.8693   2.6342180758e+02  -5.7060825912e+01   0.04445707   0.02604082  27.81 0.0009897373    1.657    0.397
       123  -9.0625    174.2787    100.8037   2.6353415990e+02  -5.7786255065e+01   0.05575338   0.02314635  25.09  0.001643679    2.309    0.567
       124  -8.2835    149.5061    100.4851   2.6289768215e+02  -5.6965034095e+01   0.03521821   0.01395804  34.36  0.001039442    2.348    0.574
       125  -7.8184    101.3424    239.3206   2.6958888772e+02  -5.3365431281e+01   0.01939123   0.01363004  63.74 0.0007050008    1.723    0.419
       126  -8.0668    128.5989     97.1847   2.6219885398e+02  -5.6308215725e+01   0.02713363   0.01575339  34.15  0.000948382    1.671    0.402
       127  -9.6802    164.7740     93.7127   2.6285324972e+02  -5.7563003723e+01   0.03814748   0.03112961  18.79 0.0008484516    1.232    0.188
       128  -9.6024    187.5426     91.8745   2.6331070601e+02  -5.8346266891e+01   0.04308649   0.02599203   5.38  0.001239269    1.925    0.480
       129  -8.5737    176.6289     92.3759   2.6306504957e+02  -5.7976050393e+01   0.03600176   0.02213487  23.45 0.0009881393    1.609    0.378
       130  -8.9996    181.7610     89.0513   2.6298439026e+02  -5.8190752928e+01   0.04439878    0.0303086 -68.14  0.001004776    1.465    0.317
       131  -8.3778    168.4249     90.2447   2.6272663461e+02  -5.7729979121e+01   0.02612347   0.01755971   0.75  0.000734071    1.691    0.409
       132  -7.9309    158.6842     89.6734   2.6245272512e+02  -5.7411593714e+01   0.01968587   0.01317235  56.54 0.0007044292    1.672    0.402
       133  -8.5972    187.1755     86.8417   2.6298102551e+02  -5.8400247606e+01   0.02920067   0.02465397 -32.11  0.001226921    1.226    0.184
       134  -9.2325    189.7843     76.9794   2.6241510295e+02  -5.8614941678e+01   0.04763721   0.02784979  17.91  0.001671931    1.750    0.429
       135  -9.2216    186.4495     82.4834   2.6268446365e+02  -5.8432671336e+01   0.03344551   0.02657698  31.93 0.0008681165    1.245    0.197
       136  -9.3896    186.0437     78.7795   2.6243727306e+02  -5.8466751126e+01    0.0544863   0.03006066 -34.30  0.001076139    2.126    0.530
       137  -9.0181    173.5112    238.3201   2.7162856530e+02  -5.5659466465e+01   0.03302357   0.01660566 -60.98  0.001076738    1.979    0.495
       138 -13.3649    237.3342     88.6983   2.6444011220e+02  -6.0039439952e+01   0.07550113   0.06662773  35.90 0.0004923958    1.131    0.116
       139 -13.3117    220.1043     81.6930   2.6350605014e+02  -5.9564144598e+01    0.2544921    0.1469478 -48.52  0.008992789    1.726    0.421
       140  -9.1407    157.9976     74.4790   2.6148625655e+02  -5.7579676235e+01   0.03639442   0.02621457  27.97 0.0006578368    1.364    0.267
       141  -8.5794    191.7523     71.1324   2.6208680281e+02  -5.8755144427e+01   0.05101229   0.01537178  32.18  0.001364287    2.889    0.654
       142  -8.5147    170.4622     70.4573   2.6152633060e+02  -5.8048674408e+01   0.03602378   0.01795307  19.73 0.0006932177    2.016    0.504
       143  -8.1529    145.5108     67.4556   2.6075891779e+02  -5.7244085375e+01   0.03388001   0.01429053  33.12  0.001029468    2.212    0.548
       144  -8.2337    182.9491     67.2228   2.6161873752e+02  -5.8508561992e+01   0.03104977   0.01947262  66.34 0.0008796495    1.943    0.485
       145  -8.5475    197.5465     62.7687   2.6168583282e+02  -5.9054263374e+01   0.03479676   0.01654102  26.80 0.0009571181    2.000    0.500
       146  -9.4127    197.1148     68.8175   2.6206987599e+02  -5.8964082302e+01   0.04843083   0.03217418 -45.72  0.001422864    1.521    0.342
       147  -8.0939    171.6071     62.2974   2.6103242435e+02  -5.8187019079e+01   0.02558695    0.0162406  32.17 0.0009011098    1.534    0.348
       148  -9.1853    214.4771     57.5392   2.6176209432e+02  -5.9687522961e+01   0.04405814   0.02413903  41.43  0.001500952    1.847    0.458
       149  -9.9091    218.1059     52.8061   2.6153703119e+02  -5.9867913577e+01   0.04118007   0.03018533  41.15 0.0003431358    1.375    0.273
       150  -8.6007    202.7065     56.6564   2.6141115362e+02  -5.9303117211e+01   0.04933726   0.01789704  38.88  0.001385717    2.675    0.626
       151  -8.8240    192.6177     53.7754   2.6097737587e+02  -5.8998472481e+01   0.05195643    0.0255612  52.03  0.001171357    2.401    0.584
       152  -8.9881    213.0622     52.4898   2.6139012386e+02  -5.9702358709e+01   0.02794294    0.0178393 -68.37 0.0007072735    1.557    0.358
       153  -7.7433    183.4612     52.4697   2.6067546627e+02  -5.8705122113e+01   0.01790913   0.01787667  -3.12 6.710871e-05    1.007    0.007
       154  -8.0036    153.2164     51.7997   2.5994475611e+02  -5.7689220225e+01   0.03072068   0.01112132  31.82 0.0006075329    2.498    0.600
       155 -13.2999    244.8887     69.6507   2.6337418902e+02  -6.0546714812e+01    0.2654595    0.1402612 -79.46  0.008557233    2.221    0.550
       156  -8.5360    217.9668     46.2959   2.6109629120e+02  -5.9942720375e+01   0.04252384   0.02642896  70.08  0.001463958    1.991    0.498
       157 -10.1864    231.9912     31.9847   2.6046724468e+02  -6.0585910187e+01   0.04728908   0.02333388  47.10  0.001291926    2.209    0.547
       158  -8.1135    161.3207    238.3200   2.7125820812e+02  -5.5277170264e+01   0.01909409   0.01375132  64.10 0.0005471453    1.668    0.401
       159 -12.9017    226.2120     92.5878   2.6438660480e+02  -5.9618846185e+01    0.1200953   0.07975759  66.37  0.004350728    1.828    0.453
       160  -9.4033    237.0432     22.4745   2.5993213650e+02  -6.0866904542e+01   0.05234478   0.01332041  37.44  0.001273943    3.547    0.718
       161  -9.0926    242.6716     22.3135   2.6005773891e+02  -6.1058924310e+01    0.0316333   0.01960522 -32.27   0.00111243    1.799    0.444
       162  -8.9530    230.1302     19.0618   2.5952995760e+02  -6.0671709593e+01   0.04181126   0.02210408  41.04  0.001401476    1.908    0.476
       163 -12.2983    250.3810    141.9358   2.6828966077e+02  -5.9679753640e+01   0.07777052   0.02764217  29.35 0.0006044421    2.647    0.622
       164  -8.4627    241.2571     17.1637   2.5966285170e+02  -6.1069911981e+01    0.0312648    0.0212862  42.66  0.001184293    1.493    0.330
       165  -7.9858    249.6677     16.7139   2.5983508615e+02  -6.1359391673e+01   0.01922305   0.01318371  58.61 0.0004991876    1.620    0.383
       166  -8.7593    167.9959    236.7227   2.7137183025e+02  -5.5513713798e+01   0.02630629   0.02349648 -57.12 0.0008211999    1.109    0.099
       167  -9.2822    147.8404    236.3091   2.7074689569e+02  -5.4886568317e+01    0.0375685   0.02157661  53.17  0.001249303    2.092    0.522
