#   1 NUMBER                 Running object number                                     
#   2 MAG_AUTO               Kron-like elliptical aperture magnitude                    [mag]
#   3 X_IMAGE                Object position along x                                    [pixel]
#   4 Y_IMAGE                Object position along y                                    [pixel]
#   5 X_WORLD                Barycenter position along world x axis                     [deg]
#   6 Y_WORLD                Barycenter position along world y axis                     [deg]
#   7 A_WORLD                Profile RMS along major axis (world units)                 [deg]
#   8 B_WORLD                Profile RMS along minor axis (world units)                 [deg]
#   9 THETA_WORLD            Position angle (CCW/world-x)                               [deg]
#  10 FWHM_WORLD             FWHM assuming a gaussian core                              [deg]
#  11 ELONGATION             A_IMAGE/B_IMAGE                                           
#  12 ELLIPTICITY            1 - B_IMAGE/A_IMAGE                                       
         1 -14.0060    211.9643     67.9275   5.7260373377e+01   2.2903740340e+01     1.817402     1.495221 -67.18  0.009496929    1.272    0.214
         2 -15.4361    239.3883     78.2736   5.5923518533e+01   1.4879010277e+01     8.874434     1.398408 -35.40   0.02351048    4.853    0.794
         3 -15.5019    240.0383     38.9151   4.6191438544e+01   2.0423209768e+01     5.526612     2.350025  55.83   0.02363109    2.499    0.600
         4 -11.2123    213.7622     18.6753   4.3892670414e+01   2.9212180936e+01    0.3196084    0.2272584 -22.72 0.0008307829    1.580    0.367
         5  -9.4562    233.0655      5.8522   3.8923229460e+01   2.5996998338e+01    0.2316758    0.1981583 -54.18 0.0005077213    1.113    0.101
         6  -9.5150    236.3702      2.9576   3.7988898830e+01   2.5537683053e+01    0.2050341    0.1641557  86.99 0.0004961852    1.161    0.139
         7 -11.0471    231.8575     16.0754   4.1466280575e+01   2.5150338170e+01    0.6896151    0.3457029 -19.61  0.003059128    2.553    0.608
         8  -9.8757    234.4387      9.7556   3.9731848377e+01   2.5255578914e+01    0.2795851    0.1942353 -53.82 0.0008904207    1.278    0.217
         9 -10.9537    134.9914     13.7936   5.3689933449e+01   4.9761253496e+01    0.2999009    0.2127525 -16.35 0.0009703111    1.532    0.347
        10 -10.7695    135.5234      9.9891   5.2206515572e+01   5.0004785008e+01    0.2760102    0.2194254  15.87  0.000788322    1.351    0.260
        11  -9.4033    240.0000      6.8130   3.8598841779e+01   2.4295376205e+01     0.216995    0.1795597 -20.22  0.001044043    1.459    0.314
        12  -9.1481    217.5203      2.3527   3.9373249401e+01   3.0049734491e+01    0.2132507    0.1321687 -15.94  0.001083983    2.032    0.508
        13  -8.4966    208.3878    164.8459   8.1708958151e+01   6.8257819590e+00    0.1792679     0.128901 -22.32 0.0003108341    1.440    0.305
        14  -8.0103     73.5161    163.4815   1.1165059834e+02   3.2062545318e+01    0.1331702    0.1173701  89.22 1.747467e-05    1.038    0.037
        15 -12.0616     53.3100    153.1981   1.1510287220e+02   3.7083230873e+01    0.6770728    0.4437625 -81.04  0.001770293    1.388    0.279
        16 -11.6792     39.8946    160.8067   1.1918524848e+02   3.6862558293e+01    0.3740445    0.3503826  78.72  0.001202263    1.241    0.194
        17 -12.2102     46.7626    156.7803   1.1712233903e+02   3.7021091935e+01    0.7295155    0.5696374 -85.54  0.002882665    1.073    0.068
        18  -9.7757    120.9127    242.4341   1.1154505724e+02   9.2367887196e+00    0.1696766    0.1612909  83.20 0.0001687581    1.262    0.208
        19  -8.5903    218.4990    194.5056   8.5719185086e+01   2.2109798256e-01    0.1320519    0.1136104  13.77 -3.719605e-05    1.020    0.020
        20 -12.7408    248.1201     74.2230   5.3781502142e+01   1.3585458790e+01     1.456709    0.4255869 -31.92  0.001116973    3.230    0.690
        21  -9.3139    194.6566    134.3089   7.7569195312e+01   1.5178013488e+01     0.151163    0.1221683 -82.35  0.000376831    1.696    0.410
        22 -12.6531    224.9976     61.8793   5.3770186634e+01   2.0699229000e+01    0.7664561    0.6222405 -35.39  0.001356101    1.179    0.152
        23 -10.2936    162.3792    119.9685   8.0993232168e+01   2.5255357349e+01    0.4286842    0.2630886 -65.75  0.001186518    2.486    0.598
        24 -11.2066    224.0302    118.6143   6.8247646933e+01   1.1605475863e+01    0.4336288    0.1952612 -35.22  0.001624422    2.077    0.519
        25 -12.3716    209.9766    110.8593   6.8836169477e+01   1.6071886801e+01     1.040606    0.4316282  34.40 0.0003810758    4.277    0.766
        26 -12.4580    205.9943    109.7464   6.9288923492e+01   1.7179664239e+01    0.9141007    0.4167236  34.98  0.003027605    3.218    0.689
        27 -10.3333    134.6395    108.2144   8.4664508441e+01   3.3935343189e+01    0.5818692    0.1338598 -49.13   0.00137863    5.147    0.806
        28 -10.6320    123.4376    108.3205   8.7626019575e+01   3.6282166469e+01    0.3515897    0.2336408  80.13  0.001340832    2.564    0.610
        29 -11.3282     70.2959    145.5838   1.0977057583e+02   3.6679172921e+01    0.4194017    0.3444771  50.21  0.001609176    1.262    0.208
        30  -8.4469    153.5396    114.4636   8.1641100239e+01   2.8405112044e+01     0.154963    0.1534341 -37.97 7.845869e-05    1.001    0.001
        31 -11.1318    203.2679    103.3582   6.8154445700e+01   1.8963139666e+01    0.4126233     0.341664  51.71  0.002091422    1.259    0.206
        32  -9.5870    148.4204    101.9912   7.9523618770e+01   3.2179753930e+01    0.2996745      0.21907  30.90 0.0007578313    1.555    0.357
        33 -11.0678    187.3979     98.8826   7.0030880030e+01   2.3547065420e+01    0.4178994    0.2397281 -48.05  0.001686601    1.827    0.453
        34  -9.6779    134.6012     98.0847   8.1897248708e+01   3.6116725537e+01    0.2695261    0.2194088  63.58 0.0008740013    1.365    0.267
        35 -10.8337    158.6497     96.5140   7.5565816983e+01   3.0903709561e+01    0.4989395    0.2618387  36.63  0.001819296    2.305    0.566
        36  -9.0602    210.6374     96.3222   6.4995723144e+01   1.8487389728e+01    0.1591808    0.1160033 -70.33 0.0007041338    1.781    0.439
        37  -9.8146    141.9640     91.9671   7.8273676545e+01   3.5725844648e+01    0.3388489    0.2664683 -58.71  0.001587551    1.396    0.284
        38 -11.7096    174.4339     87.9378   6.9653259853e+01   2.8737939300e+01    0.6377575     0.433103  36.42  0.001905707    1.655    0.396
        39  -8.3158     98.6143     91.2437   8.9983908668e+01   4.4930051632e+01    0.1463225    0.1154323  74.82 0.0005952759    1.651    0.394
        40 -11.0458    156.6471     87.1863   7.3348046511e+01   3.3213753382e+01    0.3613262     0.284725 -29.08 0.0009555058    1.310    0.237
        41 -12.1477    182.1280     81.9073   6.6372784471e+01   2.7936516397e+01     1.018443     0.520811 -38.31  0.002120274    1.893    0.472
        42 -12.0957    173.2912     74.4661   6.5983411021e+01   3.1457487871e+01    0.5407147      0.47706  24.70  0.001673408    1.237    0.191
        43 -11.1697    191.2728     78.7827   6.3745632618e+01   2.6214178576e+01    0.4164418    0.3563344  14.21  0.001042667    1.357    0.263
        44 -11.0387    196.7146     75.9968   6.1986075865e+01   2.5339722999e+01    0.4092588    0.3127034  41.03  0.001176329    1.419    0.295
        45  -8.5590     17.9951     77.9934   1.1332936353e+02   5.8057594273e+01    0.1603431    0.1062172 -62.19 0.0009692197    1.189    0.159
        46 -10.1337    150.8764     71.5961   6.9968074930e+01   3.7533089053e+01     0.273883    0.1774916 -40.57  0.001187953    1.534    0.348
        47  -8.4395      6.9944     72.0327   1.1604786251e+02   6.0060776267e+01    0.1494505    0.1032842 -62.54 0.0004236771    1.106    0.095
        48 -10.6260    113.7643     70.2108   7.9096161912e+01   4.6319102885e+01    0.2599631    0.2519677 -14.28 0.0002346067    1.028    0.027
        49 -10.5554    198.6631     65.9559   5.8853031931e+01   2.6502526732e+01    0.3654149    0.2468578 -59.81 0.0009701208    1.678    0.404
        50 -12.1212    127.6334     66.8610   7.4185601670e+01   4.3901900612e+01     1.088597    0.2314159  42.12  0.002330405    6.949    0.856
        51 -11.5810    134.6856     64.6898   7.1656461409e+01   4.2660612289e+01    0.3762643    0.2699935  80.50  0.001629377    1.980    0.495
        52 -11.8518    155.9421     59.3755   6.4978148008e+01   3.8386418418e+01     0.570303    0.2196159  51.72  0.001979621    2.481    0.597
        53 -11.5827     66.4007    143.2256   1.1039439267e+02   3.7766464788e+01    0.4785315    0.3365026 -79.51  0.002152552    1.352    0.260
        54 -10.6196    123.9836     53.4923   7.0605856556e+01   4.7079914831e+01    0.2772221    0.2167547 -29.80 0.0003292998    1.275    0.216
        55 -11.3830    141.3762     50.5691   6.5322205474e+01   4.3417557188e+01    0.5228717    0.1725987  53.29  0.001721383    2.851    0.649
        56 -11.1279    192.5167     43.7647   5.3527656060e+01   3.1391666967e+01    0.4057092    0.2507557 -35.29   0.00103184    1.592    0.372
        57  -9.4196    195.5835     39.2304   5.1773038571e+01   3.1229303993e+01    0.2456603    0.2230021  18.70 0.0005647854    1.275    0.216
        58 -10.5174    249.8208    192.2329   7.9733087291e+01  -4.6878443520e+00    0.2197846    0.1842888   2.68 0.0002575179    1.067    0.063
        59 -11.8233    140.5652     40.6731   6.2112153534e+01   4.5097937613e+01    0.4859567    0.2629133 -31.30  0.002070199    1.882    0.469
        60 -11.3289    134.4323     40.4608   6.3424928403e+01   4.6630153358e+01    0.3030766    0.2519312 -68.84  0.001561703    1.459    0.314
        61 -10.8284    179.5109    142.7469   8.2705886560e+01   1.6849158838e+01    0.5211445    0.3563253  82.69  0.001626984    2.632    0.620
        62  -9.9410    206.5964     24.0560   4.6119217701e+01   3.0363903368e+01    0.2725046    0.1915732  64.03  0.001251507    1.380    0.276
        63  -9.2955    178.8500     23.9097   4.9703471923e+01   3.7467875744e+01    0.2700302    0.1965897 -32.93    0.0013882    1.422    0.297
        64  -8.8624    219.5156    189.5738   8.4592314733e+01   7.8018997449e-01    0.1336785    0.1138886  13.13 7.352801e-05    1.014    0.014
        65  -8.9334    220.0192    185.2279   8.3655648016e+01   1.3505939540e+00    0.1880706    0.1577712  21.21 0.0004274002    1.071    0.067
        66 -12.5737      5.7934    178.5443   1.2796665983e+02   3.6226350251e+01    0.8049901    0.4029448  89.53  0.004599664    1.608    0.378
        67 -12.0228     11.1240    175.9291   1.2673106296e+02   3.6323064972e+01    0.6234323    0.2721761  88.43  0.002789675    2.041    0.510
        68 -10.0326    187.9879    181.3737   8.9104573324e+01   7.9290886337e+00    0.2306424    0.2027608 -33.71 0.0003465723    1.213    0.176
        69  -9.6089    203.3652     18.3744   4.4955875546e+01   3.1835718304e+01    0.4023714    0.2426039  89.35  0.001907616    1.766    0.434
        70  -9.0654    226.9036     16.6441   4.2063397651e+01   2.6257822644e+01    0.2074906    0.1891921 -15.50   0.00129124    1.321    0.243
        71  -9.2965    189.0499     15.6862   4.5909654885e+01   3.5768252987e+01    0.2108844    0.1746694 -50.40 0.0002527543    1.208    0.172
        72  -8.2828    140.3202    182.2320   9.9321041099e+01   1.6845774766e+01    0.1319445    0.1060537  17.48 0.0001833647    1.507    0.336
        73  -8.6955     73.4521    179.0239   1.1371887809e+02   2.8582458799e+01    0.1755009    0.1165739 -69.39 0.0001054422    1.430    0.301
        74 -10.4869    223.7827    173.3841   8.0586328828e+01   2.5066464980e+00    0.2241125    0.2137441 -60.77 0.0005638652    1.385    0.278
