#   1 NUMBER                 Running object number                                     
#   2 MAG_AUTO               Kron-like elliptical aperture magnitude                    [mag]
#   3 X_IMAGE                Object position along x                                    [pixel]
#   4 Y_IMAGE                Object position along y                                    [pixel]
#   5 X_WORLD                Barycenter position along world x axis                     [deg]
#   6 Y_WORLD                Barycenter position along world y axis                     [deg]
#   7 A_WORLD                Profile RMS along major axis (world units)                 [deg]
#   8 B_WORLD                Profile RMS along minor axis (world units)                 [deg]
#   9 THETA_WORLD            Position angle (CCW/world-x)                               [deg]
#  10 FWHM_WORLD             FWHM assuming a gaussian core                              [deg]
#  11 ELONGATION             A_IMAGE/B_IMAGE                                           
#  12 ELLIPTICITY            1 - B_IMAGE/A_IMAGE                                       
         1 -15.8374    145.4644    112.3214   2.5462466537e+01   3.0536062784e+01     3.385519     2.165987 -66.33   0.01412271    2.131    0.531
         2 -13.5080    164.7493     70.6653   1.0489935988e+01   3.4035368411e+01     2.092413    0.8715379 -52.32  0.007621159    2.729    0.634
         3 -14.1867    193.2309     61.2235   3.8755023348e+00   2.9167260233e+01     2.521203     1.335979 -30.88    0.0119393    1.891    0.471
         4 -13.7880    148.4510     69.9947   1.3259770792e+01   3.7965180465e+01     2.648762    0.9688588 -57.90  0.005455516    8.617    0.884
         5 -15.8947    130.4250    105.6007   2.7374569279e+01   3.5154624431e+01     3.326451     1.663121 -52.86   0.01264485    2.153    0.536
         6 -14.8811    145.7511     88.0635   1.8987729132e+01   3.5300439239e+01     2.141286     1.462085  85.87  0.009264535    2.047    0.512
         7 -12.4822    208.0714     87.6302   8.3161240414e+00   2.2182822225e+01     1.830718     1.117431 -45.13  0.009841909    1.403    0.287
         8 -14.4243    222.7363     36.1539   3.5502682459e+02   2.6460038518e+01     1.286258      1.07398  -8.52  0.008569332    1.644    0.392
         9 -14.2168    244.1098     43.7076   3.5511461046e+02   2.1596347195e+01     1.257012    0.7155906 -25.66  0.007293466    1.883    0.469
        10 -17.0336    236.1571     14.1983   3.4943330534e+02   2.6394921371e+01     2.419399     1.816607 -79.84   0.01758418    1.284    0.221
        11 -12.5074    152.7224     31.2680   7.7097833032e-01   4.2732611910e+01    0.9084388    0.1213384 -39.74   0.00260748    4.632    0.784
        12 -11.7807    103.2288     20.6547   5.4024656716e+00   5.6713590743e+01    0.7375618     0.217398 -41.87  0.002491151    3.473    0.712
        13 -13.9223     99.4327      5.6523   3.5971265570e+02   5.9239641724e+01     1.075643    0.7814893 -75.81  0.005820013    1.426    0.299
        14 -12.2382     89.9946      3.0704   3.5429655126e-01   6.1895453525e+01    0.3162348    0.2661419 -47.89  0.001191031    1.289    0.224
        15 -16.3248     70.2449      8.4266   8.1099787079e+00   6.6342431050e+01     2.302063     2.192446  47.25    0.0145422    1.073    0.068
        16 -10.8965    121.5163     22.7614   2.6700770920e+00   5.1732123315e+01    0.8030518    0.4144443 -68.77  0.003068206    2.577    0.612
        17 -10.3832    127.2912     22.3812   1.5595857100e+00   5.0281288941e+01    0.5835137    0.2004391 -29.00  0.002153342    3.011    0.668
        18 -14.3738     85.5907     14.5576   6.8730556405e+00   6.1900553998e+01      1.73152    0.4884093 -46.35  0.004981826    5.228    0.809
        19 -12.6645     89.5535     11.1811   4.2858815587e+00   6.1253749145e+01    0.4876755    0.2726429 -42.84  0.001441854    1.937    0.484
        20 -11.6676    113.5835     16.1394   1.5283831036e+00   5.4535467637e+01    0.3071898    0.1949301 -58.90 0.0009399924    1.684    0.406
        21 -14.0338     95.4872     14.5631   4.4756997283e+00   5.9385333115e+01     0.748148    0.5362173  -4.12  0.003848544    1.789    0.441
        22 -10.9144    118.4288     10.9188   3.5869676069e+02   5.3810141508e+01    0.1999022   0.08786603 -50.37 0.0008049926    2.435    0.589
        23 -10.9920    110.5127      7.1531   3.5844928694e+02   5.6227103321e+01    0.1860316    0.1333813 -31.79 0.0008064448    1.513    0.339
        24 -10.7072    116.9943      2.0919   3.5549517823e+02   5.4984708739e+01    0.2178645    0.1332071 -60.01  0.000835795    1.667    0.400
        25 -10.6692    128.2571      1.3910   3.5385903469e+02   5.2130081259e+01    0.1920361    0.1118538 -89.11 0.0005395903    1.594    0.373
        26 -13.1802    133.8892    229.1234   4.9688219845e+01   9.3181051895e+00    0.3489757    0.1827627 -35.25  0.001780034    2.281    0.562
        27 -11.1909    249.0302    250.3941   3.1743573921e+01  -5.9206107708e+00    0.1366152    0.0886563   3.68 0.0005760333    1.142    0.125
        28 -15.9154    233.5152    229.7114   3.1157244984e+01  -2.2252219464e+00     2.645069     1.493766 -46.53   0.01589985    2.856    0.650
        29 -16.0276    235.1865    183.8243   2.3610102331e+01   3.4662033354e+00     1.420546     1.164238 -53.31  0.009900519    1.910    0.476
        30 -15.2479    249.0302    134.0181   1.2721955747e+01   8.6534436123e+00     2.567539    0.2785541 -39.98  0.007088926    6.850    0.854
        31 -16.4849    245.5348    184.4069   2.2196431610e+01   2.2048166202e+00     6.756709     2.527411 -48.76   0.02179821    7.593    0.868
        32 -14.8766    237.5796    158.7105   1.8823965008e+01   6.6770803989e+00    0.9270186    0.5506674 -58.02  0.004525973    3.343    0.701
        33 -14.5768    246.9014    169.5386   1.9455060637e+01   4.0264015933e+00    0.4434129    0.3865895 -53.77  0.002977856    1.733    0.423
        34 -16.2970    246.4648    152.4727   1.6468951945e+01   6.4164521985e+00     3.133001    0.5601813 -39.20   0.01091574    4.466    0.776
        35 -16.5499    234.9819    141.9363   1.6054080763e+01   9.4491734063e+00     3.239897     1.303033 -44.92   0.01520716    2.445    0.591
        36 -12.6374    181.0304    250.2563   4.2984917883e+01   6.1278222263e-01    0.7349738    0.1750523  26.05  0.002804975    4.162    0.760
        37 -10.9403    187.9979    245.5128   4.1086512783e+01   4.8102852755e-01     0.170306   0.08845779  25.54   0.00103573    1.603    0.376
        38 -12.2384    167.3000    250.3963   4.5579716277e+01   2.0954958638e+00    0.3354636    0.1102429  25.54  0.001495344    2.661    0.624
        39 -12.9741    151.0985    248.3661   4.8496441661e+01   4.2196209347e+00    0.3834083    0.2470231 -28.52  0.002451566    1.699    0.411
        40 -12.4467    156.9705    245.8264   4.7016294435e+01   3.9072080945e+00    0.2510178    0.1827845  -6.76  0.001140384    1.309    0.236
        41 -10.8591    179.9383    230.5319   4.0515931132e+01   3.4245017148e+00    0.1725249   0.09617195  24.65 0.0006234939    1.537    0.349
        42 -12.3223    216.7665    223.7552   3.2966890590e+01   2.1410783280e-01      0.27135    0.1946489 -41.58  0.001102861    1.813    0.449
        43 -10.5478    175.4801    226.5246   4.0796435077e+01   4.5350638897e+00    0.1190889   0.09515704   6.88 0.0001375983    1.027    0.026
        44 -10.4834    205.5492    225.4985   3.5133619846e+01   1.2023445051e+00    0.1122421   0.08706557  -1.29 0.0002881067    1.053    0.050
        45 -11.6225    119.4928    225.5028   5.2419270282e+01   1.1798631466e+01    0.1284301    0.1063861  22.40 0.0003677786    1.006    0.006
        46 -10.3170    201.6584    222.6971   3.5395846929e+01   2.0138944030e+00    0.1201935   0.07177128  -3.42 0.0007039272    1.678    0.404
        47 -13.0465    219.2422    218.1060   3.1699219761e+01   6.7908322709e-01    0.3406753    0.3030601  40.20  0.002311062    1.871    0.466
        48 -15.4533    213.4789    159.1402   2.2554617208e+01   9.8956029153e+00     3.339235     1.164083 -41.16   0.01441093    2.567    0.610
        49 -11.4650    126.0080    220.0000   5.0256809686e+01   1.1926291701e+01    0.2205892   0.06306753  30.72 0.0008065844    2.971    0.663
        50 -15.4489    239.4242    207.3614   2.6840659218e+01  -8.7684553024e-02     1.740409     1.420378 -86.38  0.009271966    4.907    0.796
        51 -14.3566    220.4545    138.8104   1.7522495338e+01   1.2034442433e+01     1.951877     1.241361 -71.62  0.008278089    4.061    0.754
        52 -11.9050    216.5472    210.6819   3.0989910861e+01   1.9603811703e+00    0.2811966    0.1100944 -32.68  0.001433462    2.335    0.572
        53 -12.0735    217.2618    205.5201   3.0048690704e+01   2.5804736707e+00    0.2615028    0.1348817 -39.04  0.001102361    1.888    0.470
        54 -11.6970    211.2817    201.9792   3.0478753496e+01   3.7753745103e+00    0.3272698    0.2501395  77.58  0.001554926    4.620    0.784
        55 -11.5228    215.3644    197.6636   2.9081570332e+01   3.8967672890e+00     0.214018    0.1502036 -35.60 0.0008903351    1.424    0.298
        56 -10.8410    196.3124    198.6591   3.2562491897e+01   6.1174582836e+00     0.103562   0.09938891  88.08 0.0007046397    1.698    0.411
        57 -13.1442    220.8531    145.4351   1.8765559339e+01   1.0950742042e+01     1.024119    0.5800355  64.91  0.004277809    4.443    0.775
        58 -10.9785    210.3318    189.0768   2.8481804941e+01   5.7603641085e+00    0.1675502    0.1276437 -27.82 0.0008754951    1.197    0.165
        59 -11.4179    204.0753    184.9205   2.8840649615e+01   7.1988819868e+00    0.3100491    0.2353051  75.95  0.001571801    3.352    0.702
        60 -11.9314    211.0459    183.0929   2.7324380172e+01   6.5589871019e+00    0.2719091    0.1913688 -37.75  0.001116226    1.400    0.286
        61 -10.9827    197.9003    177.2004   2.8562975807e+01   9.2515026277e+00    0.1748692    0.1653562 -36.28 0.0008607343    1.352    0.260
        62 -10.9907    201.0453    172.0720   2.7070720397e+01   9.6276407917e+00    0.1699155    0.1544356 -71.21 0.0006145509    1.643    0.391
        63 -10.6065    197.4064    170.2316   2.7376510121e+01   1.0447706116e+01    0.1646305    0.1107844 -45.30 0.0005294752    1.577    0.366
        64 -11.2381    191.8409    166.8604   2.7754986881e+01   1.1827594972e+01    0.2315611    0.1601323 -40.21 0.0009409585    1.391    0.281
        65 -11.7692    199.6497    165.2688   2.6050276126e+01   1.0928611076e+01    0.2906175    0.1888249 -52.49  0.001032814    1.942    0.485
        66 -10.1868    184.6604    166.3103   2.8994848612e+01   1.3014809120e+01    0.1204181    0.1067225 -89.12  0.000704482    1.690    0.408
        67 -12.0632    197.2462    158.1736   2.5117451755e+01   1.2459786965e+01    0.2767957    0.2446776 -55.69 0.0009439375    1.418    0.295
        68 -10.9461    192.8582    154.9270   2.5266679878e+01   1.3689776189e+01    0.1912552    0.1648397 -51.96 0.0008914245    1.362    0.266
        69 -10.8338    191.5071    159.4663   2.6400829556e+01   1.3128361001e+01    0.1298822    0.1142724 -17.45 0.0001775574    1.027    0.027
        70 -10.9335    187.6593    156.5857   2.6547461476e+01   1.4229738003e+01    0.2389771    0.1132404 -41.28  0.001087253    1.959    0.489
        71 -11.4411    196.9431    150.8399   2.3728987762e+01   1.3736238949e+01    0.2180215    0.1672827 -37.68 0.0006366614    1.204    0.170
        72 -10.8008    182.0262    150.9637   2.6487168696e+01   1.6138944687e+01    0.1985976    0.1655144 -75.64 0.0007121487    1.708    0.415
        73 -11.4089    191.3240    149.0285   2.4366394774e+01   1.4947916037e+01    0.2033933    0.1828189 -75.10 0.0007776688    1.484    0.326
        74 -11.8426    200.6424    145.7136   2.2061830701e+01   1.4007432264e+01    0.2501556    0.2189295 -77.77  0.001033133    1.598    0.374
        75 -11.2583    194.7904    144.0005   2.2725900551e+01   1.5245024251e+01    0.1949189    0.1629774 -55.22  0.001045478    1.390    0.281
        76 -11.3972    182.2593    142.5993   2.4719988588e+01   1.7601638894e+01    0.2632418    0.2091225 -72.64  0.001022168    1.778    0.438
        77 -10.7366    203.9673    141.4345   2.0637227270e+01   1.4185644349e+01    0.1471562    0.1151073  84.07 0.0007812929    2.145    0.534
        78 -11.1237    187.1932    140.8968   2.3445859869e+01   1.7058422378e+01    0.2044371    0.1404155 -61.07 0.0006475056    1.968    0.492
        79 -11.6117    172.9735    138.8123   2.5717547068e+01   1.9933111116e+01    0.2918293    0.1962048 -54.20  0.001048248    1.667    0.400
        80 -12.1025    209.2293    138.3627   1.9159029352e+01   1.3847517032e+01    0.2520488    0.2185552 -80.33  0.001400607    1.617    0.381
        81 -11.8671    177.0905    110.9058   1.8615715823e+01   2.4322099914e+01    0.3417027    0.2077606 -56.70  0.001167726    1.898    0.473
        82 -11.7600    199.2005    136.8700   2.0494628268e+01   1.5727014384e+01    0.2652832    0.2028604 -58.37  0.001089577    1.582    0.368
        83 -11.3810    197.8953    132.0391   1.9700484313e+01   1.6764713450e+01    0.2561784    0.2135753 -15.77 0.0009819862    1.184    0.155
        84 -10.9546    190.5197    118.5004   1.7998363873e+01   2.0402551006e+01    0.2118396    0.1364834  49.41 0.0006305414    1.745    0.427
        85 -12.0926    186.1399    115.5548   1.8084747905e+01   2.1737004691e+01    0.3950333    0.2257459 -56.01   0.00146462    2.104    0.525
        86 -12.1180    194.5567    121.7349   1.8036010791e+01   1.9108817449e+01    0.4580014    0.2290638 -45.86  0.001725822    1.887    0.470
        87 -11.1150    184.0318    119.4843   1.9350352218e+01   2.1437920264e+01    0.2675047    0.2144369  87.77 0.0007567015    1.688    0.408
        88 -11.6129    181.3559    116.1345   1.9063973231e+01   2.2546067474e+01    0.3467236     0.206097 -47.50 0.0008757886    1.615    0.381
        89 -12.3189    192.5312    129.8186   2.0141082000e+01   1.8074037021e+01    0.4468336     0.253756 -50.63  0.001424585    1.885    0.470
        90 -12.1906    188.2493    123.4699   1.9498710467e+01   1.9950117423e+01     0.482839    0.2945385 -59.14  0.001514853    2.153    0.536
        91 -11.6314    192.8405    137.3263   2.1684544851e+01   1.6719706025e+01    0.2356947    0.1850883 -56.24 0.0008482334    1.464    0.317
        92 -11.2623    187.9324    135.9162   2.2260323260e+01   1.7810846559e+01    0.1988474    0.1580921 -65.58 0.0006742842    1.608    0.378
        93 -12.1744    179.3540    133.3774   2.3301346161e+01   1.9788776477e+01    0.3980461    0.3466642 -85.65  0.001913008    1.483    0.325
        94 -12.4471    179.7293    125.3667   2.1461070043e+01   2.1182511972e+01    0.3654008    0.3039712 -50.85  0.001348724    1.212    0.175
        95 -11.8860    172.1174    129.8636   2.3927469169e+01   2.1771118115e+01    0.4152327    0.2724698 -71.02  0.001682026    2.575    0.612
        96 -11.5638    169.8940    124.7343   2.3209757153e+01   2.3160861096e+01    0.2953962    0.1903649 -47.36 0.0006681536    1.507    0.336
        97 -10.2191    169.2912    135.6579   2.5773302719e+01   2.1198594860e+01    0.1381027     0.111139 -74.59 0.0005424766    1.652    0.395
        98 -12.9966    137.5933     73.5822   1.6578892159e+01   3.9915926200e+01     1.069172    0.6120609  84.85  0.003705115    3.192    0.687
        99 -12.9742    170.4065     94.0566   1.5697835504e+01   2.8738660502e+01     1.856665    0.8017126 -58.98   0.00549726    4.526    0.779
       100 -11.0997    224.1356    248.1668   3.5266861039e+01  -3.4756020897e+00     0.150655    0.1126592 -36.43 0.0007396236    1.840    0.456
       101 -12.6580    222.6985     81.6790   5.1957710919e+00   2.0363784149e+01    0.6946881    0.5581013 -23.47  0.003665313    1.327    0.246
       102 -12.0234    224.6804    243.1250   3.4480803068e+01  -2.9485632124e+00    0.2407636    0.1469002 -36.29  0.001302818    1.819    0.450
       103 -11.4234    223.9757    237.3814   3.3782243374e+01  -2.2066074442e+00    0.2279132    0.1498007 -34.43  0.001104078    1.659    0.397
       104 -13.5081    157.3537     75.4629   1.3133241780e+01   3.4928957042e+01      1.73811    0.4202747 -46.02  0.004867447    4.268    0.766
       105 -11.2474     12.6796    249.0156   7.8450295179e+01   1.9395856227e+01    0.1865259   0.04847044  66.52 0.0007049855    4.312    0.768
       106 -12.0857    180.7720     86.8514   1.2101940775e+01   2.7788622055e+01     0.971606    0.5277817 -72.93  0.003378795    3.838    0.739
       107 -13.7927    183.4420     77.6755   9.3688857896e+00   2.8735198373e+01     1.479193     1.046396 -66.97  0.007711411    1.537    0.349
       108 -14.9207    247.7406    217.1082   2.7120245274e+01  -2.1066353968e+00     1.038964    0.3450559 -34.53  0.005603372    2.515    0.602
       109 -11.3331    186.8473    129.4598   2.1064792585e+01   1.9145329443e+01     0.249912    0.1687901 -53.84 0.0008988567    1.632    0.387
       110 -11.1321    200.1248    126.7184   1.8197669962e+01   1.7281227100e+01    0.2277476    0.1890431 -35.73  0.001361433    1.058    0.055
       111 -11.7543    217.7301    245.8355   3.5987608193e+01  -2.5970770223e+00    0.3613496    0.1309343 -38.95  0.001982807    2.825    0.646
       112 -11.8309    173.5052    119.8784   2.1388245933e+01   2.3375996166e+01    0.3265877    0.2622593  58.72  0.001773429    1.419    0.295
       113 -12.3830    176.5835     91.0478   1.3851548034e+01   2.7956314288e+01    0.9403107    0.3132834 -49.95  0.003007064    3.580    0.721
       114 -10.5128    199.5743    116.5194   1.6068664581e+01   1.9091292639e+01    0.1343121    0.1144893 -45.76 0.0002286501    1.109    0.098
       115 -11.6355    195.3588    114.0008   1.6184711254e+01   2.0283243488e+01    0.3363636    0.1801095 -49.21  0.001338771    1.868    0.465
       116 -10.8705    191.6837    114.6744   1.6940817418e+01   2.0848953074e+01    0.2475374    0.1518788 -57.70 0.0009442327    1.969    0.492
       117 -11.1535    173.2162    114.6295   2.0217474099e+01   2.4406680373e+01    0.2369967    0.1749505 -49.51 0.0005675679    1.315    0.239
       118 -11.8543    183.2477    109.1301   1.7099764455e+01   2.3427640435e+01    0.3333773     0.197766 -52.36 0.0008566129    1.759    0.431
       119  99.0000    193.7237    102.9708   1.3927691980e+01   2.2455826263e+01     1.121122    0.5590844 -63.66  0.003762327    4.305    0.768
       120 -10.4282    236.2689    107.6449   9.1096474332e+00   1.4284425245e+01    0.1230152   0.07785785 -53.05 0.0005260466    1.634    0.388
       121 -11.2145    222.5794    104.4062   1.0134083368e+01   1.7001571703e+01    0.3246738    0.1153266 -42.94   0.00138638    2.359    0.576
       122 -10.5858    230.2256    102.5965   8.7961768238e+00   1.5995745504e+01    0.1280051   0.07540876 -51.04 0.0006878814    1.657    0.397
       123 -11.4826    189.9437    107.4484   1.5574827210e+01   2.2422043299e+01    0.7104543    0.2276351 -40.64  0.002600822    2.731    0.634
       124  99.0000    198.0977     96.6887   1.1799905000e+01   2.2653909206e+01     1.263773     0.863299 -72.10  0.006438224    1.941    0.485
       125 -11.2143    185.7210    102.7513   1.5172537994e+01   2.4055895833e+01    0.3102803    0.1420868 -54.18  0.001178636    2.750    0.636
       126 -11.7107    183.7636     96.0864   1.3895645500e+01   2.5597235992e+01    0.3129911    0.1822365 -50.00 0.0009659198    1.664    0.399
       127 -11.3609    241.3676     93.7384   5.6958760034e+00   1.5463803929e+01    0.2941519   0.09537347 -33.91  0.001256169    2.591    0.614
       128 -12.6995    209.7101     61.8518   2.1276850689e+00   2.5673713276e+01    0.7936054    0.6087395 -70.29  0.004506215    1.281    0.220
       129 -11.4358    236.1377     89.0993   5.3001493356e+00   1.6970417272e+01    0.2999974    0.1248251 -43.27  0.001474415    1.914    0.478
       130 -10.1592    238.3545     85.6783   4.3530907168e+00   1.7083600221e+01    0.3084001    0.1083127 -32.47  0.001335923    2.544    0.607
       131 -11.5213    193.5757     82.7700   9.1509441685e+00   2.5799625395e+01    0.2660971     0.175873 -52.22 0.0009439921    1.415    0.293
       132 -12.3815    119.3283     79.9153   2.2943186334e+01   4.3021485822e+01    0.3515043    0.2688861 -71.63  0.001219501    1.509    0.337
       133 -11.1411    130.6438     78.5276   1.9664625590e+01   4.0637798534e+01    0.2598101    0.1733634 -61.00 0.0008033597    1.696    0.410
       134 -11.9499    128.5641     73.7718   1.8709332627e+01   4.2037328207e+01    0.3012122    0.2336392 -81.61 0.0008577934    1.489    0.328
       135 -12.1417    127.7219     69.9112   1.7703318744e+01   4.2959646163e+01    0.3231382    0.2690001 -26.33   0.00103065    1.366    0.268
       136 -10.5775    126.6843     65.7034   1.6606764333e+01   4.3978061401e+01    0.2218435    0.1357556 -49.46 0.0005095616    1.656    0.396
       137 -11.2600    116.1298     72.2226   2.1369826731e+01   4.5299311890e+01    0.3011046    0.1909623 -65.88  0.001216337    2.060    0.515
       138 -11.9080    219.6062    240.6529   3.4956971349e+01  -2.1677271528e+00    0.2675671    0.1593834 -39.32  0.001205405    1.971    0.493
       139 -12.3376    138.5493     66.7190   1.4283393811e+01   4.0912810953e+01    0.6508935    0.3720052 -64.53  0.002547022    2.357    0.576
       140 -11.1121    122.4976     68.8589   1.8638040269e+01   4.4415295500e+01    0.3039755    0.1973393 -62.19   0.00101875    1.819    0.450
       141 -11.4536    111.3581     64.1729   1.9987072983e+01   4.7978624325e+01    0.3615278    0.2316603 -69.48  0.001135168    2.156    0.536
       142 -10.8787    178.6320     50.4891   2.9167885829e+00   3.3941144914e+01    0.2702766    0.2120561 -41.98 0.0008655747    1.197    0.164
       143 -11.5445    158.4639     48.4820   5.1599082159e+00   3.8980405883e+01    0.3956554    0.1414475 -46.89  0.001112362    2.700    0.630
       144 -11.7610    170.8582     62.8786   7.3700488800e+00   3.3880957728e+01    0.5535752    0.3547379 -40.62  0.002760294    1.439    0.305
       145 -11.3934    162.8610     45.5255   3.6476652093e+00   3.8342674695e+01    0.5813452     0.231307 -36.10  0.002335807    2.315    0.568
       146 -11.9486    168.6601     44.4915   2.5564237911e+00   3.7102769015e+01    0.6396761    0.2631521 -52.63  0.002503638    2.525    0.604
       147 -11.8395    169.1477     54.9519   5.4324485330e+00   3.5484726436e+01      0.45572    0.3408413 -56.28  0.001378351    1.230    0.187
       148 -11.9220    164.6790     58.8703   7.2056489127e+00   3.5938108917e+01    0.4654847    0.2526928 -51.91  0.001513313    1.810    0.447
       149 -11.7113    163.0972     52.3237   5.5802116038e+00   3.7303092935e+01    0.5240154    0.2416418 -52.55  0.001859289    2.248    0.555
       150 -12.2113    175.2462     55.0886   4.6101985820e+00   3.4052346210e+01    0.4982671    0.2953743 -27.26  0.002351026    1.879    0.468
       151 -11.4980    172.5748     50.7791   3.7923903186e+00   3.5296093082e+01     0.328011    0.1958867 -48.90 0.0009215182    1.521    0.343
       152 -11.0849    130.9367     64.2176   1.5153375522e+01   4.3204309701e+01    0.2358056    0.1938786 -76.15 0.0007046997    1.270    0.213
       153 -11.2863    122.6108     63.6669   1.6917314696e+01   4.5338177828e+01    0.3253571    0.2059564 -63.19  0.001162719    1.925    0.480
       154 -11.1712    153.4774     59.8941   9.3514712025e+00   3.8442861140e+01    0.2160147    0.1331549 -42.07 0.0008525939    1.535    0.349
       155 -11.9788    147.0257     58.7959   1.0181096736e+01   4.0181941178e+01    0.3616644    0.2449149 -62.78 0.0009719803    1.574    0.365
       156 -10.6741    178.2391     59.6517   5.4269576244e+00   3.2693558223e+01    0.1440456   0.09036712 -57.90 0.0004195175    1.568    0.362
       157 -10.0010    137.3063     59.6369   1.2332490250e+01   4.2425552586e+01    0.1604292     0.107862 -68.88 0.0007038466    1.739    0.425
       158 -14.5106    165.4386    102.2416   1.8697192072e+01   2.8297453767e+01     2.142319     1.122502 -45.85  0.009226041    1.807    0.447
       159 -11.4030    232.1153    246.1022   3.3716951683e+01  -3.9804394237e+00    0.2152097    0.1188745 -28.40  0.001010869    1.600    0.375
       160 -11.8963    196.7321    244.6897   3.9411728978e+01  -3.4016044684e-01    0.2816172    0.1856119  37.76  0.001503818    1.930    0.482
       161 -12.5080    178.5452    243.8063   4.2600371686e+01   1.7396495568e+00    0.2899137    0.1978832  28.23  0.001161328    1.370    0.270
       162 -10.5102    111.4141     55.1845   1.6835019831e+01   4.9587483751e+01    0.2125697    0.1355136 -51.72 0.0007948188    1.662    0.398
       163 -10.9471    153.5626     52.6795   7.1876909757e+00   3.9546707962e+01    0.1978547    0.1216488 -49.23 0.0008727147    1.550    0.355
       164 -11.1087    126.2946     52.4519   1.2313002809e+01   4.6343419982e+01    0.2638572    0.1603856 -55.90 0.0007920502    1.798    0.444
       165 -11.1812    105.0347     51.9770   1.7387040277e+01   5.1710736969e+01    0.2446051    0.1799209 -77.19 0.0008642217    1.669    0.401
       166 -11.0888    141.0057     47.3024   7.6845831322e+00   4.3457172668e+01    0.4991009    0.1779772 -35.16  0.001795276    2.730    0.634
       167 -11.4076    140.8580     41.1938   5.7353007140e+00   4.4382094885e+01    0.4238026    0.2465484 -50.64  0.001937198    1.704    0.413
       168 -11.2169    129.9631     48.9011   1.0334641071e+01   4.5986287411e+01    0.2442892     0.166196 -72.75 0.0008708334    1.711    0.416
       169 -10.7093    144.8088     47.3871   7.0403270675e+00   4.2495896831e+01    0.2627664    0.1556802 -48.46  0.001125986    1.637    0.389
       170 -12.0853    122.9334     46.6813   1.1060238748e+01   4.8104703105e+01    0.3859884    0.2524768 -60.13  0.001052715    1.693    0.409
       171 -11.0539    112.6588     47.5473   1.3757612687e+01   5.0556447075e+01    0.2524773    0.1681532 -58.54 0.0009399135    1.678    0.404
       172 -10.7943    150.5973     46.8755   5.9110078459e+00   4.1137201392e+01    0.2021949    0.1174297 -48.50 0.0008482572    1.648    0.393
       173 -10.9150    136.9117     46.8689   8.2957222899e+00   4.4548549318e+01    0.2404883    0.1593965 -67.05 0.0009572479    1.676    0.403
       174 -10.3697     95.3083     47.6563   1.8553557561e+01   5.4821132577e+01    0.1552474     0.115056 -76.69  0.000396998    1.695    0.410
       175 -11.4862    119.5017     55.4055   1.4882677566e+01   4.7548172319e+01    0.3328885    0.2169696 -68.90  0.001117762    1.946    0.486
       176 -11.3401    174.2468     43.9544   1.6874960631e+00   3.5863127978e+01    0.3767459    0.1208118 -31.61  0.001355438    3.072    0.674
       177 -11.1656    173.2930     39.9194   6.8539698023e-01   3.6629680349e+01    0.2712589    0.1735149 -38.57  0.001068243    1.457    0.314
       178 -11.2964    132.6138     42.9414   7.7997956018e+00   4.6215290813e+01    0.2089472    0.1715005 -53.77 0.0008051424    1.190    0.160
       179 -11.2568    144.1714     30.7314   1.8065966199e+00   4.4945394782e+01    0.3262824    0.1343421 -38.23  0.001329864    2.254    0.556
       180 -11.0137    146.2976     39.7815   4.3857976532e+00   4.3213186384e+01    0.4810998     0.181265 -32.08  0.001803715    2.685    0.628
       181 -11.0773    144.3232     35.6500   3.3745033255e+00   4.4269037093e+01    0.2732161    0.1391919 -50.64  0.001175195    1.958    0.489
       182 -10.9655    125.2280     40.4467   8.3859365423e+00   4.8456357852e+01    0.2043143    0.1334066  82.62 0.0005707795    1.667    0.400
       183 -10.8459    106.5115     40.0109   1.2451389892e+01   5.3278690364e+01    0.2152259    0.1436523 -39.11 0.0007613012    1.553    0.356
       184 -11.3436    167.0679     48.8085   3.9986006043e+00   3.6871875925e+01    0.3482895    0.2040904 -59.66  0.001176467    1.753    0.430
       185 -11.2487    168.2314     36.1189   2.2713776343e-01   3.8327057509e+01    0.3799283    0.1815499 -34.17  0.001706163    1.985    0.496
       186 -11.0605    146.5833     26.3902   6.3264803894e-02   4.4871911904e+01    0.3264592    0.1573604 -75.71  0.001239045    2.798    0.643
       187 -11.0797    149.0000     30.5624   1.0606369095e+00   4.3751058893e+01    0.4463367    0.1087908 -32.89  0.001465648    3.607    0.723
       188 -11.4766    152.1150     37.6491   2.8319341939e+00   4.2053428441e+01    0.3927296    0.1907488  89.72  0.001472226    2.852    0.649
       189 -10.8516    163.9983    245.0284   4.5536305584e+01   3.2121562503e+00    0.1628552    0.1287883  42.69 0.0007870712    1.653    0.395
       190 -13.6183    150.7768     80.2792   1.5757459145e+01   3.5596211475e+01     1.357175    0.7044067 -67.96  0.004302807    3.863    0.741
       191 -10.8607    179.4954     37.1170   3.5919914060e+02   3.5552638151e+01    0.1990078    0.1189419 -37.62  0.001012808    1.537    0.349
       192 -11.2817    134.0241     35.4732   5.0101470681e+00   4.6905491956e+01    0.2820748    0.1727392 -49.45  0.001177963    1.618    0.382
       193 -10.6872    122.9819     35.9560   7.2354426083e+00   4.9666413967e+01    0.2370038    0.1558943 -64.31 0.0008225623    1.687    0.407
       194 -11.0284    159.0366     33.5232   6.2276141637e-01   4.0886875009e+01    0.2336788    0.1810607  39.25  0.001257172    1.655    0.396
       195 -11.2571    117.1087     33.1827   7.4112951849e+00   5.1554283051e+01    0.2790035    0.1607836 -57.51  0.001201938    1.987    0.497
       196 -11.2614    158.0828     55.0802   7.1610999229e+00   3.8088076263e+01    0.2301743    0.1512083 -63.33 0.0006875667    1.598    0.374
       197 -11.2804    109.9859     32.3753   8.6462700291e+00   5.3492108186e+01    0.2830893    0.1843511 -53.29   0.00133314    1.648    0.393
       198 -11.3871    213.5114    242.5455   3.6231010115e+01  -1.7916072667e+00    0.2526922    0.1434583   0.07  0.001641977    1.618    0.382
       199 -12.2489    123.8931    241.6539   5.3348072147e+01   8.4926109680e+00    0.1958749    0.1578232 -18.12  0.001126566    1.364    0.267
       200 -11.1993    170.9483    240.0802   4.3545513537e+01   3.1130179951e+00    0.1821366    0.1380677   7.11 0.0007646882    1.039    0.038
       201 -12.8927    147.6142    238.5404   4.7986820942e+01   6.0985578397e+00    0.2783496    0.1820258 -13.30  0.001498664    1.707    0.414
       202 -11.3658    120.9058     16.1573   2.9925029262e-01   5.2630034169e+01    0.3366782    0.1862067  89.37  0.001487643    1.953    0.488
       203 -11.4272    185.0479    236.4556   4.0391332484e+01   2.0114331703e+00    0.1776226    0.1628869 -33.08  0.001080167    1.569    0.363
       204 -11.2733    130.5118     26.9839   2.6699771966e+00   4.8900311749e+01    0.3307908    0.1768578 -67.97  0.001354918    2.323    0.570
       205 -12.5726    159.7264    235.1847   4.5094845848e+01   5.1456952580e+00    0.2276409    0.1642574  15.05 0.0008039339    1.126    0.112
       206 -12.5446     96.8000     26.5932   9.4383717776e+00   5.7624602090e+01    0.2465252    0.2140755 -48.85 0.0007035584    1.216    0.178
       207 -12.8846     85.2640     28.5996   1.3545849718e+01   6.0231357540e+01    0.3025954    0.2225462 -73.75 0.0009668873    1.698    0.411
       208 -11.5207    131.4748     54.9133   1.2020955091e+01   4.4649104526e+01     0.290393    0.2121337 -73.31 0.0008871077    1.525    0.344
       209 -10.8086    109.3813     26.1068   6.3054827511e+00   5.4467389140e+01    0.2058406    0.1202871 -45.20 0.0009362375    1.777    0.437
       210 -11.7124    138.9870    234.1935   4.9237524768e+01   7.8418952547e+00     0.154293    0.1366773  66.58 0.0007448869    1.602    0.376
       211 -10.8619     97.2590     22.4395   7.5323666608e+00   5.8031337149e+01    0.1924229    0.1296668  79.00 0.0005304101    1.528    0.346
       212 -11.8360    224.8204    231.0495   3.2730440329e+01  -1.5291268539e+00     0.214225    0.1767154  25.64  0.001309616    1.648    0.393
       213 -10.6957    112.0045     21.4895   3.9368153875e+00   5.4347391834e+01    0.1956651    0.1114418 -80.32 0.0008011513    2.253    0.556
       214 -11.7845    223.1589    227.1405   3.2422813183e+01  -8.8100724052e-01    0.2644204    0.1613905 -26.52  0.001066495    1.417    0.294
       215 -11.5899    211.4904    227.4938   3.4410241691e+01   2.9574014924e-01    0.2433787   0.09267534 -36.41  0.001132088    2.469    0.595
       216 -12.5532    101.9647     29.1193   9.2175817505e+00   5.5980093521e+01    0.4362845     0.305704 -69.96  0.001497106    1.672    0.402
       217 -10.4985    171.5186    232.4846   4.2403597681e+01   4.1354091705e+00    0.1183003   0.09369327   8.91 0.0001188358    1.029    0.028
       218 -14.8027    245.0578    203.6279   2.5412484015e+01  -2.0342665712e-01    0.9140482    0.6816554 -62.16  0.005275027    3.739    0.733
       219 -11.4523    125.8087     30.4368   4.7110711813e+00   4.9677175361e+01    0.3331867    0.1549324 -47.11  0.001359851    2.202    0.546
       220 -11.4634    119.9146     27.3655   4.6782204681e+00   5.1588680822e+01    0.6079978    0.2271694 -58.43  0.001672221    5.212    0.808
       221 -11.9778    194.4284    230.3756   3.7816193407e+01   1.7848282314e+00    0.2751619    0.1813804  31.76  0.001355829    1.568    0.362
