#   1 NUMBER                 Running object number                                     
#   2 MAG_AUTO               Kron-like elliptical aperture magnitude                    [mag]
#   3 X_IMAGE                Object position along x                                    [pixel]
#   4 Y_IMAGE                Object position along y                                    [pixel]
#   5 X_WORLD                Barycenter position along world x axis                     [deg]
#   6 Y_WORLD                Barycenter position along world y axis                     [deg]
#   7 A_WORLD                Profile RMS along major axis (world units)                 [deg]
#   8 B_WORLD                Profile RMS along minor axis (world units)                 [deg]
#   9 THETA_WORLD            Position angle (CCW/world-x)                               [deg]
#  10 FWHM_WORLD             FWHM assuming a gaussian core                              [deg]
#  11 ELONGATION             A_IMAGE/B_IMAGE                                           
#  12 ELLIPTICITY            1 - B_IMAGE/A_IMAGE                                       
         1 -12.2856     16.0860     13.5106   7.4689962909e+01   7.1540245589e+01    0.2178167    0.1645678   6.08 0.0002768962    1.058    0.054
         2 -11.9926     34.5981     20.1070   6.8222952628e+01   6.8280786729e+01    0.9144188     0.442753   7.98  0.002406403    4.148    0.759
         3 -11.8516     27.9719     18.6528   7.0792511336e+01   6.9388175226e+01    0.5055985    0.2895579   0.11  0.002108804    2.039    0.509
         4 -12.1116     23.9192     11.7875   6.9603386679e+01   7.0793700599e+01    0.3235346    0.2540234 -12.92 0.0004010138    1.215    0.177
         5 -11.3975    239.3296     20.7143   2.8009303314e+01   2.5393604857e+01    0.5417079    0.2922106  56.11  0.002998454    2.418    0.586
         6 -10.3465    222.3325     19.6882   2.9068130616e+01   2.8792943055e+01    0.1826447   0.09842905 -44.85  0.001090535    1.655    0.396
         7 -12.3130    111.9652     18.9407   4.2908574606e+01   5.3379336636e+01    0.4636675    0.3451946  16.83  0.002733979    1.653    0.395
         8 -12.1705    128.0087      5.0544   3.5754969857e+01   5.0962584700e+01    0.3997598    0.2872729  81.06   0.00248494    1.261    0.207
         9 -10.2175    136.2783      1.7948   3.3642831593e+01   4.9337109867e+01    0.5393319    0.1665682  59.27  0.002370263    2.453    0.592
        10 -12.3919    122.3245     11.2428   3.8531493965e+01   5.1735929959e+01    0.6511464    0.4035782  25.25 0.0007997226    2.202    0.546
        11  -9.7086    116.9880      8.8056   3.8696090685e+01   5.3163697361e+01    0.2329497    0.1615407 -79.31 0.0008341425    1.706    0.414
        12 -10.6249    153.5065      3.0270   3.1840477346e+01   4.5312354284e+01    0.3466022    0.2310525  54.53  0.001333191    1.487    0.327
        13  -9.6154    150.4362     12.2704   3.4629380305e+01   4.5180592262e+01    0.2212878    0.1662697 -55.19 0.0009478974    1.392    0.282
        14 -10.1710    156.5030     10.4734   3.3397604152e+01   4.3962568081e+01    0.2214869    0.1872893 -86.81 0.0008781772    1.068    0.063
        15 -10.4122    153.4556      9.5028   3.3519461071e+01   4.4748097579e+01    0.2222008    0.1805263 -83.13 0.0006806413    1.126    0.112
        16 -11.2073    155.5556     14.8905   3.4655284546e+01   4.3754170908e+01    0.3342515    0.2931412  16.86  0.001312933    1.525    0.344
        17 -11.0581     58.5422     12.6613   5.4959060954e+01   6.5152721967e+01    0.4659992    0.2289284  38.48  0.001863567    1.730    0.422
        18 -11.4601    100.2223     16.2248   4.4510487060e+01   5.6266637778e+01    0.4996755    0.2334482  46.74  0.001700767    1.859    0.462
        19 -10.7860      9.9842     15.5618   7.9172060832e+01   7.1914120998e+01    0.3462661    0.2337081 -17.48  0.001343154    1.235    0.190
        20  -9.7528    176.3106     12.1063   3.1580059664e+01   3.9340422896e+01    0.3887654    0.1882729 -77.31  0.001140833    2.432    0.589
        21 -12.4973    187.1499     13.6548   3.0853243880e+01   3.6797059012e+01    0.2743117    0.2049527 -78.95  0.000350865    1.129    0.114
        22 -11.6694    182.5853     12.2661   3.0984227467e+01   3.7937944652e+01    0.3339773    0.2866228  24.12  0.001447822    1.711    0.415
        23 -11.0030    247.1594     12.8978   2.6107915313e+01   2.4835198041e+01     0.204735    0.1480779 -61.92 0.0003224666    1.098    0.089
        24 -10.4872     75.3650     11.8739   4.9236430894e+01   6.1955559084e+01    0.2851022    0.1972377 -47.26   0.00167274    1.962    0.490
        25 -10.2728     77.4880      7.1405   4.6754933812e+01   6.1934766708e+01    0.2831104    0.2127591   2.01 0.0009438688    1.493    0.330
        26 -10.2999    143.7596     11.0098   3.5183453108e+01   4.6831548405e+01     0.370458    0.2297669 -56.45  0.001438994    1.770    0.435
        27 -11.3554    210.1364      8.8389   2.7870403156e+01   3.2435683085e+01    0.4189561    0.3338641  60.24  0.002014535    1.536    0.349
        28 -11.4367    216.6395      6.4188   2.6918747015e+01   3.1368763754e+01    0.3671269     0.222701 -25.16  0.002229849    2.307    0.566
        29 -11.2283     93.4658     10.6315   4.4071495700e+01   5.8252057888e+01    0.5468343    0.2251602  64.43  0.002146002    2.311    0.567
        30 -12.2650     46.0354      9.2136   5.8135492841e+01   6.7718505892e+01    0.2644028    0.1930482  22.50 0.0003548997    1.136    0.120
        31 -10.4271     34.9875      8.7446   6.2675425541e+01   6.9559223767e+01    0.3434154    0.2033079   7.73  0.001857825    1.830    0.454
        32  -9.2464     40.7022      5.1306   5.8392544356e+01   6.9013933338e+01    0.1859631    0.1296767  43.79 0.0002265449    1.381    0.276
        33 -11.9659     89.8910      3.4339   4.2262914846e+01   5.9611779837e+01    0.4829943    0.2983429  58.63  0.001083875    1.322    0.244
        34  -9.5734     10.1680      1.4117   7.1960872258e+01   7.3727972234e+01     0.211866    0.1385869  26.39  0.001464472    1.391    0.281
        35 -10.7032      8.0739      8.9319   7.7125065711e+01   7.3017980752e+01    0.2033506    0.1385618  -4.71 0.0003689611    1.178    0.151
        36 -11.2634     10.4987      5.1954   7.3765925237e+01   7.3236360372e+01    0.7249395    0.2406937  24.26  0.003215578    3.246    0.692
        37 -10.0526    188.9525      8.0151   2.9441129797e+01   3.6977443328e+01    0.1721331    0.1268553  52.65 0.0007255711    1.634    0.388
        38 -11.1087    168.4646      5.1697   3.0748498734e+01   4.1753585193e+01    0.3994768    0.3334766  -4.36  0.002269291    1.716    0.417
        39 -10.9454    106.0172      3.4291   3.8941528148e+01   5.6069770589e+01    0.5841609     0.323655 -87.65  0.002782448    2.617    0.618
        40  -9.7167     99.0953      4.1778   4.0552193213e+01   5.7547923715e+01    0.1814713    0.1331906  46.67 0.0003025381    1.190    0.159
        41 -10.8237      2.6657      3.6507   7.7812373867e+01   7.4246850036e+01    0.2753922    0.2537479 -80.08  0.002000641    2.446    0.591
        42  -9.2224    186.3499      3.3178   2.8641144415e+01   3.7993525894e+01    0.1132241    0.0791004  51.35    0.0005761    1.735    0.424
        43  -9.7703    246.2156      1.6020   2.4217251235e+01   2.6221289819e+01    0.1729471    0.1098001  78.78  0.001250395    1.500    0.333
        44  -9.5588    119.8800      1.8716   3.6051699018e+01   5.3066148362e+01    0.1632175    0.1275682 -88.43 0.0004353571    1.289    0.224
        45  -9.3099     33.0620      3.0000   6.0702615374e+01   7.0445575869e+01    0.1843465    0.0546925  44.16 0.0004386031    2.913    0.657
        46  -9.4323    204.4630      2.0349   2.6929294365e+01   3.4287664913e+01    0.1554133    0.1009016 -42.24 0.0006788771    1.567    0.362
        47 -10.2177    195.2724      1.4891   2.7515102003e+01   3.6260541985e+01    0.2077443   0.08940168  70.71 0.0008635806    1.973    0.493
        48  -8.5950     64.3208      1.3064   4.8119616425e+01   6.5052479422e+01    0.1263629   0.07108647  32.44 0.0006028736    1.638    0.389
        49  -9.0491    238.8555      7.8203   2.5721899451e+01   2.6918926047e+01    0.1497989   0.09105702 -66.26 0.0003306733    1.271    0.213
        50  -9.7804     74.2240    204.9909   1.0016020033e+02   2.1530953304e+01    0.2356823    0.2012114  29.33 0.0007941822    1.207    0.172
        51  -9.1753    157.7943    250.6228   8.6984843410e+01  -3.2148910649e-01    0.1738208    0.1052589  36.60 0.0002271033    1.522    0.343
        52  -9.1486     83.9923    250.5330   1.0316588134e+02   1.0104257738e+01    0.1931987     0.110829  35.13  0.000344357    1.508    0.337
        53 -11.1269     15.1337    249.5095   1.1765312789e+02   1.8545145414e+01    0.4303818    0.2430131  28.28  0.001998375    1.883    0.469
        54  -9.6729      2.4219    249.7269   1.2015131118e+02   1.9741655911e+01    0.1604132    0.1412962  -6.71 0.0008169714    1.716    0.417
        55  -8.9774    132.6554    187.7268   8.2458836117e+01   1.6356931080e+01    0.1521197    0.1155572  -5.67 0.0002511872    1.620    0.383
        56  -9.8654    109.6280    185.8237   8.8004644508e+01   2.0734338130e+01    0.2989564    0.2259582   3.54 0.0004903341    1.654    0.395
        57  -9.6391    113.4972    183.8619   8.6642754207e+01   2.0555882889e+01    0.2635057    0.1517259 -60.54 0.0006130207    1.885    0.470
        58  -9.1852      1.0000    184.4961   1.1664573541e+02   3.4601502614e+01    0.2712291   0.06221509 -76.66 0.0009097529    3.736    0.732
        59  -9.1887     97.6908    184.6519   9.0966757027e+01   2.2975848841e+01    0.1557619    0.1151198 -23.45 0.0007044456    1.708    0.415
        60  -9.0802     21.4337    183.5527   1.1138145398e+02   3.3104923242e+01    0.1333528    0.1149611  87.01 7.243358e-05    1.011    0.011
        61  -8.5106     39.2962    180.3157   1.0627798691e+02   3.2101566104e+01     0.139067   0.09998205 -40.73 0.0006005996    1.605    0.377
        62  -9.7741    138.3608    178.8316   7.9348872622e+01   1.7391752335e+01    0.2346862       0.1998  44.75  0.000341262    1.211    0.174
        63  -9.4490     34.2399    177.7560   1.0735718782e+02   3.3300759152e+01    0.1815404    0.1498484 -47.13 0.0003711486    1.312    0.238
        64  -9.6142    110.8635    179.1703   8.6485345770e+01   2.2137015472e+01    0.2265672    0.2026332  71.23 0.0004119238    1.215    0.177
        65 -11.4353     68.6609    171.3607   9.6821011003e+01   3.0731815719e+01    0.3449977    0.3294488 -45.14 0.0001051452    1.098    0.090
        66  -9.2965    170.8202    173.2025   7.0590908427e+01   1.2787643262e+01     0.200032    0.1639237 -13.06 0.0003234954    1.293    0.226
        67 -10.7219     36.6413    172.5857   1.0608146009e+02   3.4373276363e+01    0.2487301    0.2187501 -65.42 0.0003563051    1.103    0.093
        68  -9.0511     59.0157    169.9957   9.9372636117e+01   3.2389737104e+01    0.1734445     0.164161  51.62 0.0004093246    1.085    0.078
        69  -9.6409     87.7197    171.1004   9.1366829826e+01   2.7956971574e+01    0.2109232    0.1925335 -58.20 0.0004537234    1.084    0.078
        70  -9.6608     10.1971    163.7041   1.1248108083e+02   3.9089784055e+01    0.1996589     0.159316  34.09 0.0005646629    1.389    0.280
        71 -10.9008     80.6027    152.2022   8.9948999553e+01   3.3914513240e+01    0.2559389    0.2492629  36.18 0.0002582002    1.058    0.055
        72  -9.1925    175.1479    150.6032   6.4875481887e+01   1.6763976186e+01    0.1964239    0.1408269  27.95 0.0003841099    1.589    0.371
        73 -10.9545    125.4435    147.6500   7.6166967225e+01   2.7128920455e+01    0.3506944    0.2902641 -88.97  0.001446655    1.488    0.328
        74 -10.6954     31.0226    147.1042   1.0437554691e+02   4.1564860862e+01    0.2196768    0.1937245 -69.33            0    1.016    0.016
        75 -10.0566     11.7561    145.4870   1.1008494204e+02   4.3627353426e+01    0.2670411    0.1725246 -60.10 0.0006874035    1.342    0.255
        76  -9.0463     36.6574    145.3202   1.0235195812e+02   4.1462946794e+01    0.1493743    0.1015831  65.46 0.0002987458    1.722    0.419
        77 -10.0417      2.2615    143.4604   1.1272166334e+02   4.4791608284e+01    0.2933409    0.2047032 -77.19 0.0009145355    1.222    0.182
        78  -9.4792     44.8198    141.7806   9.9192936488e+01   4.1494593641e+01    0.1940395    0.1621688  84.80  0.001037382    1.273    0.214
        79 -10.6514     21.4019    141.8043   1.0664443481e+02   4.3812474155e+01    0.3432762    0.1828783  37.81 0.0006415847    2.012    0.503
        80 -11.1064     28.5096    138.1866   1.0386665286e+02   4.4118073771e+01    0.4568025    0.2523411 -72.30 0.0009664518    1.709    0.415
        81  -9.7145     37.5370    137.7371   1.0087189036e+02   4.3343210724e+01    0.2771463    0.1183526 -59.84  0.001036537    2.008    0.502
        82  -9.5441     46.9842    136.4066   9.7559750936e+01   4.2639650932e+01    0.2275918    0.1766663 -61.66 0.0004098295    1.188    0.158
        83 -10.9420     14.4246    134.0402   1.0782206789e+02   4.6361342007e+01    0.4634208    0.3067054 -55.55  0.002085135    1.320    0.243
        84  -9.7797     15.9111    128.8290   1.0661674516e+02   4.7579988188e+01    0.2092631    0.1575225 -45.30 0.0004319085    1.260    0.207
        85  -8.8260     74.2011    134.3455   8.8310701052e+01   3.9478541852e+01     0.196431    0.1375975  41.82 0.0002134037    1.491    0.329
        86 -10.7029     23.7935    126.6061   1.0363801594e+02   4.7514715411e+01    0.4936555    0.2739428 -60.75  0.002373045    1.535    0.348
        87  -9.6028     11.0525    129.1289   1.0826176722e+02   4.7853823444e+01    0.2890469    0.1827307  -1.46  0.001250734    1.970    0.492
        88 -10.8471     53.1266    124.8021   9.3280105824e+01   4.4866897230e+01     0.521606    0.2662375 -32.82   0.00139675    2.553    0.608
        89 -10.4663     45.6677    124.3117   9.5737890637e+01   4.5898886993e+01    0.2997379    0.2323028 -87.65  0.001305465    1.486    0.327
        90  -8.9325     37.5850    126.5338   9.8928376577e+01   4.6224747597e+01    0.1413994    0.1279479 -61.88 5.742074e-05    1.035    0.034
        91 -10.7432    229.9088    122.9949   4.9142869337e+01   1.1962236748e+01    0.5268233    0.2778347 -56.77  0.002431051    2.128    0.530
        92  -9.7437     31.6667    123.5372   1.0042776985e+02   4.7582722933e+01    0.4182522     0.167187 -42.07  0.001577487    2.641    0.621
        93  -9.3596      1.2020    124.0739   1.1085299960e+02   4.9741412551e+01     0.179481   0.08702263 -69.80 0.0006477812    1.700    0.412
        94 -10.6868     93.9836    122.9830   7.9460660953e+01   3.8988854299e+01    0.2230657    0.2162881 -25.94            0    1.011    0.011
        95 -12.4223      4.8587    116.1777   1.0857556829e+02   5.1501384701e+01    0.7702001    0.4071041  53.87   0.00147638    2.468    0.595
        96 -11.0058      1.8879    112.0009   1.0902846282e+02   5.2700320888e+01     0.257706      0.21736 -78.78  0.001183865    1.152    0.132
        97  -8.8173     83.3312    119.3045   8.1936912284e+01   4.1741238994e+01    0.1582694    0.1175769 -16.05 0.0005378644    1.657    0.397
        98 -10.0519     67.0325    117.3314   8.6886568296e+01   4.4818462050e+01    0.3267405    0.2331515  42.52  0.001226748    1.502    0.334
        99 -10.4662     48.9555    126.7159   9.5085086135e+01   4.4897038710e+01    0.2726675     0.250778  -8.88 0.0003656058    1.149    0.130
       100 -10.1046     45.8264    117.3692   9.4280979056e+01   4.7631211841e+01    0.3345391    0.2214941 -69.61 0.0004621739    1.586    0.369
       101  -8.9068     43.7263    113.7049   9.4261305041e+01   4.8787385561e+01     0.142803    0.1337858 -58.66 0.0002180139    1.075    0.070
       102  -8.6555     38.3269    115.2827   9.6526421814e+01   4.8990949744e+01    0.1469926   0.09809793 -30.53 0.0003873754    1.602    0.376
       103  -9.2639     84.1547    113.1329   8.0136964012e+01   4.3076480408e+01    0.1940759    0.1771736  78.89 0.0002490863    1.259    0.206
       104  -8.9026     62.4940    112.4414   8.7302887564e+01   4.6675704027e+01    0.1459615    0.1390596 -34.99 0.0001057038    1.023    0.022
       105  -9.6984     45.1423    109.6075   9.2861334516e+01   4.9632622969e+01    0.2940734    0.1910349 -81.53  0.001314793    2.068    0.516
       106  -9.9620     34.9036    108.7225   9.6435416991e+01   5.0971173917e+01    0.4598027    0.1126688 -53.79  0.001535439    3.076    0.675
       107  -9.7040     20.9779    109.9796   1.0181672940e+02   5.1926105410e+01    0.1682411    0.1449092 -52.13 0.0005402437    1.007    0.007
       108 -10.0163      6.8973    108.8751   1.0677420979e+02   5.3183689384e+01    0.3071514    0.1553442   4.65  0.001449891    2.416    0.586
       109  -9.3672     72.3023    107.6172   8.2706365495e+01   4.6347470427e+01    0.2681375    0.1372039  38.07 0.0006318326    1.997    0.499
       110  -9.9779     17.4651    107.4803   1.0266395860e+02   5.2814122966e+01    0.1348419    0.1168737 -53.37  0.000169064    1.016    0.016
       111  -8.7876    126.7831    105.9642   6.5605973295e+01   3.6332379264e+01    0.1935113     0.123993 -43.85 0.0008360191    1.562    0.360
       112  -9.2264     88.0528    105.7064   7.6935602146e+01   4.4111698280e+01    0.2067956    0.1866223  25.52 0.0002752704    1.112    0.101
       113 -10.5493     66.5582    105.0361   8.4050193649e+01   4.7847495996e+01    0.3678541    0.2185949 -39.28  0.001620507    1.700    0.412
       114  -8.7711    131.5228    105.5120   6.4254455427e+01   3.5410163733e+01    0.1508711     0.148892 -84.56 7.157146e-05    1.017    0.017
       115 -10.0717     76.1882    104.1479   8.0473220357e+01   4.6525335898e+01    0.2720675    0.2069911  36.46   0.00029129    1.342    0.255
       116 -11.1614     80.7712    103.0842   7.8637311432e+01   4.5994306223e+01    0.3285681    0.2614406  14.30 0.0001979701    1.364    0.267
       117  -9.4469     57.2781    103.9753   8.7109505246e+01   4.9441688448e+01    0.2129726     0.176243 -43.15 0.0004868339    1.128    0.113
       118  -8.8920    117.5640    103.4710   6.7432338147e+01   3.8811344553e+01    0.1511801    0.1476364  -4.34 6.131914e-05    1.032    0.031
       119  -9.2210    106.2213    103.2507   7.0627887183e+01   4.1186532488e+01    0.1943008    0.1757394  83.69 0.0002857036    1.270    0.213
       120 -11.3003     45.9416    100.3415   9.0424180962e+01   5.1769066320e+01    0.5407941    0.3180926 -29.05  0.002420834    1.936    0.484
       121  -9.7063     52.7715    100.8417   8.7987726688e+01   5.0788980735e+01    0.2137978    0.1797859 -21.75 0.0007611499    1.172    0.147
       122  -9.9329     68.3401     99.3222   8.1926893995e+01   4.8897937433e+01    0.3018399    0.1978277  -7.02  0.001277241    2.144    0.534
       123  -9.7458     70.2135     96.4155   8.0474723302e+01   4.9260032802e+01    0.2688493    0.2175613  62.57 0.0008589308    1.568    0.362
       124 -11.6285    101.6793     97.8692   7.0501841400e+01   4.3252762882e+01     0.258979    0.2392526  31.29 0.0002474587    1.070    0.066
       125 -10.0119     61.3388     97.2204   8.3893361655e+01   5.0438501037e+01    0.3167583    0.2585421  75.29  0.001291677    1.662    0.398
       126 -11.1678    116.6704     94.2069   6.5124453380e+01   4.0925363250e+01    0.3764116    0.2582973 -35.93 0.0004040559    1.536    0.349
       127  -9.7578     39.5332     97.4857   9.2188464690e+01   5.3185818420e+01    0.1422336     0.123186 -33.79 -4.85895e-05    1.044    0.042
       128 -10.6770     27.7690     84.8787   9.3845994885e+01   5.7302712529e+01    0.5433797    0.2287579  38.90  0.002121152    2.859    0.650
       129 -12.3874     30.1027     93.1779   9.4876507638e+01   5.5173016158e+01    0.4222833    0.2514879 -34.87 0.0003460055    1.634    0.388
       130 -12.0028     34.8039     89.8493   9.2201708623e+01   5.5471205684e+01    0.2722391    0.2677575  46.84 0.0002445138    1.208    0.172
       131  -9.4798     96.8066     95.4699   7.1324416447e+01   4.4722448717e+01    0.2209056    0.1460571  40.30   0.00100057    1.500    0.334
       132 -10.0009     16.0343     95.0564   1.0087047594e+02   5.5918420481e+01    0.2003101    0.1763941 -44.55 0.0005458994    1.038    0.036
       133  -9.2744      5.1533     93.8691   1.0494102671e+02   5.6901650311e+01    0.1792253    0.1240633 -38.20 0.0003756566    1.293    0.226
       134  -8.7451      1.3151     94.2906   1.0651746740e+02   5.7007068365e+01    0.1359579   0.07585247 -39.98 0.0002467348    1.593    0.372
       135 -10.1257    126.4482     91.3671   6.1717943880e+01   3.9377909421e+01    0.2457228    0.2380542  52.79 0.0002686592    1.016    0.015
       136  -8.9652     92.5322     91.5011   7.1536004291e+01   4.6385784212e+01    0.1481414    0.1421948   2.02 1.967101e-05    1.002    0.002
       137  -9.1572     50.6227     89.1886   8.5776469627e+01   5.3747638362e+01     0.194641    0.1176137 -41.66 0.0001755238    1.552    0.356
       138  -9.9372     12.3932     88.3634   1.0098031075e+02   5.7743811788e+01    0.3122116    0.1749027  18.81   0.00114088    1.952    0.488
       139 -10.2518     86.4855     86.4074   7.2007007544e+01   4.8586378579e+01    0.3001004    0.2707923 -80.21  0.001099947    1.350    0.259
       140  -9.6119    139.0625     87.0201   5.7418314120e+01   3.7401800646e+01    0.2129082    0.2050835 -77.93  0.001190845    1.036    0.035
       141 -10.3620    118.4883     86.0045   6.2295006451e+01   4.2153903485e+01     0.496987    0.2805544  64.00  0.001827196    2.480    0.597
       142 -10.9051    131.2250     85.8983   5.8986002429e+01   3.9368016631e+01    0.2508174    0.2218513  53.12  0.000275806    1.106    0.095
       143  -9.8792    102.6439     85.3605   6.6606026722e+01   4.5627125483e+01     0.281819    0.1842639 -40.45 0.0007654311    1.566    0.361
       144 -10.5575     75.8673     82.0749   7.4327890021e+01   5.1391854479e+01    0.3905802     0.293824 -43.59  0.001424049    1.336    0.252
       145  -9.5166     79.3949     81.3072   7.2865244899e+01   5.0922883353e+01    0.2313145    0.1693785  16.44 0.0004920345    1.513    0.339
       146 -10.7627     70.9337     82.1825   7.6119474060e+01   5.2212702645e+01    0.2371075    0.2132314 -30.72 -0.0006383859    1.090    0.083
       147  -9.4742     20.1196     82.3426   9.6434676650e+01   5.8546525902e+01     0.248577    0.1840678 -61.42  0.001100295    1.334    0.251
       148  -9.2303      1.7383     83.0315   1.0432406061e+02   5.9603704558e+01    0.1714057    0.1373862 -49.81 0.0004285422    1.032    0.031
       149 -10.0086    143.7158     81.9600   5.4976139301e+01   3.7272411807e+01    0.2375623    0.2018482  53.86 0.0004023248    1.153    0.132
       150  -8.7699    112.6764     82.2769   6.2798752500e+01   4.4117985771e+01    0.1449851    0.1173687  84.93 0.0003848213    1.584    0.369
       151  -9.9293     53.9320     81.1229   8.2211048765e+01   5.5056316163e+01    0.2547593    0.1846094 -30.37 0.0008911694    1.343    0.255
       152  -9.8330     45.7227     81.5044   8.5585610241e+01   5.6071183769e+01     0.277055     0.245406  83.06  0.001593817    1.516    0.341
       153  -9.9749    104.6360     79.7042   6.4325256765e+01   4.6306407874e+01     0.289059    0.1844315 -43.53  0.001332002    1.624    0.384
       154  -9.7545     91.8981     80.1188   6.8348246783e+01   4.8807783972e+01    0.2204689    0.2062554   8.21 0.0007258917    1.032    0.031
       155  -8.9759     23.2546     79.3383   9.4369583600e+01   5.8952969389e+01    0.1394752   0.08217634 -34.53   0.00022258    1.573    0.364
       156  -9.7456    121.5417     78.1139   5.9198153020e+01   4.2954538834e+01    0.2150683    0.1901719  45.64 0.0005325856    1.093    0.085
       157 -10.9462     75.4563     67.6149   6.9895650321e+01   5.4266797372e+01    0.4547873    0.2621922 -33.25   0.00115984    1.847    0.459
       158 -11.4259     70.5561     63.9792   7.0442588518e+01   5.5798111913e+01     0.401071    0.3423239  53.75  0.001519368    1.394    0.283
       159  -9.9781     73.0684     77.1689   7.3812375564e+01   5.2864884472e+01    0.2309123    0.1952126 -32.32 0.0005109569    1.164    0.141
       160 -10.8144     77.6422     74.9154   7.1486241112e+01   5.2499182056e+01    0.4272166    0.2960952  44.68  0.001103652    1.489    0.329
       161 -11.0877      4.9384     76.6354   1.0166028298e+02   6.0874795570e+01    0.3504079    0.2838862 -45.24  0.001508564    1.032    0.031
       162  -9.9659     60.7529     76.1822   7.8075665859e+01   5.5076895572e+01     0.263556    0.1978568  -2.68 0.0009214591    1.450    0.310
       163 -11.0087     47.4489     73.8069   8.2624778151e+01   5.7472309815e+01    0.5883677    0.3814071  60.70  0.002591065    2.790    0.642
       164  -9.3320    130.9116     74.7392   5.5895680047e+01   4.1452114776e+01     0.200245    0.1774814  54.29 0.0004468515    1.083    0.077
       165 -10.5118    101.9886     68.9828   6.1791510902e+01   4.8808118537e+01    0.2780038    0.2063469 -37.27            0    1.412    0.292
       166 -10.6732     83.4435     74.5368   6.9379551469e+01   5.1503601951e+01    0.2869413    0.2289614 -20.29 0.0006313691    1.321    0.243
       167  -8.9254     11.3159     75.3187   9.8573285734e+01   6.0769473046e+01    0.1394024   0.07676651 -33.83 0.0004361666    1.654    0.396
       168  -8.9423    136.2730     74.3461   5.4535145672e+01   4.0301347311e+01    0.2263245    0.1504008 -32.56 0.0005382594    1.662    0.398
       169 -10.1044    140.3980     72.5307   5.3102533763e+01   3.9666399068e+01    0.2301337    0.2096301 -69.69 0.0004647735    1.124    0.110
       170 -11.3682    136.9667     69.5096   5.3007631856e+01   4.0956821438e+01    0.2898608    0.2487737 -48.51 0.0003033595    1.207    0.171
       171  -9.4703     57.0219     72.4932   7.8372227047e+01   5.6385391837e+01    0.2680742    0.1710741 -30.23  0.000648855    1.611    0.379
       172 -10.5450     33.1812     63.1505   8.5433848746e+01   6.1371813061e+01    0.3072674    0.2520134 -31.64  0.000928762    1.101    0.092
       173 -10.0085     33.2135     71.9953   8.8090183928e+01   5.9564419964e+01    0.1961645    0.1755212 -17.67 0.0002217435    1.062    0.058
       174 -10.6892     35.6188     67.8617   8.5816378660e+01   6.0150397210e+01    0.3052313    0.2241961 -46.59 0.0009470975    1.314    0.239
       175 -10.9634     17.6446     70.6701   9.4604142625e+01   6.1311504288e+01    0.2841402    0.2110558  -5.20 0.0009000716    1.327    0.247
       176 -11.1060    105.0460     74.4839   6.2615884420e+01   4.7185812977e+01    0.3455324    0.2813501  77.13 0.0004395297    1.540    0.351
       177  -9.8989     63.7287     70.5774   7.5166900074e+01   5.5717115291e+01    0.3055704    0.2152366  29.65 0.0008943763    1.383    0.277
       178 -10.0160     97.1180     69.4893   6.3401008082e+01   4.9732711805e+01    0.2609599    0.2027475 -29.03 0.0004785184    1.363    0.266
       179  -9.5246     59.1736     66.8331   7.5702548301e+01   5.7158126484e+01     0.336108    0.2162481  52.17  0.001596144    2.092    0.522
       180 -11.6388    110.9952     65.8613   5.8285175387e+01   4.7406378650e+01    0.2456805    0.2364889 -49.01 0.0002975578    1.113    0.102
       181 -10.2571    108.1771     62.8366   5.8101716190e+01   4.8519798802e+01    0.2290002    0.2064069  34.37 0.0002308633    1.065    0.061
       182 -10.3665     48.5489     66.7140   7.9947363251e+01   5.8745534916e+01    0.2752892    0.2147042  10.90   0.00108101    1.238    0.192
       183 -10.7779     42.3184     64.3177   8.1800825940e+01   6.0043418693e+01    0.5310186    0.3625295 -29.88  0.002899804    1.385    0.278
       184  -9.7747      9.6467     66.1892   9.7091445573e+01   6.2854907548e+01    0.2432849    0.1898123  62.81  0.001449829    1.894    0.472
       185 -10.0233      3.7140     67.4480   1.0013914887e+02   6.2953398756e+01     0.270124    0.1534283  27.36 0.0008954324    2.007    0.502
       186  -9.7563      1.1881     63.8033   1.0044689778e+02   6.3867809333e+01    0.3062025    0.1309728 -65.50  0.001434734    2.320    0.569
       187  -8.7825    121.4724     66.4558   5.5755128058e+01   4.4983497859e+01    0.1424277    0.1339547  48.46 7.987886e-05    1.015    0.015
       188  -9.9938    194.6765     63.0508   4.1202783252e+01   2.8892792638e+01    0.3633052    0.2604679  -7.89  0.001495992    2.415    0.586
       189  -8.9989    184.0198     64.2215   4.3000065785e+01   3.1050796678e+01    0.1663336    0.1046711  63.99            0    1.561    0.359
       190  -8.7727    118.9738     64.0074   5.5637790150e+01   4.5943923123e+01    0.1610968    0.1600505 -18.02 0.0009531505    1.069    0.064
       191 -10.1085     83.1058     63.1620   6.5789910061e+01   5.3631588288e+01    0.2168789    0.1935611 -22.14 0.0003820201    1.140    0.122
       192  -9.1200    172.0485     62.8244   4.4522473393e+01   3.3950244158e+01    0.2061591    0.1402771 -65.22  0.001045911    1.576    0.366
       193  -9.9343     90.9991     62.6481   6.3069406670e+01   5.2161809968e+01    0.2012208    0.1629463  40.39  0.000262157    1.161    0.139
       194 -10.3623     93.6109     59.8129   6.1324034943e+01   5.2100050121e+01    0.6039676    0.2327574  38.61  0.002186751    2.803    0.643
       195  -9.7794     96.0051     55.4803   5.9163361044e+01   5.2293783569e+01    0.3606561    0.2643011 -54.19  0.001747315    1.683    0.406
       196  -9.5830     93.2979     53.6600   5.9355457402e+01   5.3140054642e+01     0.234216    0.1359314 -42.22 0.0006580758    1.897    0.473
       197 -10.8178    147.1134     61.6329   4.8672236413e+01   3.9869203335e+01    0.2338216    0.2046775 -63.70 0.0004042804    1.163    0.140
       198 -12.9732    150.7834     57.7092   4.6890430479e+01   3.9609502328e+01    0.3350963    0.3026421  83.07 0.0004892633    1.035    0.034
       199  -9.0265     14.4846     61.5085   9.3567326867e+01   6.3478859435e+01    0.1290576    0.1027182 -28.50 0.0002491433    1.034    0.033
       200  -9.5569      9.4835     60.9744   9.5794858443e+01   6.3954907843e+01    0.1545378    0.1080012  87.77 0.0008086394    2.417    0.586
       201  -9.7155    219.0862     59.2154   3.7347158488e+01   2.4359861265e+01    0.2061221    0.1562862 -39.63 0.0005974341    1.374    0.272
       202  -9.2531    100.7962     59.9445   5.9241497478e+01   5.0575815605e+01    0.2233228    0.1851676  17.32 0.0009069907    1.291    0.226
       203  -9.3357    104.3525     58.7999   5.7865549818e+01   4.9996920341e+01    0.2937473    0.1783748 -23.29  0.001331536    2.059    0.514
       204 -11.3530     60.1590     57.1953   7.2034560349e+01   5.8757732952e+01    0.6959649    0.3030309  43.94  0.002912794    2.456    0.593
       205  -9.5127      4.4691     59.4906   9.7804782838e+01   6.4583446245e+01    0.1260782   0.09785035 -33.48 2.015086e-05    1.032    0.031
       206 -10.7593    161.4740     56.1359   4.4566076518e+01   3.7365477739e+01    0.3586699    0.2842215 -41.56  0.001092909    1.320    0.243
       207 -10.3418    184.8341     54.2990   4.0518452834e+01   3.2328349727e+01    0.4216232    0.1593235 -45.79  0.001355479    2.508    0.601
       208  -9.5877     27.0651     56.1910   8.6003571491e+01   6.3390077328e+01    0.2230904    0.1515442   3.04 0.0006686267    1.454    0.312
       209 -11.3345     30.4613     53.4184   8.3488389329e+01   6.3545778839e+01    0.4012912     0.346525  85.69  0.001980176    1.892    0.471
       210 -10.6437     10.2881     55.3167   9.3812363175e+01   6.5044159146e+01    0.2342412    0.1718623 -75.74  0.001372082    1.911    0.477
       211 -11.1285    246.1100     55.7057   3.3941009438e+01   1.9690960827e+01    0.1992951    0.1507843 -57.23  0.000236167    1.070    0.065
       212 -10.7383    175.7920     55.2690   4.2059859035e+01   3.4217429280e+01    0.4218014      0.25283 -74.28   0.00133721    2.086    0.521
       213 -10.1316     80.8987     43.8821   5.9789456539e+01   5.7103614167e+01      0.34735    0.2358495  16.35  0.001780913    1.734    0.423
       214  -9.8693     82.4895     51.5222   6.2000688672e+01   5.5655896688e+01    0.3177272    0.2285088 -11.58 0.0005293811    1.626    0.385
       215 -10.3635     85.4365     49.2605   6.0258101687e+01   5.5413374644e+01    0.4055558    0.2206228 -33.06   0.00153577    1.991    0.498
       216  -9.8207     81.7185     47.6866   6.0893112218e+01   5.6388391007e+01    0.3253315    0.2213299  12.32  0.001036145    1.818    0.450
       217 -10.9996     78.4848     55.6452   6.4780796267e+01   5.5776790111e+01    0.3189374    0.2332453  44.67 0.0008296017    1.334    0.251
       218 -10.5296     83.6001     54.7061   6.2748650105e+01   5.4938495713e+01    0.3726994    0.2030514  48.03  0.001722305    1.779    0.438
       219 -10.4022    200.7022     54.8749   3.8570656774e+01   2.8788654017e+01    0.2484503    0.2217931  70.81 0.0008055673    1.228    0.186
       220 -10.2009    201.4429     50.2771   3.7460596399e+01   2.9273180833e+01    0.2659081    0.2014626 -81.87  0.001497852    1.210    0.174
       221 -10.9733    128.1343     53.0668   5.0164729325e+01   4.5537342549e+01    0.3561578    0.3142312 -84.52  0.001118731    1.211    0.175
       222 -10.2830     35.0465     51.3143   8.0632489407e+01   6.3392663280e+01    0.2018383    0.1696903 -33.60 0.0002873072    1.211    0.174
       223 -10.8650      4.6100     50.6558   9.5289013988e+01   6.6352053167e+01    0.4528572    0.2580758 -11.87  0.002546795    1.739    0.425
       224  -9.3451    117.7581     51.3869   5.2037311597e+01   4.8147740477e+01     0.185426    0.1184992  46.58 0.0001939828    1.460    0.315
       225 -10.1213     63.7619     49.3153   6.7809803193e+01   5.9469725758e+01    0.2878861    0.2413691 -57.16 0.0007882229    1.605    0.377
       226 -10.7977     24.3472     50.1796   8.5290709185e+01   6.4802914995e+01    0.4194237    0.2198798 -16.91 0.0006856558    2.318    0.569
       227 -10.8773    211.4919     49.4749   3.6139799296e+01   2.7273469010e+01    0.2580837    0.1919628 -79.26 0.0005527975    1.214    0.176
       228  -8.8061    191.5453     50.4824   3.8729506734e+01   3.1383045415e+01    0.1280471    0.1129563 -80.77 0.0006900837    1.047    0.045
       229 -12.0983    137.6565     47.3030   4.6482654644e+01   4.4141640663e+01    0.3330638    0.2662925 -82.08 0.0007362005    1.366    0.268
       230 -10.7149    121.9931     48.5207   5.0157811308e+01   4.7590536752e+01    0.2521915    0.2214157 -61.01 0.0004230582    1.254    0.203
       231  -9.2526     55.2239     49.8218   7.1346197185e+01   6.0804067102e+01    0.1844176    0.1376624  -4.00 0.0006579332    1.362    0.266
       232 -10.8667     17.8696     48.8173   8.8015631623e+01   6.5681619127e+01    0.3275671    0.2170606 -45.43  0.000965254    1.405    0.288
       233 -10.1303    246.3616     48.1629   3.2512456156e+01   2.0668956749e+01    0.1819284    0.1705489 -45.41  0.001190841    1.437    0.304
       234  -9.2585    233.1588     48.3729   3.3726333413e+01   2.3106007843e+01    0.1562887   0.09777859  89.90 0.0003086069    1.604    0.377
       235 -10.7682     33.3266     45.5756   7.9354386738e+01   6.4613812095e+01    0.3950841    0.2431835 -35.84   0.00221141    1.516    0.340
       236 -12.2600    163.0806     42.3484   4.0722655484e+01   3.8890705616e+01    0.2711681    0.2217229 -53.97 0.0003701966    1.233    0.189
       237 -10.4460     91.1073     40.1461   5.5318200416e+01   5.5533418396e+01    0.2642666    0.2217418  16.87            0    1.217    0.178
       238  -9.8175     39.9336     44.6447   7.5958072810e+01   6.3917402025e+01    0.1763203    0.1407261  19.26 0.0004145548    1.170    0.145
       239 -11.4436    108.7297     43.2874   5.1649868549e+01   5.1298032241e+01    0.3217115     0.209487  55.95 0.0002044803    1.406    0.289
       240 -10.5957     54.3016     36.7084   6.6685871047e+01   6.2979591428e+01    0.2364239    0.1896525  28.02 0.0004815091    1.132    0.117
       241 -11.9430     57.0522     41.7149   6.7550436731e+01   6.1786696916e+01    0.3782401    0.2517952  22.12 0.0003552162    1.458    0.314
       242 -10.9927     62.4807     37.6400   6.3865037851e+01   6.1446147519e+01    0.3892911      0.29487  32.66  0.001064316    1.173    0.148
       243  -8.9807    190.9526     44.0000   3.7314072730e+01   3.2389160505e+01    0.2062028   0.06682879  65.83 0.0005042638    2.946    0.661
       244 -10.8985    141.7024     43.0039   4.4480679310e+01   4.3771777009e+01    0.3932407    0.1707013  55.13 0.0008415478    2.048    0.512
       245 -10.4730     18.1480     41.7050   8.5402590747e+01   6.6948011070e+01    0.2822415    0.1999746 -46.16  0.001175751    1.452    0.312
       246  -9.2628     97.9250     41.6459   5.3921287058e+01   5.3884308657e+01    0.1863611    0.1557441  51.13 0.0004931852    1.108    0.097
       247 -10.0289    230.8942     39.7106   3.2246433244e+01   2.4682506092e+01    0.2388849    0.1341736 -48.30 0.0006588039    1.501    0.334
       248  -8.7693    218.2785     41.6409   3.3803329016e+01   2.6930409028e+01     0.130145   0.07366425 -64.25 0.0007011247    1.663    0.399
       249 -10.1220     28.4242     40.8684   7.9935527365e+01   6.6001269846e+01    0.2619224    0.1576698  -9.92  0.000861792    1.817    0.450
       250  -9.5615     76.1751     39.7376   5.9815405880e+01   5.8609665313e+01    0.2220618    0.1715078 -41.64  0.001282547    1.514    0.339
       251 -10.5128     44.0139     39.0553   7.1967915459e+01   6.4237192203e+01    0.1950093    0.1586805  -9.77 0.0002877582    1.108    0.098
       252 -11.7128    140.2481     37.8672   4.3281007164e+01   4.4762846317e+01     0.236926    0.2167913  77.26 0.0002249136    1.036    0.035
       253  -9.8678    127.6195     37.7685   4.5658447740e+01   4.7708257892e+01    0.3872693    0.2330377  72.45  0.001890938    1.762    0.432
       254 -10.3830    201.9304     37.3005   3.4559852013e+01   3.0883001951e+01    0.2181038    0.1637452 -66.09 0.0003666205    1.158    0.137
       255 -10.6857     83.4756     36.5071   5.6280823122e+01   5.7587830777e+01    0.3411727    0.1895306 -53.35   0.00149376    2.900    0.655
       256 -11.0430     72.6330     36.2705   5.9698612673e+01   5.9761403810e+01    0.4200377     0.238154  19.45 0.0008730715    2.389    0.581
       257  -9.6502      2.2835     38.1587   9.2607798661e+01   6.8865362105e+01    0.1919603    0.1282091 -10.88 0.0002921536    1.317    0.241
       258 -10.5625    193.3109     36.4744   3.5325226745e+01   3.2842239653e+01    0.3973415    0.1986161  77.30  0.001964315    2.001    0.500
       259  -9.2338     32.7489     37.4067   7.6492993147e+01   6.6040830706e+01    0.1573546    0.1035656  14.19 8.461398e-05    1.421    0.296
       260  -9.7371    241.4517     36.4836   3.0749597117e+01   2.3089289653e+01    0.1165298   0.08732945 -66.85 2.353228e-05    1.020    0.020
       261  -9.7200    115.2561     34.9084   4.7387012698e+01   5.0892113078e+01    0.3349976    0.1064534 -34.03  0.001271548    3.343    0.701
       262 -11.1070    246.5447     32.4812   2.9624837815e+01   2.2650145471e+01    0.3301168    0.1670779 -52.88  0.001030287    1.559    0.358
       263 -10.6551    169.8933     33.7421   3.7565761518e+01   3.8405201228e+01    0.2603162    0.1920686 -45.27 0.0005236707    1.393    0.282
       264  -8.8099    106.7065     34.7075   4.9304903815e+01   5.2840184336e+01    0.1330636   0.09308845  30.89 0.0002398882    1.554    0.357
       265 -10.4067     86.3360     33.4423   5.4296661688e+01   5.7387106507e+01    0.2826376    0.1557287  45.18  0.001011745    1.581    0.368
       266 -11.5607     40.1469     33.0922   7.1283859828e+01   6.5696903498e+01      0.21832    0.1853969   7.07 -0.0009232552    1.080    0.074
       267 -10.9838     46.4941     28.6749   6.6629791883e+01   6.5359024735e+01    0.4491751    0.2612348  26.25   0.00213477    1.610    0.379
       268 -10.9840    124.0792     30.5355   4.4155527067e+01   4.9384233786e+01    0.3113078    0.2416142  42.97 0.0004050069    1.285    0.222
       269  -9.7459    121.1414     26.5620   4.3503442629e+01   5.0501387561e+01    0.3078656    0.1536824  56.05  0.001152851    1.692    0.409
       270  -9.7125     97.0659     33.1394   5.1201476632e+01   5.5147778484e+01     0.190635    0.1646443  47.44 0.0002956504    1.030    0.029
       271 -11.1959    236.1687     29.9267   2.9943135380e+01   2.4896025018e+01    0.3768345    0.2489172 -51.54  0.001784612    1.278    0.217
       272  -9.1944    155.0035     32.2032   3.9286326051e+01   4.2013291889e+01    0.1730615   0.09212811  66.29 0.0003434825    1.671    0.401
       273 -11.2737    132.0436     29.5914   4.2356868905e+01   4.7649484937e+01    0.3018444    0.2338866 -20.43            0    1.566    0.362
       274  -9.6421     16.9335     32.3758   8.2501468618e+01   6.8652383187e+01    0.1707456    0.1271423   5.96 0.0005603348    1.175    0.149
       275  -8.9425    142.8037     31.4001   4.1002239275e+01   4.4941558148e+01    0.1858727    0.1050878  55.49  0.000934675    1.590    0.371
       276  -9.7936    110.1806     29.5445   4.6777984445e+01   5.2665551782e+01    0.2228392    0.1885755  60.82 0.0008322279    1.073    0.068
       277  -9.8253     68.4568    249.0367   1.0642894004e+02   1.2464652108e+01    0.1752164      0.12264 -74.79 0.0004717254    1.557    0.358
       278 -11.7258     35.7890     26.9709   7.0708776082e+01   6.7193215207e+01      0.52245    0.2938156  23.50  0.001441971    1.668    0.401
       279  -9.4469    181.7553    247.3838   8.1495345626e+01  -3.0647661329e+00    0.1824053    0.1047325  19.71 0.0009485793    1.658    0.397
       280 -10.9570     46.6959     19.5836   6.2595367952e+01   6.6476007300e+01    0.4697538    0.2416641  56.73  0.001301777    3.333    0.700
       281  -8.9722     76.9735    246.9697   1.0434999764e+02   1.1769767848e+01    0.1552087    0.1303886  45.96 0.0003828811    1.032    0.031
       282 -10.7539     29.9435    245.0620   1.1435924971e+02   1.7911512185e+01    0.2829657    0.1998784  77.97  0.001064336    1.283    0.221
       283  -9.6345    216.1188     29.1488   3.1462600644e+01   2.8934982487e+01    0.1667528    0.1445429 -88.34 0.0004433737    1.187    0.157
       284  -9.1590     77.4246     29.4554   5.5514300203e+01   5.9685475284e+01    0.1286442    0.1105863  31.76 8.996596e-05    1.009    0.009
       285 -10.4371     80.9531     26.6452   5.3356558241e+01   5.9300947726e+01    0.3343089    0.2038312  42.15  0.001230913    1.418    0.295
       286  -9.5014    179.8799     28.4955   3.5037565477e+01   3.6771854248e+01    0.1881348    0.1088799  70.59 0.0005553133    1.546    0.353
       287 -10.2875     90.8556     43.8181   5.6686719830e+01   5.5087568304e+01     0.274242    0.1915667  36.78 0.0002582325    1.337    0.252
       288 -10.6517     15.9350     27.4206   8.1022582120e+01   6.9544928616e+01    0.3743984    0.2598116 -13.60  0.002437595    1.221    0.181
       289  -9.6687    206.9892     25.5366   3.1548579633e+01   3.1246078621e+01    0.1814831    0.1618752 -34.30 0.0004415728    1.449    0.310
       290  -9.9136    183.6098     25.4974   3.3909928348e+01   3.6287308687e+01    0.2232756    0.1415831 -44.58  0.000796357    1.560    0.359
       291 -10.6141     72.9114     25.5086   5.5420500924e+01   6.1041399986e+01    0.2359897    0.1990651  19.35 0.0008007496    1.102    0.093
       292 -10.3461     65.8898     25.1641   5.7641774232e+01   6.2430641839e+01    0.2345923    0.1691195 -42.10  0.001004714    1.744    0.426
       293  -9.7053     23.3435     25.3032   7.6159524938e+01   6.9048209382e+01     0.248081     0.126243 -38.99  0.001218331    1.943    0.485
       294 -10.2658     98.8670     23.5388   4.7383002018e+01   5.5836096540e+01    0.2995844    0.2300262  46.53  0.001817112    1.126    0.112
       295  -9.7487    142.6733     21.5962   3.8271806485e+01   4.6047520893e+01    0.2660472    0.1447303  70.75  0.001352745    1.644    0.392
       296 -11.0682      4.8585    246.1650   1.1950570915e+02   2.0242765219e+01    0.3395935    0.1553466  41.27  0.001903964    1.805    0.446
       297 -11.1958    236.5200     16.6774   2.7467409114e+01   2.6383722765e+01    0.2687001    0.1537875  83.21  0.001013557    1.586    0.370
       298 -10.1825    224.6344     23.0062   2.9530647916e+01   2.7955301389e+01    0.2970424    0.1512513  75.57  0.001055871    1.834    0.455
       299 -10.8872    106.1887    244.1955   9.7483825125e+01   8.2792601283e+00    0.3013746    0.2711396  73.08 0.0008410385    1.220    0.181
       300 -10.4311    164.1736     22.5478   3.5512242596e+01   4.0991619305e+01    0.3567146     0.202445  50.43  0.001845513    1.884    0.469
       301 -10.1317    158.7845     22.7791   3.6276027209e+01   4.2201096939e+01    0.2066039    0.1716075  70.03 0.0006574848    1.108    0.098
       302  -9.4027    223.3981    245.1957   7.3061253442e+01  -7.9615675869e+00    0.1490442    0.1037691 -40.30 0.0005595692    1.612    0.380
       303  -9.4225      1.4549     22.4894   8.7287204939e+01   7.1611724709e+01     0.212177   0.08803574 -43.98 0.0007721944    2.062    0.515
       304  -8.5995      2.3239     19.3450   8.5449426824e+01   7.2041159842e+01    0.1567072   0.09224953  -3.64 0.0006868411    1.537    0.349
       305  -9.2967    248.9367     22.4614   2.7668505441e+01   2.3421211964e+01    0.1518419   0.09196837  83.06  0.001015284    1.547    0.354
       306 -10.1742    179.4846     21.5225   3.3442811041e+01   3.7647787915e+01    0.2978523    0.1764038 -65.63  0.001641228    1.696    0.410
       307  -9.8448      7.4754     22.2756   8.3631085362e+01   7.1151935528e+01    0.2086178    0.1367787  13.54  0.000871124    1.377    0.274
       308 -10.4258    166.0531    243.3282   8.4141251080e+01  -2.1574687505e-01    0.2115466    0.1903691 -36.79 0.0003362626    1.287    0.223
       309 -10.4219    159.8052    243.1172   8.5442896039e+01   7.0858314953e-01     0.191002    0.1745817  28.72  0.001226582    1.195    0.163
       310 -10.3254     42.1937    242.0461   1.1153602298e+02   1.7167346350e+01    0.2738506    0.2381763  43.11  0.001265628    1.174    0.148
       311 -11.3426      4.3264    238.7609   1.1923532615e+02   2.1844551645e+01    0.2410261    0.1960531  78.86  0.001251662    1.091    0.084
       312 -10.6846     14.6417    238.0920   1.1709410500e+02   2.0993551513e+01    0.2330268    0.1753407  21.56  0.001241022    1.630    0.386
       313 -11.4552      9.3987    237.4877   1.1813785244e+02   2.1635872601e+01    0.2710059    0.1734534  52.38  0.001693646    1.306    0.235
       314  -9.0780     52.4591    238.4688   1.0898733655e+02   1.6709282994e+01    0.1271415     0.110225  60.00 0.0002154037    1.024    0.023
       315 -10.1375    125.8283    236.8888   9.2060150499e+01   6.8633148990e+00    0.2091309    0.1774703   1.10 0.0008058667    1.240    0.194
       316 -11.1846    150.8573     18.4245   3.6211079586e+01   4.4480781453e+01    0.3193535    0.2422687  76.25 0.0008447981    1.126    0.112
       317 -11.9745    119.2434    231.3006   9.2787692766e+01   8.9783493412e+00    0.4811843     0.308378 -49.05 0.0005328016    1.696    0.410
       318  -9.4509    130.4288     19.6837   3.9701146789e+01   4.9077135035e+01    0.3458357    0.1136362  70.51  0.001237853    3.366    0.703
       319 -11.0456     56.2969     18.0082   5.8101820235e+01   6.5003719771e+01    0.4876667    0.1906973  34.92  0.002110836    2.554    0.608
       320  -9.1939     28.3116    234.6493   1.1397767105e+02   2.0324188997e+01    0.1369748   0.07442334  62.52 0.0007045401    1.721    0.419
       321  -8.9669     92.5938    242.8324   1.0039620958e+02   1.0482617833e+01    0.1597041    0.1241312 -89.73 0.0004018972    1.498    0.333
       322  -8.7999     43.9707    232.0406   1.1032296691e+02   1.9135744353e+01    0.1509702    0.1280458  63.42            0    1.005    0.005
       323  -9.3065      5.4727     15.5826   8.1875213945e+01   7.2340706959e+01      0.15816    0.1305062 -16.74 0.0004991757    1.234    0.190
       324 -10.7103    193.5074     16.8035   3.0942711815e+01   3.5087653844e+01    0.2106534    0.1631323 -88.89 0.0002929331    1.067    0.063
       325 -10.0050    212.4457     22.2058   3.0376327684e+01   3.0501878122e+01    0.1992885    0.1107604 -33.37 0.0008108197    2.017    0.504
       326 -11.1777      4.3495    228.6687   1.1868967828e+02   2.4022142613e+01    0.2577791    0.1298954  61.80   0.00139509    1.745    0.427
       327 -10.8105    140.3392    227.4381   8.7353527085e+01   6.5515165453e+00    0.2974736    0.2231054  28.48  0.001086807    1.218    0.179
       328  -8.8091    104.5578    228.4685   9.5836391023e+01   1.1769766733e+01    0.1361862    0.1251229  35.93 6.235479e-05    1.018    0.018
       329 -10.8160     22.8788    225.0808   1.1447800249e+02   2.3023904443e+01    0.3048054    0.2855759 -68.12  0.002109841    1.279    0.218
       330  -9.7659     98.0204    225.4602   9.6987135330e+01   1.3386647514e+01    0.1973149    0.1890391 -80.90 0.0004995962    1.118    0.106
       331 -10.7786      7.4121    225.2450   1.1784792236e+02   2.4498189902e+01    0.2199227    0.1325949  84.80 0.0008355127    1.470    0.320
       332  -8.5915    162.2569     13.3295   3.3432205978e+01   4.2378843208e+01    0.1132028   0.08757736  43.32 0.0002243914    1.560    0.359
       333  -9.0512    197.8533    235.5726   7.6359613991e+01  -3.2751340631e+00    0.1611195     0.110576  35.62 0.0005350263    1.557    0.358
       334  -9.2754    133.0247     13.0773   3.7337043655e+01   4.9112974291e+01    0.2055547    0.1294512  38.84  0.001123023    1.829    0.453
       335 -11.3187    108.3536    220.4263   9.3817752481e+01   1.2940851635e+01     0.439058    0.2279824  41.44  0.001699158    1.787    0.440
       336 -11.0650     76.8527    219.2346   1.0129687146e+02   1.7817845846e+01    0.6294165    0.4153343   7.59  0.002953671    2.148    0.534
       337 -11.3685     72.9510    213.6352   1.0157122235e+02   1.9654882456e+01    0.6807103    0.4582665  28.91  0.003478807    1.503    0.335
       338  -8.9303     28.4720    221.4484   1.1295183026e+02   2.3264145521e+01    0.1262603    0.1090276  72.57 0.0001789451    1.034    0.033
       339  -9.0064     41.6064    219.4879   1.0975717159e+02   2.2257587305e+01    0.1296052    0.1128446  74.43 7.229352e-05    1.025    0.025
       340 -11.5519    118.7823    216.5601   9.0734732788e+01   1.2173988826e+01    0.4698246    0.3614303 -76.80   0.00244465    1.606    0.377
       341 -10.7424      3.5245    217.4583   1.1822329505e+02   2.6600503818e+01    0.2562577    0.1036445 -78.42  0.001218309    2.198    0.545
       342 -10.5440     12.0195    216.8964   1.1632023957e+02   2.5956977571e+01    0.2069559    0.1538906 -86.23 0.0003407424    1.196    0.164
       343  -9.7283     91.8633    214.4523   9.7003130959e+01   1.6762572543e+01    0.4317274    0.1402021  29.62  0.001436649    3.241    0.691
       344 -11.8786    149.0074    210.7803   8.2645420148e+01   8.5786709041e+00    0.2572525    0.2361936 -28.20 0.0004230915    1.108    0.097
       345  -9.2706    105.2997    210.3042   9.3083403327e+01   1.5674516215e+01    0.1415108    0.1105683 -15.95            0    1.589    0.371
       346  -9.2874     38.4990    210.4596   1.0966019400e+02   2.4733377298e+01    0.1307144    0.1176864  77.32 2.990721e-06    1.047    0.045
       347  -9.1684     42.1812    208.1622   1.0854462770e+02   2.4862215879e+01    0.1862453    0.1373594  68.76  0.000331856    1.287    0.223
       348  -9.6041    141.5099    207.3797   8.3813295048e+01   1.0511148436e+01    0.2208182    0.1311592  34.06 0.0002802666    1.603    0.376
       349 -11.1587     90.0498    204.6960   9.6091080003e+01   1.9308635767e+01    0.5367972    0.3311979 -85.24  0.001764097    2.213    0.548
       350 -11.3027     11.2773    202.3399   1.1547327086e+02   2.9433622372e+01    0.2777281    0.2081763 -88.00  0.001618364    1.156    0.135
       351 -11.0537    167.1421    198.1932   7.6275119217e+01   8.2090916916e+00    0.2456796    0.2202597 -12.65 0.0002567259    1.043    0.042
       352  -9.0150    135.5354    198.4635   8.3692629326e+01   1.3442916512e+01    0.1457991    0.1383011  10.40 4.731684e-05    1.005    0.005
       353 -10.7211    103.6112    194.2542   9.1002213967e+01   1.9693866563e+01    0.3708493    0.2833142 -13.27  0.001212698    1.674    0.403
       354  -9.7097    109.5138    193.5324   8.9357781381e+01   1.8909517800e+01    0.1465566    0.1422589  33.39 8.742872e-05    1.006    0.006
       355  -8.9692    164.5116    189.4609   7.5218696854e+01   1.0460362879e+01    0.1440752     0.135915  -6.01 0.0001114228    1.032    0.031
       356 -10.0358     62.9400    188.4140   1.0090744781e+02   2.7158511096e+01    0.2429912    0.1974728 -60.90 0.0004407567    1.220    0.181
