#   1 NUMBER                 Running object number                                     
#   2 MAG_AUTO               Kron-like elliptical aperture magnitude                    [mag]
#   3 X_IMAGE                Object position along x                                    [pixel]
#   4 Y_IMAGE                Object position along y                                    [pixel]
#   5 X_WORLD                Barycenter position along world x axis                     [deg]
#   6 Y_WORLD                Barycenter position along world y axis                     [deg]
#   7 A_WORLD                Profile RMS along major axis (world units)                 [deg]
#   8 B_WORLD                Profile RMS along minor axis (world units)                 [deg]
#   9 THETA_WORLD            Position angle (CCW/world-x)                               [deg]
#  10 FWHM_WORLD             FWHM assuming a gaussian core                              [deg]
#  11 ELONGATION             A_IMAGE/B_IMAGE                                           
#  12 ELLIPTICITY            1 - B_IMAGE/A_IMAGE                                       
         1 -16.3819    236.5849     95.4023   7.0817794695e+01   1.3189961057e+01     4.390935     2.452442 -30.64   0.02008603    1.684    0.406
         2 -12.4330     21.4494     99.1444   1.2533623467e+02   5.2715032594e+01     0.921171    0.3394599 -82.05  0.003495891    3.668    0.727
         3 -10.9617     94.5383     68.8355   9.4875054628e+01   5.0238642360e+01     0.532771    0.1348706 -46.12  0.001591474    3.853    0.740
         4 -11.7074     83.1013    128.5384   1.1286546665e+02   3.9049250986e+01    0.8626034     0.213646 -57.55  0.002765391    3.770    0.735
         5 -10.6059    162.7552    224.9644   1.1053898185e+02   7.2213323868e+00     0.216068     0.170446   0.53  0.001383186    1.635    0.388
         6 -10.7297    149.0076    223.3166   1.1287651825e+02   9.7225755290e+00    0.2252165    0.1488652  88.25  0.001170989    2.663    0.624
         7  -9.8370    114.6745    223.3571   1.1931757217e+02   1.5161476123e+01    0.1258263   0.07712109  66.48 0.0007044867    1.775    0.437
         8  -9.5694    126.3066    220.6875   1.1682163331e+02   1.3793058172e+01    0.1224221   0.08057384  64.98 0.0003687513    1.620    0.383
         9 -10.3258     74.3376    219.6661   1.2645591980e+02   2.1560352198e+01    0.1239535   0.06723972  65.18 0.0007051884    1.745    0.427
        10  -9.8448    183.3509    223.6608   1.0657314780e+02   3.9997176784e+00    0.1192488   0.08873564  63.96 0.0007044543    1.796    0.443
        11 -10.5089     76.4958    213.5131   1.2550601271e+02   2.2371642359e+01    0.1181992   0.09037057  64.42  0.000120611    1.040    0.039
        12 -10.6870    116.6205    210.4702   1.1745502891e+02   1.7043336884e+01    0.2462237    0.1662955  73.71  0.001423929    1.693    0.409
        13  -9.8901    148.4753    209.9818   1.1117407996e+02   1.1902950948e+01    0.1624931       0.1084 -86.51 0.0008099269    2.545    0.607
        14 -10.1488     99.3044    205.9714   1.2032908177e+02   2.0505529098e+01    0.1852503   0.09051491 -88.31 0.0007037731    4.186    0.761
        15 -11.1186    186.1235    204.6788   1.0313420529e+02   6.2066874649e+00    0.1971518    0.1839444 -63.94  0.001315928    1.403    0.287
        16 -11.9902    164.9320    202.0691   1.0679187146e+02   1.0331114844e+01      0.54186    0.2622954 -51.51  0.002553099    2.616    0.618
        17 -11.6933    162.8748    194.2836   1.0596128953e+02   1.1961549197e+01    0.3180306    0.2536512 -88.91  0.001430639    1.739    0.425
        18 -10.8457    149.2888    198.2348   1.0929940392e+02   1.3709404047e+01    0.2914079    0.1976411 -82.82  0.001460899    2.378    0.580
        19 -10.9123     88.6901    198.7216   1.2163270939e+02   2.3413687392e+01    0.2448717    0.1328161  87.20  0.001175194    2.557    0.609
        20 -11.0401    177.8382    198.1166   1.0364487382e+02   8.6618421882e+00    0.2009981    0.1702816  56.51  0.001205903    1.292    0.226
        21 -10.9082    124.2015    197.5649   1.1427780640e+02   1.8108142051e+01    0.2541258    0.1864072  73.76  0.001277735    1.520    0.342
        22 -10.5542    112.3894    197.2213   1.1664121445e+02   2.0091274725e+01    0.1706924    0.1153408 -78.80 0.0009447005    1.754    0.430
        23 -10.9254    186.6880    194.1206   1.0126228186e+02   7.6866867454e+00    0.1872897    0.1704163 -75.40 0.0009322314    1.468    0.319
        24 -10.2868     66.3815    194.2018   1.2565125672e+02   2.7337525642e+01    0.1675963   0.09823295 -87.32 0.0009379876    1.756    0.431
        25 -11.1508    173.0329    191.6530   1.0350681711e+02   1.0553537892e+01    0.2246281    0.1886023  82.45  0.001317844    1.589    0.371
        26 -10.6776    139.0096    189.0186   1.0998673680e+02   1.7126354318e+01    0.2967257    0.1970831 -64.59  0.001573227    1.850    0.459
        27 -10.3273    129.3888    188.1883   1.1186562526e+02   1.8949638659e+01    0.1770743    0.1233744 -72.19 0.0009522266    1.751    0.429
        28 -10.3288    165.4923    186.6367   1.0416441824e+02   1.2765016679e+01    0.2522068    0.1859144  89.78  0.001253249    2.159    0.537
        29 -11.4808    120.3136    184.4354   1.1322523087e+02   2.1199210809e+01    0.5462823    0.2211144 -65.05  0.002037077    3.735    0.732
        30 -10.9782     94.9705    186.4962   1.1888913950e+02   2.4849930469e+01     0.266151     0.149114 -85.56  0.001186093    2.426    0.588
        31 -10.2258    109.1940    185.7883   1.1578138422e+02   2.2769111089e+01    0.2248375    0.1231371  71.91 0.0009505367    2.812    0.644
        32 -10.7615    204.5960    184.8302   9.6192616141e+01   5.8283877391e+00    0.1728853    0.1245838 -47.12 0.0009476508    1.739    0.425
        33 -10.7451    174.5821    183.7982   1.0183982662e+02   1.1555147685e+01    0.2503137    0.2049175  80.31  0.001173004    1.659    0.397
        34 -11.3213    147.6190    180.0611   1.0674179312e+02   1.7208895825e+01    0.3582212    0.2108303 -53.90  0.001757695    1.960    0.490
        35 -10.5186    137.8580    178.6202   1.0857460919e+02   1.9247543542e+01    0.2124503     0.165471 -63.19  0.001196007    1.451    0.311
        36 -10.7955    192.8296    178.2966   9.7224343943e+01   9.0174087138e+00    0.2168973    0.1650471  54.49  0.001190894    1.456    0.313
        37 -11.5702     77.5829    175.9069   1.2131243701e+02   2.9514271910e+01    0.4184888    0.1806223  56.06  0.001850012    2.493    0.599
        38 -10.5988    183.0190    176.0175   9.8731879890e+01   1.1251233755e+01    0.2100796    0.1702276  77.50  0.001133749    1.716    0.417
        39 -10.4447     12.3985    175.6119   1.3495077545e+02   3.6883430668e+01     0.221658   0.07481736  86.46 0.0009582773    3.362    0.703
        40 -10.3031    105.5023    174.9895   1.1505240163e+02   2.5502228222e+01    0.1845835    0.1090196 -89.69 0.0008103142    2.542    0.607
        41 -10.3812    177.3626    171.3565   9.8993076155e+01   1.3124878466e+01     0.269991    0.2045656  83.08  0.001135814    2.050    0.512
        42  -9.9014    134.5013    171.0189   1.0803084930e+02   2.1305749715e+01    0.1900395    0.1196668 -81.35 0.0008104218    2.603    0.616
        43 -10.9819    121.2365    168.4250   1.1053573581e+02   2.4181914793e+01    0.4355238    0.2379751 -70.73  0.001857846    2.589    0.614
        44 -10.2944    168.1667    168.8893   1.0042168330e+02   1.5341183613e+01    0.2428834    0.1694861 -53.51  0.001141083    1.689    0.408
        45 -10.1290    149.5151    169.0367   1.0441297565e+02   1.8898375034e+01    0.1898131    0.1228684 -77.00 0.0008100363    2.578    0.612
        46 -10.3079     88.3861    168.1717   1.1790656459e+02   2.9568587676e+01     0.186696    0.1154598 -78.93 0.0009521598    1.790    0.441
        47  -9.7816    185.6737    167.3272   9.6530099494e+01   1.2188908115e+01    0.1353766    0.1114412  81.50 0.0007050025    1.699    0.411
        48  -9.8158    111.4899    166.9822   1.1249607904e+02   2.6145786224e+01    0.1905331    0.1142574 -86.47 0.0008105105    2.582    0.613
        49 -10.5168    192.5146    165.9732   9.4897456373e+01   1.1072567685e+01    0.2032871    0.1370485 -38.52  0.001031498    1.596    0.374
        50 -11.3777    139.0692    163.8031   1.0575404722e+02   2.1870866868e+01    0.5412351    0.2525014 -61.11  0.002057576    3.049    0.672
        51 -10.8754     79.4250    163.2363   1.1927266749e+02   3.1918142710e+01    0.4071619    0.1972032 -89.53  0.001489595    3.833    0.739
        52 -10.9417    213.4257    164.2226   9.0526185286e+01   7.2845899743e+00    0.1831885    0.1271614 -44.58 0.0009455235    1.688    0.407
        53 -10.0265    159.4793    163.5041   1.0123411176e+02   1.8014242895e+01    0.2436066    0.1356029 -57.66  0.001035074    2.357    0.576
        54 -11.4159    205.1295    162.6649   9.1773711211e+01   9.1355686582e+00    0.2355808    0.1909593 -40.91  0.001244911    1.382    0.276
        55 -10.8485    177.8719    160.0883   9.6678442479e+01   1.4985207924e+01     0.336396     0.201583 -52.21  0.001529066    2.040    0.510
        56 -10.2640    151.5486    160.2692   1.0233544063e+02   2.0171677581e+01     0.258829    0.1402168 -52.81  0.001129245    2.102    0.524
        57 -10.6659     92.4470    159.7649   1.1575498854e+02   3.0733057593e+01    0.2732689    0.1786051  88.03  0.001369015    1.851    0.460
        58 -11.5040    196.4943    157.1782   9.2315824486e+01   1.1740498787e+01    0.3466342    0.2672476 -52.55   0.00159903    1.585    0.369
        59 -10.4375    188.4931    157.5145   9.3980698779e+01   1.3295269067e+01    0.2424897    0.1329542 -50.38  0.001033418    2.274    0.560
        60 -10.7387    167.7246    156.7105   9.8127959436e+01   1.7633732674e+01    0.3803186     0.172309 -46.37  0.001525643    2.418    0.586
        61 -10.7539    105.0908    157.0748   1.1236521224e+02   2.9282269730e+01    0.3865076    0.2205664 -71.97  0.001750788    2.154    0.536
        62 -10.7963    119.1032    154.2941   1.0859491658e+02   2.7455645374e+01    0.3972967    0.1962479 -66.75  0.001536753    2.850    0.649
        63 -11.8814    204.8852    154.6658   9.0155153513e+01   1.0469098979e+01    0.2731544    0.2085146 -39.28  0.001154464    1.407    0.290
        64  -9.9927    157.4029    155.2331   1.0006282648e+02   1.9979868408e+01    0.1971261    0.1376607 -57.73 0.0009524412    1.682    0.406
        65 -10.9913     81.3530    153.8049   1.1748327816e+02   3.3678983851e+01    0.3729663    0.2117108 -84.87  0.001709718    2.258    0.557
        66 -10.6031     49.2206    153.9853   1.2511605766e+02   3.7782558463e+01    0.3783572    0.1745707 -85.82  0.001700138    2.570    0.611
        67 -10.6567    132.9277    151.9394   1.0493487342e+02   2.5401715692e+01    0.3899945    0.2031596 -58.24  0.001639227    2.239    0.553
        68 -10.5420     67.0380    152.7880   1.2075909136e+02   3.5872236882e+01    0.2432605    0.1519465 -86.60   0.00128263    1.692    0.409
        69 -11.4233    190.4172    150.0033   9.2007812090e+01   1.4195314823e+01    0.3279543    0.2914354 -79.60  0.001807634    1.448    0.309
        70 -10.0376    182.2992    150.6560   9.3804990661e+01   1.5755765818e+01    0.1407436    0.1162193 -87.19 0.0004169947    1.675    0.403
        71  -9.9250    162.4753    149.9950   9.7881727874e+01   1.9952494724e+01    0.2150955    0.1444207 -45.12  0.001028604    1.588    0.370
        72 -10.2809     98.3135    149.8433   1.1277254789e+02   3.1944630597e+01    0.2767029    0.1234176 -65.61   0.00109248    2.650    0.623
        73 -12.1397    200.5548    148.3069   8.9629359249e+01   1.2395930867e+01    0.3294527    0.2517229 -38.89  0.001391151    1.382    0.276
        74 -10.7306     38.6739    146.8431   1.2679439037e+02   4.0485272423e+01    0.2729186     0.124004  81.60  0.001160796    3.008    0.668
        75 -11.4580    148.6277    143.0124   9.9512377754e+01   2.4130155928e+01    0.6798584    0.3145651 -54.90  0.002551829    2.671    0.626
        76 -11.3792    106.7154    143.7267   1.0964424863e+02   3.1875141342e+01    0.6334011    0.3249756 -69.44   0.00252353    2.642    0.621
        77 -11.3614     55.3213    143.4336   1.2234694799e+02   3.9404224664e+01    0.6450199    0.2434212 -72.39  0.002648874    2.780    0.640
        78 -11.2179    124.4014    141.5813   1.0492000410e+02   2.9162053227e+01    0.6116819    0.2922511 -64.37   0.00219778    3.099    0.677
        79 -11.1563     87.7669    142.4165   1.1411231646e+02   3.5233498697e+01    0.4720735    0.1741769 -63.33  0.001757881    2.959    0.662
        80 -10.3391    165.5002    143.0516   9.5741538433e+01   2.0647120242e+01    0.2237198    0.1460855 -42.96  0.001039436    1.611    0.379
        81 -10.7835    182.1628    140.8685   9.1699132301e+01   1.7538493108e+01    0.3266231    0.2239263 -39.96   0.00157398    1.519    0.342
        82 -10.5311     68.4174    138.1187   1.1830128439e+02   3.8954129612e+01    0.3190853    0.1231603 -72.65  0.001148321    3.390    0.705
        83 -12.6827    198.0050    135.7190   8.7320792591e+01   1.5067237558e+01    0.6036197    0.2239872 -36.35   0.00215094    2.777    0.640
        84 -10.6617    172.1131    137.2119   9.3009236327e+01   2.0353217782e+01    0.3524456    0.1900435 -51.38  0.001428958    2.198    0.545
        85 -11.3396     22.3569    136.9369   1.2966565181e+02   4.4193330425e+01    0.4026444    0.1587839  80.26   0.00155607    3.893    0.743
        86 -10.7573    179.2891    132.7619   9.0458768643e+01   1.9634093016e+01    0.3345957    0.2060551 -43.88   0.00149567    1.704    0.413
        87 -10.3245    112.4947    132.5366   1.0602898060e+02   3.3296832984e+01    0.2636429    0.1366713 -64.48  0.001039022    2.419    0.587
        88 -10.6545    142.8830    130.4666   9.8111338884e+01   2.7844449685e+01    0.4195711    0.1910907 -54.31  0.001529559    2.631    0.620
        89 -11.0961    131.4413    129.1420   1.0057843562e+02   3.0434138646e+01    0.5751933    0.2459696 -55.66  0.002043701    2.806    0.644
        90 -12.0207    204.7431    130.0967   8.4711318408e+01   1.4579021913e+01    0.3207659    0.2618544 -59.66  0.001256412    1.521    0.343
        91 -10.7663    160.7613    239.6032   1.1280153173e+02   5.4920133579e+00    0.1752253   0.08666617  47.62 0.0009535519    1.686    0.407
        92 -11.4217      2.1024    114.2676   1.3253579501e+02   5.0645973595e+01    0.5627533    0.1065077 -78.70  0.001727018    5.741    0.826
        93 -11.8426     98.2950    125.4829   1.0825375105e+02   3.7326402675e+01     0.807476    0.2735193 -59.59  0.002653992    3.466    0.711
        94 -11.1999    185.8003    114.8685   8.4786460626e+01   2.1451528073e+01     0.353335     0.194513 -42.92  0.001453285    1.869    0.465
        95 -10.6810     72.7315    128.5134   1.1561021401e+02   4.0544605521e+01     0.289603    0.1560243 -75.79  0.001285348    2.181    0.541
        96 -12.0794    192.9875    114.0379   8.3127316972e+01   1.9961423504e+01    0.3946382    0.2311678 -35.62  0.001563175    1.711    0.416
        97 -11.5288    108.6239    111.7508   1.0247430415e+02   3.8559394172e+01     0.751779    0.2651573 -52.77  0.002574096    2.908    0.656
        98 -11.0033     11.9940    128.2668   1.3135518044e+02   4.6917319086e+01    0.2515522    0.1100777  79.12  0.001183453    2.671    0.626
        99 -11.3520     78.3811    110.9794   1.1072184986e+02   4.3733279680e+01    0.6419529    0.2906545 -70.65  0.002281063    3.312    0.698
       100 -11.6759     92.2219    109.3899   1.0645442292e+02   4.1939379243e+01    0.8610487    0.2424889 -53.74  0.002773123    3.414    0.707
       101 -10.7759    174.5856    110.4851   8.6033815263e+01   2.4824993012e+01    0.4235014    0.1480663 -38.80  0.001382444    2.890    0.654
       102 -11.2313    121.8969    110.3310   9.8598725966e+01   3.6332634743e+01    0.4649341     0.180607 -40.65  0.001583475    2.864    0.651
       103 -10.7625    159.1730    110.7762   8.9535016308e+01   2.8282163752e+01    0.3461321      0.10519 -46.00  0.001011406    3.584    0.721
       104 -11.1675     65.9242    109.0848   1.1391831685e+02   4.5891913097e+01    0.4504693    0.1823543 -67.40  0.001707691    2.860    0.650
       105 -11.3173     13.9577    109.3221   1.2882308682e+02   5.0974914474e+01    0.4105611    0.1800454 -78.14  0.002088318    1.980    0.495
       106 -10.7448    182.5969    108.2460   8.3767598208e+01   2.3386250841e+01    0.2991556    0.1423739 -41.18  0.001137726    2.118    0.528
       107 -11.5575    189.2671    106.9156   8.2066042972e+01   2.2076197710e+01    0.3837954    0.1986321 -38.57  0.001543035    1.923    0.480
       108 -11.8838     42.7650    120.9551   1.2246460624e+02   4.5870854672e+01     0.691282    0.2679582 -82.20  0.002354156    4.282    0.766
       109 -11.1940    179.9130    123.2819   8.8082926083e+01   2.1243794469e+01    0.4833736    0.2585379 -30.06  0.001921585    2.143    0.533
       110 -10.8107    166.5941    102.4859   8.5693004978e+01   2.8174408105e+01    0.4342621    0.1497997 -38.37  0.001390727    2.945    0.660
       111 -10.1907    145.3178    233.6409   1.1485032281e+02   8.7765481743e+00    0.1198752   0.08008321  65.27 0.0007043798    1.759    0.432
       112 -11.2467    149.8751    100.8962   8.9121519720e+01   3.2319771341e+01    0.6422184    0.1885338 -45.63  0.001870147    3.630    0.725
       113 -11.8018     44.2364    100.4496   1.1870652522e+02   5.0396771189e+01    0.5851695    0.3016822 -88.53  0.002426363    3.043    0.671
       114 -11.1597    128.2068    100.5904   9.4456165175e+01   3.7103653332e+01    0.4532041    0.2148847 -42.58   0.00174585    2.116    0.527
       115 -10.7877    175.5780    100.6780   8.3259593023e+01   2.6406532902e+01    0.3016356    0.1515842 -32.19  0.001140874    2.140    0.533
       116 -12.0263    107.8292     96.2037   9.8817566176e+01   4.2085753972e+01    0.7193723    0.2955648 -51.35   0.00263576    2.488    0.598
       117 -11.0255     95.0644     94.0268   1.0191827635e+02   4.4862162356e+01    0.6489888    0.2166356 -41.46  0.002078899    3.450    0.710
       118 -11.5596     63.0484     94.9151   1.1182798853e+02   4.9485274930e+01    0.5870175    0.2466514 -67.31  0.002210903    2.973    0.664
       119 -11.4503     81.5543     97.5585   1.0680205997e+02   4.6284988430e+01    0.5592974    0.1276376 -53.71  0.001658393    4.059    0.754
       120 -10.8932    139.4862    102.5576   9.2102391873e+01   3.4292387788e+01    0.5027634    0.1498508 -42.81  0.001517839    3.372    0.703
       121 -11.0056    138.5179     90.2736   8.8974450274e+01   3.6967812294e+01    0.4731351    0.1479291 -42.37   0.00145979    3.182    0.686
       122 -11.4000    124.4610     88.0438   9.1992036378e+01   4.0466866342e+01    0.6749963     0.300955 -34.66  0.002388873    2.625    0.619
       123 -11.7978      4.8797     88.4303   1.2885460612e+02   5.6178211196e+01    0.5236409   0.07976133 -60.41  0.002041846    3.402    0.706
       124 -11.1547     34.5384     87.0283   1.1924059406e+02   5.4367465688e+01    0.6601928    0.1569897 -61.21  0.002450957    3.160    0.684
       125 -10.2336    151.0000     87.9599   8.5263139960e+01   3.4565651420e+01    0.2592359   0.08773826 -38.80  0.000806577    2.971    0.663
       126 -11.1513     86.0009     86.4913   1.0265998537e+02   4.8021249194e+01    0.3279195      0.20784 -69.44  0.001463173    2.078    0.519
       127 -10.8321    117.1942    124.0362   1.0302173170e+02   3.4282667574e+01    0.4541074    0.2348763 -63.40  0.001739375    2.539    0.606
       128 -11.3150     47.7160     83.1501   1.1411969435e+02   5.3936315686e+01    0.3903984    0.1817451 -73.63  0.001549717    3.023    0.669
       129 -11.6286    104.1470     80.3226   9.5457940172e+01   4.6124966729e+01      0.69131    0.2250155 -42.53  0.002286889    3.027    0.670
       130 -11.3093     58.4387    122.6112   1.1845804898e+02   4.3739440058e+01    0.6002336     0.264811 -83.13  0.001996081    4.353    0.770
       131 -10.6467    192.9846    129.2284   8.6812159036e+01   1.7282859585e+01    0.2734708    0.2147002 -31.91  0.001391305    1.290    0.225
       132 -11.3943     27.5185    121.2742   1.2660352847e+02   4.7238736012e+01    0.5637028    0.2354153  80.36   0.00202834    4.427    0.774
       133 -10.8201    168.4608    128.4509   9.1786025756e+01   2.2800851427e+01    0.4036917    0.1853761 -41.96  0.001545513    2.243    0.554
       134 -10.5109    172.5384    120.2301   8.8918992496e+01   2.3460989705e+01    0.3664854    0.1504663 -37.77  0.001295779    2.542    0.607
       135 -11.0876     24.5939     74.4074   1.2010298781e+02   5.7998038108e+01    0.2942823   0.08506112 -47.08  0.001185864    3.017    0.669
       136 -10.9903    127.9706     72.2665   8.6330307297e+01   4.2791798780e+01    0.6231883    0.2462839 -31.22  0.001993171    3.219    0.689
       137 -10.5348    158.2513    119.9076   9.2030789599e+01   2.6695945901e+01    0.3822133    0.2064673 -43.95   0.00156504    1.898    0.473
       138 -11.5432     81.8929     71.8242   9.9818968212e+01   5.1801341914e+01    0.4388231    0.1921647 -55.00  0.001695798    2.545    0.607
       139 -11.1732    140.5710     81.7012   8.5972620703e+01   3.8165443824e+01    0.3096066    0.1504782 -34.27  0.001155522    2.192    0.544
       140 -10.4684     84.4711    227.5010   1.2529413734e+02   1.8842036052e+01    0.1154116   0.08711864  60.91 0.0002508846    1.028    0.027
       141 -11.2439     50.8536     67.2902   1.0913385695e+02   5.7052421071e+01    0.5889769    0.1681443 -59.65  0.001910095    4.083    0.755
       142 -10.3117    149.7725     78.9920   8.2933204551e+01   3.6528173241e+01    0.2137259    0.1272765 -36.81 0.0008876358    1.690    0.408
       143 -11.5513    141.3872    116.7245   9.5242221315e+01   3.0983488410e+01    0.7725201    0.2701698 -46.77  0.002554936    2.946    0.661
       144 -10.4286    138.5636     64.7221   8.1224103026e+01   4.1737739792e+01    0.3009162    0.1505296 -31.15  0.001152754    2.134    0.531
       145 -10.1870    121.3368     63.8091   8.5400171180e+01   4.5815440016e+01    0.3915424    0.1376432 -29.78  0.001098126    4.246    0.764
       146 -10.0871    119.2008     78.2041   9.0531146396e+01   4.3541296627e+01     0.341641    0.1145892 -36.15   0.00102901    3.503    0.715
       147 -11.0934    188.6579    122.9375   8.6186202986e+01   1.9355895829e+01    0.3545331    0.1741045 -43.09  0.001360702    2.118    0.528
       148 -11.0801    109.8870     61.2245   8.7766473863e+01   4.8720530174e+01    0.3851393    0.1929288 -24.89  0.001395428    2.776    0.640
       149 -10.5853     73.0116     58.0722   9.8503815605e+01   5.5982742580e+01    0.5794415    0.1447685 -49.93  0.001750009    4.255    0.765
       150 -10.7337    100.4347     55.7090   8.8705597633e+01   5.1628604130e+01    0.5417069    0.2149003 -31.83   0.00187702    3.006    0.667
       151 -10.6346     70.6274    118.0253   1.1429731693e+02   4.3222194550e+01    0.3295401    0.1178209 -59.76  0.001276681    2.566    0.610
       152 -11.4599     62.7261     69.2103   1.0549098048e+02   5.5173259316e+01     0.614107   0.07500407 -50.04  0.001562557    5.905    0.831
       153 -10.8316    152.6614    127.3059   9.5088255736e+01   2.6436141970e+01    0.5364997    0.1752033 -46.73  0.001712713    3.245    0.692
       154 -10.1443     84.0498     40.4361   8.8395673839e+01   5.7380596554e+01    0.1912921    0.1102903  19.66 0.0004840473    2.420    0.587
