#   1 NUMBER                 Running object number                                     
#   2 MAG_AUTO               Kron-like elliptical aperture magnitude                    [mag]
#   3 X_IMAGE                Object position along x                                    [pixel]
#   4 Y_IMAGE                Object position along y                                    [pixel]
#   5 X_WORLD                Barycenter position along world x axis                     [deg]
#   6 Y_WORLD                Barycenter position along world y axis                     [deg]
#   7 A_WORLD                Profile RMS along major axis (world units)                 [deg]
#   8 B_WORLD                Profile RMS along minor axis (world units)                 [deg]
#   9 THETA_WORLD            Position angle (CCW/world-x)                               [deg]
#  10 FWHM_WORLD             FWHM assuming a gaussian core                              [deg]
#  11 ELONGATION             A_IMAGE/B_IMAGE                                           
#  12 ELLIPTICITY            1 - B_IMAGE/A_IMAGE                                       
         1 -12.8566    183.2690     24.7199   7.3049918865e+01   3.5926784721e+01     1.229864    0.9867526  -9.53   0.00577862    1.374    0.272
         2 -12.4996    191.7220     10.9030   6.7807360523e+01   3.5207655634e+01     1.086958    0.7871602  24.46   0.00355574    1.660    0.398
         3  -8.2547    128.0000     35.0017   8.6727814406e+01   4.8530706367e+01    0.2364129   0.08057019 -28.53 0.0008027261    2.944    0.660
         4 -10.5332    163.1912    248.8445   1.2774121697e+02   3.9072559020e+00    0.2945056    0.2761257  30.06  0.002360429    1.233    0.189
         5 -11.5719     94.8445    249.7198   1.3919239167e+02   1.3978622555e+01    0.6896192    0.5556753 -89.22  0.003639163    1.319    0.242
         6 -10.9266     99.5281    243.4668   1.3786574977e+02   1.4275066429e+01    0.3177832    0.2135355  83.42 0.0007200958    1.603    0.376
         7  -9.6716     63.7997    250.5945   1.4420509993e+02   1.7919927492e+01    0.2521554    0.1191402  39.76 0.0003707918    2.030    0.507
         8  -9.0424     67.4239    247.4534   1.4341499518e+02   1.7956778934e+01    0.1818352    0.1302498  80.34 0.0005117697    1.231    0.188
         9  -9.3948     67.9444    243.7708   1.4306326874e+02   1.8473350832e+01    0.3127241     0.147736  50.89  0.001274663    1.613    0.380
        10 -19.3104     18.1100    126.7899   1.4207276679e+02   4.6849503260e+01     16.98666     1.277796 -70.39   0.03479731   12.210    0.918
        11  -8.9877    109.3417    246.2026   1.3648833089e+02   1.2454579712e+01    0.1688542    0.1276436  83.97 0.0004304322    1.397    0.284
        12 -10.9745    103.1392    242.1914   1.3714276519e+02   1.3956661775e+01    0.4167464    0.2610358 -66.70   0.00047155    1.861    0.463
        13  -8.6637     63.7921    230.0677   1.4270123388e+02   2.1251491391e+01    0.1870823    0.1681571  21.70  0.001453645    1.772    0.436
        14  -7.5488     54.0000    229.9633   1.4432334761e+02   2.2476975496e+01    0.1559093   0.05348195 -70.91 0.0008024506    2.943    0.660
        15 -10.5604    153.6181    227.9194   1.2674679486e+02   8.3109976217e+00    0.4547825    0.1357036  37.69  0.001722768    3.466    0.711
        16 -11.0203    163.4350    224.8566   1.2457747287e+02   7.1320797148e+00    0.4228624    0.3056317 -25.02  0.002619355    1.868    0.465
        17  -8.2589    115.4474    215.4928   1.3211448276e+02   1.6436046556e+01    0.1194831    0.1000824  57.88 9.242174e-05    1.027    0.027
        18  -8.6746     93.5950    206.1898   1.3511411454e+02   2.1397753169e+01    0.1565789    0.1062291 -54.22 0.0009540555    1.734    0.423
        19  -7.7431    164.2302    202.9521   1.2117853437e+02   1.0314329494e+01    0.1503363    0.1082838 -46.41 0.0008689724    1.613    0.380
        20  -8.4470    192.0053    192.5250   1.1418563549e+02   6.9056612149e+00    0.2507491    0.1705517 -81.16  0.001047725    3.631    0.725
        21 -10.2991     82.8522    188.0608   1.3508967559e+02   2.6393929126e+01    0.3894335    0.2206891 -48.04  0.002055439    2.247    0.555
        22 -10.1236     86.2163    181.9942   1.3365118915e+02   2.7111881468e+01    0.2714421    0.2276353 -62.37 0.0009042897    1.298    0.230
        23 -10.6841    126.3855    243.6444   1.3336502501e+02   1.0307461464e+01    0.2677589    0.2530642 -38.07  0.002130077    1.451    0.311
        24 -10.7661    103.0778    171.6586   1.2865017564e+02   2.6610447535e+01    0.6714712    0.2883497  51.36  0.002885564    2.367    0.577
        25 -10.1306     92.9863    170.9423   1.3071490664e+02   2.8342952842e+01    0.2959033     0.268249 -68.34 0.0004240596    1.180    0.153
        26 -10.9186     98.3195    162.9277   1.2833305934e+02   2.9172761249e+01    0.6813077    0.3948889 -40.49  0.002605071    2.306    0.566
        27 -11.7944     81.8269    167.0975   1.3258366850e+02   3.0802920466e+01      0.47881    0.3079322 -41.47  0.001498986    2.098    0.523
        28 -12.0453     66.7171    142.2079   1.3237362239e+02   3.8269135701e+01     1.418168    0.7333204  81.05  0.005520971    3.474    0.712
        29  -8.4208    110.0000    142.9742   1.2214903100e+02   3.1457689432e+01    0.3028532    0.1335113 -44.56  0.001195612    2.494    0.599
        30 -10.8313     97.2488    146.5518   1.2582531155e+02   3.2831361206e+01     0.262802    0.2617976  80.16 0.0005569686    1.166    0.142
        31  -8.9594    115.3535    134.0085   1.1905981678e+02   3.2425120382e+01    0.2874067    0.2070671 -33.76 0.0008714868    1.641    0.391
        32  -9.5582    103.8089    130.8745   1.2122735366e+02   3.5150149736e+01    0.3166752    0.2549683  25.52 0.0007184005    1.484    0.326
        33  -8.4048    110.7585    121.9401   1.1756002306e+02   3.5865586521e+01    0.1972004    0.1830584 -67.15 0.0004306475    1.039    0.037
        34  -9.0082    164.0000    119.0221   1.0425599560e+02   2.5544818299e+01    0.4216896   0.08576732 -40.34   0.00105024    4.924    0.797
        35  -8.2976    168.7471    113.5503   1.0183427197e+02   2.5520463407e+01    0.2603607    0.1866193 -61.70  0.000978275    1.751    0.429
        36 -11.0651    163.5749     50.2207   8.4415323982e+01   3.7695368415e+01    0.6274096    0.2962095 -27.34  0.002412581    2.201    0.546
        37 -11.5339    170.9619     39.6904   7.9684132898e+01   3.7272546530e+01    0.4927213    0.4037931  85.81  0.002536272    1.355    0.262
        38 -11.9213    174.2809     32.4680   7.6832689876e+01   3.7335513091e+01    0.6624476    0.5297353  89.14  0.002337404    1.384    0.278
        39  -9.7738     80.5435    247.0270   1.4128520503e+02   1.6326677956e+01    0.4175612     0.199166  73.60  0.002269943    2.658    0.624
        40  -9.8747     81.9972    241.5696   1.4060480336e+02   1.6990140133e+01    0.3872984    0.1857141  68.03  0.001902034    2.320    0.569
