#   1 NUMBER                 Running object number                                     
#   2 MAG_AUTO               Kron-like elliptical aperture magnitude                    [mag]
#   3 X_IMAGE                Object position along x                                    [pixel]
#   4 Y_IMAGE                Object position along y                                    [pixel]
#   5 X_WORLD                Barycenter position along world x axis                     [deg]
#   6 Y_WORLD                Barycenter position along world y axis                     [deg]
#   7 A_WORLD                Profile RMS along major axis (world units)                 [deg]
#   8 B_WORLD                Profile RMS along minor axis (world units)                 [deg]
#   9 THETA_WORLD            Position angle (CCW/world-x)                               [deg]
#  10 FWHM_WORLD             FWHM assuming a gaussian core                              [deg]
#  11 ELONGATION             A_IMAGE/B_IMAGE                                           
#  12 ELLIPTICITY            1 - B_IMAGE/A_IMAGE                                       
         1 -10.8373      2.1629     41.9837   1.0081090749e+02   6.7756359230e+01      1.15294    0.1251733 -60.79  0.002798513    9.579    0.896
         2 -10.8516      2.0860     26.4336   9.5803885727e+01   7.0618059494e+01    0.8574287    0.1762696 -57.19  0.002901688    5.553    0.820
         3  -9.9515      2.2007      4.3504   8.6394600837e+01   7.4117468146e+01    0.5808992    0.1163894 -43.40  0.002421296    3.989    0.749
         4 -12.3083    220.5989     32.9481   3.7721081393e+01   2.7028843254e+01     1.115264    0.8171664  38.74  0.006370787    2.066    0.516
         5 -11.6182    239.8344     15.8187   3.2513704423e+01   2.5095215133e+01    0.6757059    0.4626826 -61.70  0.002706103    1.160    0.138
         6  -8.0375     32.7010      2.3221   6.8517834449e+01   7.0914963371e+01   0.09365161   0.09174307 -26.10 0.0003399898    1.625    0.385
         7  -9.8952     50.1862    250.4981   1.1570519182e+02   1.5419533883e+01    0.7114978    0.1809744  31.59  0.002480371    4.568    0.781
         8 -10.1583    183.1451    246.8863   8.8494826729e+01  -3.1077505308e+00    0.3245507    0.3062395  65.02  0.002053085    1.447    0.309
         9  -9.6829     67.7313    241.0833   1.1145145783e+02   1.5008287734e+01     0.294818    0.2680112  83.51  0.002055238    1.198    0.165
        10 -10.9120     34.1899    249.4269   1.1868746140e+02   1.7545970097e+01      1.19988    0.3468388  30.32  0.004699518    4.166    0.760
        11  -9.2725     28.6448    244.2098   1.1941424526e+02   1.9205090487e+01     0.319692    0.1720113 -84.16  0.001355835    1.757    0.431
        12 -10.3091     50.3273    245.3609   1.1529771344e+02   1.6407654592e+01    0.5134785    0.3108516  18.95  0.002690509    2.570    0.611
        13 -12.3074     82.9681    243.3473   1.0853487810e+02   1.2465282291e+01     1.141227    0.9493136 -82.44  0.007556153    1.280    0.219
        14 -11.1777     58.6500    244.1669   1.1355259363e+02   1.5589060313e+01    0.6646967    0.3593485 -88.52  0.001883374    2.049    0.512
        15 -13.5931      2.9443    133.8738   1.1666871112e+02   4.6921085106e+01     7.522208    0.8922428 -75.30    0.0163139    9.222    0.892
        16 -11.2946     23.1326    205.5128   1.1792518670e+02   2.8043666845e+01    0.4585532    0.3709785 -49.09 0.0009059338    1.614    0.380
        17 -13.8005     32.6965    192.7829   1.1472476017e+02   2.9962895905e+01     4.116708     1.822805  72.00   0.01707304    2.771    0.639
        18  -9.4095    116.8704    235.3298   1.0050270931e+02   9.0035780636e+00    0.2210881     0.145018  50.79  0.001200419    1.412    0.292
        19 -10.6137     76.7054    220.8414   1.0753935759e+02   1.7976064834e+01    0.6528678    0.2050115  51.39  0.002293639    3.458    0.711
        20  -8.5496     58.9186    229.9207   1.1228002150e+02   1.8463439611e+01    0.2091663    0.1217612  64.86 0.0009483999    1.638    0.390
        21 -10.8794     85.4839    222.3402   1.0576486579e+02   1.6388640153e+01    0.5692849      0.37033  83.92 0.0006871202    1.781    0.438
        22  -9.7984    127.9994    231.0231   9.7556007662e+01   8.0904400905e+00     0.334705    0.1735031 -50.12   0.00160843    2.174    0.540
        23  -9.3009     43.5179    217.9871   1.1451499806e+02   2.2965866292e+01    0.3350813    0.1699981  46.33 0.0003511366    1.701    0.412
        24  -8.8618     77.2071    226.1991   1.0800393674e+02   1.6762349530e+01    0.1825943     0.130041  67.37 0.0005865608    1.330    0.248
        25 -12.0176      4.2374    243.3757   1.2388881436e+02   2.1936878025e+01     1.215423     0.712751  86.73  0.008064071    1.423    0.297
        26 -10.2082    156.7304    229.0463   9.1163012533e+01   3.8815303730e+00    0.4064098    0.2877352  12.21  0.001817925    1.626    0.385
        27 -10.2157     53.6980    178.4939   1.0808570464e+02   3.0929146742e+01    0.4379084    0.3047565 -33.08  0.001800332    2.037    0.509
        28 -10.2080     59.8417    172.8270   1.0577339060e+02   3.1530765408e+01    0.3739763    0.2811873 -42.87 0.0006805165    1.574    0.365
        29 -11.1634    113.7447    229.9580   1.0049316287e+02   1.0534985668e+01    0.4649471    0.3584918  14.25   0.00262243    1.593    0.372
        30  -9.3525     93.9958    169.0189   9.6208829285e+01   2.7384227567e+01    0.4519973    0.2467512  70.71  0.001576335    3.151    0.683
        31  -9.6162     83.2694    163.4350   9.8117822115e+01   3.0487507663e+01    0.4623128    0.2445386 -66.25  0.001931342    1.935    0.483
        32 -10.8679     78.8383    156.7279   9.8187442831e+01   3.2852187932e+01    0.7408241    0.6116284  19.64  0.002463604    1.432    0.302
        33  -9.6604     70.8414    163.0318   1.0141664963e+02   3.2455920402e+01    0.3145463     0.274247 -33.10 0.0004260892    1.366    0.268
        34 -11.4988     57.2173    159.4381   1.0459348486e+02   3.5227338245e+01    0.5326251    0.3191859 -42.38  0.001325515    2.000    0.500
        35 -10.1909     34.2095    158.8544   1.1079028369e+02   3.8071063764e+01    0.6217059     0.322383  69.96  0.002345828    2.355    0.575
        36 -11.0707     70.2006    145.6123   9.8685434678e+01   3.6947858188e+01    0.4900916    0.4740406  69.10  0.001691379    1.085    0.078
        37 -10.7553     67.7742    142.5857   9.8850744484e+01   3.8063430723e+01    0.5222349    0.3550577  49.53  0.001479418    1.545    0.353
        38  -9.0849     22.2086    156.1805   1.1370940986e+02   3.9914729609e+01    0.1898663    0.1342394  75.08 0.0007440038    1.357    0.263
        39  -9.1149     94.3891    143.0861   9.1262160354e+01   3.3742443245e+01    0.3553628    0.2316951 -44.72  0.001028902    1.597    0.374
        40 -10.4034     82.0843    141.2000   9.4412580581e+01   3.6253863364e+01    0.3489786     0.285127 -56.96 0.0004931122    1.172    0.147
        41 -10.2866     58.7275    134.8178   1.0014896288e+02   4.1272218955e+01    0.5350772    0.2460045 -76.87  0.001877119    3.031    0.670
        42  -9.1444    106.7267    131.2239   8.5209009790e+01   3.4433664217e+01    0.3451815     0.291654  31.85  0.001183778    1.262    0.207
        43  -9.1593     93.8969    127.6511   8.8096083675e+01   3.7640463096e+01    0.2771086    0.2329082 -49.50 0.0003906043    1.162    0.139
        44  -9.4742     65.0265    126.3353   9.6593871724e+01   4.2552136805e+01    0.3617244    0.2560614  71.53  0.001715032    1.756    0.430
        45  -7.9094    114.6631    125.6951   8.1698420483e+01   3.4227668135e+01    0.1572483    0.1247897  -8.60 0.0005963314    1.671    0.402
        46  -7.8805    104.9370    119.7281   8.3010829243e+01   3.7526839393e+01    0.2055179    0.1925253  46.93 0.0003285563    1.092    0.084
        47  -9.2805     13.2300    127.8512   1.1295583333e+02   4.7686711130e+01    0.2371234    0.1628327  45.27  0.001014619    1.613    0.380
        48 -11.4264    101.7774    229.1966   1.0299730428e+02   1.2528698597e+01    0.7369699    0.2575488  33.55  0.002832768    2.822    0.646
        49 -11.9480     10.7260    232.0494   1.2212935538e+02   2.3574721907e+01    0.8373676    0.4429397 -88.91  0.003229345    1.647    0.393
        50 -10.1978     15.1574    248.8404   1.2217634549e+02   1.9759212765e+01    0.3268117    0.2341196  57.43  0.001069278    1.123    0.109
        51  -8.5277     53.4874     93.4777   9.3113561252e+01   5.2067393490e+01     0.139002    0.1270503 -44.35 5.931382e-05    1.011    0.011
        52  -8.2953    163.0036     83.4980   5.8784642643e+01   3.2516410311e+01    0.2074952     0.124038  32.99 0.0008086669    2.403    0.584
        53  -9.3671     13.0276     60.2638   1.0074194331e+02   6.3404712357e+01    0.1690331    0.1404058 -31.97 0.0005896718    1.063    0.059
        54  -9.9215    174.9756    244.4895   8.9746765335e+01  -1.5376433222e+00    0.3601608     0.246439   7.31  0.002047682    1.645    0.392
        55 -10.8399    113.3539    239.1145   1.0171633111e+02   8.8193191096e+00    0.5355924    0.2850609  66.17  0.002087935    2.934    0.659
        56  -9.9152     21.9119    245.0568   1.2073149614e+02   1.9780250099e+01    0.3714767     0.182823  39.89  0.002172243    1.773    0.436
        57 -13.2465      8.2228    209.2898   1.2133723388e+02   2.8673260554e+01     2.166454    0.9486811 -74.57  0.009459266    1.981    0.495
        58 -11.0621    209.1936     40.8097   4.0700370336e+01   2.8504967421e+01     0.405405     0.341172  61.77   0.00251953    1.333    0.250
        59 -11.3428     69.9091    246.6914   1.1150698635e+02   1.3609661183e+01    0.7649432    0.4291786  31.37  0.004132514    1.848    0.459
        60  -9.6851    102.1982    238.4841   1.0399933326e+02   1.0622425366e+01     0.222233    0.1821617 -68.72  0.001036366    1.365    0.267
