#   1 NUMBER                 Running object number                                     
#   2 MAG_AUTO               Kron-like elliptical aperture magnitude                    [mag]
#   3 X_IMAGE                Object position along x                                    [pixel]
#   4 Y_IMAGE                Object position along y                                    [pixel]
#   5 X_WORLD                Barycenter position along world x axis                     [deg]
#   6 Y_WORLD                Barycenter position along world y axis                     [deg]
#   7 A_WORLD                Profile RMS along major axis (world units)                 [deg]
#   8 B_WORLD                Profile RMS along minor axis (world units)                 [deg]
#   9 THETA_WORLD            Position angle (CCW/world-x)                               [deg]
#  10 FWHM_WORLD             FWHM assuming a gaussian core                              [deg]
#  11 ELONGATION             A_IMAGE/B_IMAGE                                           
#  12 ELLIPTICITY            1 - B_IMAGE/A_IMAGE                                       
         1 -11.6439     42.4707     21.3140   7.9081833425e+01   6.7038050206e+01    0.4809296    0.3897461  51.99  0.001484004    1.920    0.479
         2 -10.6054     46.3450     17.8039   7.5757181709e+01   6.6989705361e+01    0.3934572    0.1579546 -28.31  0.001785506    2.466    0.595
         3 -12.1626    216.4031     13.9331   3.8113931737e+01   2.9578717296e+01    0.3944612    0.3724447  52.47    0.0015109    1.290    0.225
         4 -10.5128     65.7502     11.1542   6.5046145093e+01   6.4653816454e+01    0.2469738    0.1536868  46.41  0.001390661    1.598    0.374
         5 -11.9921    190.8100      9.3607   3.9478723512e+01   3.6142855907e+01    0.2698542    0.2226131 -84.51  0.001645818    1.094    0.086
         6 -12.2686    184.7946      5.2664   3.9018670316e+01   3.8005475613e+01     0.527397    0.3466133   3.32  0.002698316    2.227    0.551
         7 -11.7703     43.5944      8.2392   7.2202301862e+01   6.8612301221e+01    0.2703308    0.2074962  25.21 0.0006542027    1.246    0.198
         8 -10.2677    109.4921      8.5178   5.1685442596e+01   5.5925862405e+01    0.1307442    0.1165948  41.11 0.0001108551    1.025    0.024
         9 -11.5227     57.9969      7.2040   6.5919205001e+01   6.6435515563e+01      0.45213    0.2700394  35.40  0.002498323    1.506    0.336
        10 -10.6827    165.1993      1.6073   4.0200757117e+01   4.3134455909e+01    0.2001193    0.1006735  60.22 0.0009572512    1.734    0.423
        11 -10.8821     12.5098    227.4795   1.2600105526e+02   2.5047971577e+01     0.282933    0.1404239 -89.36 0.0006187417    1.704    0.413
        12 -10.4431     72.1360    228.0383   1.1503148995e+02   1.7936497141e+01    0.1838918    0.1461456  68.67 0.0004981643    1.037    0.036
        13 -10.0551    104.4683    225.4093   1.0835540525e+02   1.3778966975e+01    0.2329944    0.1228745 -62.36  0.001190836    2.106    0.525
        14 -10.8055     95.9192    225.2471   1.1005279826e+02   1.5096871144e+01    0.3112131    0.1299676  52.87  0.001382946    2.353    0.575
        15  -9.7978    174.0000    222.0345   9.3884894983e+01   3.0938109223e+00    0.1964113   0.07401211 -45.00 0.0008095878    2.992    0.666
        16  -9.5686     36.3204    222.6847   1.2141236570e+02   2.3461993897e+01    0.1245702   0.06588718  66.09 0.0007040214    1.657    0.396
        17 -10.5816    226.4913    221.0833   8.3807088707e+01  -5.1136947080e+00    0.1767113    0.1124658 -31.23  0.001029737    1.585    0.369
        18 -10.7691    149.5558    221.1278   9.8636381489e+01   7.3186492933e+00    0.4966688    0.1987882 -41.54  0.002048083    3.119    0.679
        19 -10.2303    237.6464    219.3120   8.1523174127e+01  -6.5149573909e+00    0.1045873   0.09927208  61.49 0.0003956202    1.729    0.422
        20 -10.3266    211.2482    217.9391   8.6042667455e+01  -2.3252182859e+00    0.2398051     0.169714 -45.44  0.001322963    1.758    0.431
        21 -10.8820    239.6693    215.8012   8.0545944835e+01  -6.3377679300e+00    0.2885831   0.09596951 -43.51  0.001095406    4.151    0.759
        22 -10.2017    230.2776    213.6457   8.1812758423e+01  -4.6497672268e+00    0.1070812    0.1008908 -59.01 0.0007009259    1.650    0.394
        23 -10.8456    221.4947    214.0000   8.3460409515e+01  -3.3548803229e+00    0.2740377   0.06489106  39.81 0.0009390906    3.970    0.748
        24  -9.9656    236.6930    209.9133   8.0000397519e+01  -5.0919792742e+00    0.1764544    0.1398322 -11.32 0.0009178569    1.111    0.100
        25 -10.4393    116.1193    209.0126   1.0383464632e+02   1.5138954013e+01    0.3596562    0.1505449 -57.23  0.001534599    2.600    0.615
        26 -10.4885     48.8195    200.8343   1.1715626772e+02   2.6545296739e+01    0.3659863    0.1499908 -78.83  0.001637032    2.547    0.607
        27 -10.4952    149.3114    198.4658   9.5089196873e+01   1.1549663823e+01    0.2343957    0.1742169 -78.19  0.001188937    1.839    0.456
        28 -10.0738      2.2450    199.4230   1.2632916986e+02   3.1672097633e+01     0.152917   0.08050567  51.18 0.0009469552    1.666    0.400
        29 -10.0418     98.5172    205.0332   1.0706340529e+02   1.8752301526e+01      0.18708    0.1076534  87.37 0.0008101028    2.562    0.610
        30 -12.1192    159.4447    191.4061   9.1680618509e+01   1.1091347050e+01    0.7206189    0.5051628  89.03  0.002828602    2.505    0.601
        31  -9.8722    215.3103    193.7831   8.0856758771e+01   7.2577085837e-01    0.2648268    0.1121349 -44.93  0.001087856    2.713    0.631
        32 -10.4949     34.3870    187.2066   1.1894786805e+02   3.1204157030e+01    0.1833076   0.09757355 -88.14 0.0009538007    1.755    0.430
        33  -9.5597    223.6696    183.6818   7.7322938971e+01   9.3427493997e-01    0.1410209   0.09546227   1.93 0.0004630654    1.687    0.407
        34 -10.4703    183.1333    183.1036   8.5116753445e+01   8.2914103732e+00    0.3399778    0.2017818 -41.31  0.001597302    1.726    0.421
        35  -9.6754    105.3309    174.6641   1.0103218636e+02   2.4292597055e+01    0.1513137    0.1049973  74.38 0.0007052136    1.732    0.423
        36 -10.1951     38.5289    174.5357   1.1679804367e+02   3.3641330904e+01     0.127727    0.1044468  88.07 0.0001493185    1.007    0.007
        37 -10.2287     34.3315    173.6644   1.1766576813e+02   3.4295133614e+01    0.1364701    0.0786024  69.91 0.0007044259    1.733    0.423
        38 -10.9524     44.3602    170.2938   1.1498393114e+02   3.3978337655e+01     0.453711    0.1158983 -71.08    0.0015142    3.859    0.741
        39 -11.3598     55.4074    167.9716   1.1207413384e+02   3.3207791752e+01    0.5045463     0.267253  88.33  0.002228789    2.303    0.566
        40 -10.5605    121.3657    169.1993   9.6242724520e+01   2.2738514334e+01    0.2104391     0.136051 -66.13 0.0006979569    1.738    0.425
        41 -10.7005     51.8568    159.7535   1.1187324595e+02   3.5604708013e+01    0.2590759    0.1507519  81.39  0.001219355    1.991    0.498
        42 -10.6773     22.3682    159.3691   1.1901011902e+02   3.8817306261e+01    0.3059227    0.1715427  74.02  0.001616506    1.807    0.447
        43 -11.5475    105.8682    157.2917   9.7825781858e+01   2.8230792635e+01    0.6210742     0.390264 -80.12  0.002622894    2.149    0.535
        44  -9.8468    139.6436    158.6661   8.9813305029e+01   2.1659691236e+01    0.1564789    0.1199395  -5.26  0.000704296    1.797    0.443
        45 -10.6521    118.1444    157.1095   9.4721866220e+01   2.6085298763e+01    0.3015342    0.2396172 -54.30 0.0009618669    1.244    0.196
        46 -10.7429    167.4969    156.6364   8.2977584033e+01   1.6531127099e+01    0.3066384     0.216896 -76.39  0.001299941    2.204    0.546
        47 -10.3242    218.4838    155.5042   7.2371285333e+01   6.6335917424e+00    0.3061185     0.130516 -38.00  0.001216914    2.188    0.543
        48  -9.9372     40.5159    153.1592   1.1385894895e+02   3.8489063701e+01     0.195317    0.1115044 -70.42 0.0006302513    1.495    0.331
        49  -9.8157     23.4929    153.5457   1.1813827328e+02   4.0090910056e+01     0.127456    0.1013676 -88.17 9.028045e-05    1.032    0.031
        50 -10.1317    189.9948    150.5032   7.6803040065e+01   1.3174729374e+01    0.2989115    0.1890364 -73.51  0.001039763    3.489    0.713
        51 -10.3466     55.5992    145.7922   1.0891670323e+02   3.8539469811e+01    0.1993655    0.1181203 -78.77 0.0008631885    1.698    0.411
        52 -10.1511    148.4915    145.0004   8.4739836730e+01   2.2906077915e+01     0.220935    0.1355043 -69.71 0.0008104366    2.561    0.609
        53  -9.9174    124.6808    143.0320   9.0146099343e+01   2.8119354789e+01    0.2544143    0.1256221 -69.77 0.0007047743    4.385    0.772
        54 -11.0524    107.3798    145.9339   9.5209504497e+01   3.0656130242e+01    0.5442641    0.3064354  73.06  0.001768152    3.731    0.732
        55 -10.3579     83.1038    131.9160   9.8889872358e+01   3.8117851638e+01    0.3240179    0.2090726  78.18  0.001364008    2.268    0.559
        56 -10.3379     59.1034    124.4916   1.0429931062e+02   4.3342776861e+01    0.4342766    0.2188696  88.61  0.001313805    4.802    0.792
        57 -11.1814     43.0126    122.1162   1.0858914166e+02   4.5805462154e+01    0.6262307    0.2860114 -83.86  0.002223963    3.490    0.713
        58 -11.0676     14.5067    121.0035   1.1667734484e+02   4.8629716026e+01    0.3538606      0.25556 -28.35  0.001763579    1.753    0.430
        59 -11.6143    192.8277    118.3335   6.8542477705e+01   1.8843451747e+01    0.5999572    0.4443981 -69.94  0.002333539    1.781    0.438
        60 -11.8166     98.6309    128.0389   9.3718963252e+01   3.6490080125e+01    0.7162502    0.4251046 -87.65  0.002412316    3.490    0.713
        61 -11.2015    141.2504    115.0045   7.9162058585e+01   3.1061649737e+01    0.7386175    0.2360336 -41.80  0.002214727    3.137    0.681
        62 -10.5654    108.3551    113.0023   8.7373006362e+01   3.8273013536e+01     0.618621    0.2689434 -62.96  0.001758535    4.128    0.758
        63 -10.7831     78.5640    112.3290   9.5917939249e+01   4.3579891696e+01     0.452228    0.2507696 -79.64  0.001553621    3.408    0.707
        64 -11.5606    159.7442    110.4304   7.3522672739e+01   2.7909817028e+01    0.8491954    0.3658707 -55.28  0.002547993    3.464    0.711
        65 -11.0491    174.1548    110.7030   7.0408320245e+01   2.4560544181e+01    0.4168279    0.2789048 -50.86   0.00111909    1.546    0.353
        66 -10.2358     91.6617    111.0907   9.1703655915e+01   4.1744773297e+01    0.3117132    0.1357016 -58.68  0.001099674    2.528    0.604
        67 -11.2586     14.2199    108.9759   1.1510073666e+02   5.1527647068e+01    0.5868647    0.2340313 -70.46  0.002693957    2.032    0.508
        68 -11.8727     44.3903    100.6284   1.0404854117e+02   5.0869787622e+01    0.7059929    0.3780418 -81.25  0.002885385    2.744    0.636
        69 -11.9044    127.3413    100.4015   7.8758585283e+01   3.7248908797e+01    0.5897492    0.2513188 -50.87  0.002004263    2.555    0.609
        70 -11.9107    108.0789     99.2284   8.3755798572e+01   4.1462023710e+01    0.7959081    0.5589053 -83.71  0.003288029    2.285    0.562
        71 -10.0507     81.6698     99.3493   9.1734365971e+01   4.6158771644e+01    0.1497533    0.1152519  86.48 0.0007048632    1.766    0.434
        72 -11.1678     27.3992    121.3018   1.1301974448e+02   4.7520297383e+01    0.6274362    0.2761156  84.26  0.002062503    4.631    0.784
        73 -10.3085     94.4135     97.1993   8.7226036427e+01   4.4480310621e+01    0.2198817    0.1381913 -58.89 0.0009511682    1.721    0.419
        74 -10.8876     63.1125     95.9113   9.6803682813e+01   4.9713900997e+01    0.4661588    0.2377185 -77.17  0.001436242    4.590    0.782
        75 -12.3643    169.9034     90.9319   6.5935302036e+01   2.9414996901e+01    0.4399203    0.3579637 -50.08 0.0007191944    1.225    0.184
        76 -12.4740    140.2631    104.9859   7.6708546810e+01   3.3443745605e+01    0.4884258    0.4621922  22.02   0.00255364    1.103    0.094
        77 -10.7548     34.3765     87.1137   1.0446691477e+02   5.5059038850e+01    0.6456614    0.1465201 -58.55  0.002211623    3.297    0.697
        78 -10.7209     86.7247     87.0405   8.6713526984e+01   4.8097162031e+01    0.2940444    0.1862172  65.37  0.001179867    2.650    0.623
        79 -11.1571     46.3273     82.6960   9.9175294488e+01   5.4839399272e+01    0.4643182     0.306928  78.97  0.002113107    2.672    0.626
        80 -10.9116    104.1399     82.9597   8.0123247140e+01   4.5748718457e+01    0.4335786    0.2695704 -63.41  0.001750247    2.276    0.561
        81 -10.0188    140.6133     82.8409   7.0211967231e+01   3.7884472094e+01    0.2351675    0.1393456 -48.76 0.0009574717    1.771    0.435
        82 -10.7226     24.0980     80.2406   1.0658659004e+02   5.7528985602e+01    0.3022105     0.155631 -72.74  0.001427842    2.117    0.528
        83  -9.3233      1.4852     78.4646   1.1438462484e+02   5.9384274462e+01    0.1226439   0.09219368 -58.44 2.459092e-05    1.021    0.020
        84 -11.0451     62.5595     71.8564   9.0278882576e+01   5.5166072593e+01    0.6818153    0.1674333 -53.29   0.00193621    4.642    0.785
        85 -10.9359     82.1871     73.1947   8.3931923704e+01   5.1820410080e+01    0.3617979    0.2325536 -73.33  0.001414958    2.996    0.666
        86 -10.8283     51.9364     70.9749   9.3876935593e+01   5.6763366570e+01    0.2634368    0.1858543 -54.78 0.0007104783    1.355    0.262
        87  -9.7437    197.5279     67.4997   5.4327623522e+01   2.6858252543e+01    0.1471869    0.1368399 -60.37 1.706301e-05    1.012    0.012
        88 -11.7903    237.6973     64.6830   4.8009291138e+01   1.8080893215e+01    0.4107459    0.2358515 -76.49  0.001787219    2.483    0.597
        89 -11.8648    231.0125     59.4529   4.7571790909e+01   2.0323126337e+01    0.4869709    0.2710651 -55.90  0.001679208    1.837    0.456
        90 -11.7747     21.1572     50.8300   1.0004403384e+02   6.4107667087e+01    0.6685071    0.3507086 -57.80  0.003558697    1.751    0.429
        91 -10.0595     42.1231     62.8807   9.5150865155e+01   5.9627177715e+01    0.2447789    0.1760453  36.90 0.0007328507    1.661    0.398
        92 -10.8520     29.4353     52.2055   9.6945255851e+01   6.3108660677e+01    0.3247671    0.2280758  -9.77   0.00195019    1.510    0.338
        93 -13.3661     29.7625     59.7565   9.9134406053e+01   6.1531943859e+01     1.026443    0.5616597  23.32  0.002552413    2.099    0.524
        94 -11.6666     19.3487     59.5962   1.0333854570e+02   6.2434599126e+01     0.327148    0.2191872 -31.55 0.0007987328    1.370    0.270
        95  -9.7242    161.6600     53.2887   5.6504798974e+01   3.7905849231e+01    0.1521331    0.1125714 -73.39 0.0003206623    1.642    0.391
        96 -11.2068      8.4457     55.8162   1.0686029313e+02   6.3964739958e+01    0.5243481    0.2682663 -71.36  0.002680341    2.178    0.541
        97 -10.8127    148.8846     51.8433   5.8599295623e+01   4.1278363923e+01    0.2266663    0.1962604  30.90 0.0006445972    1.216    0.177
        98 -10.4205     92.3853     51.2103   7.2983681170e+01   5.4078080531e+01    0.2048628    0.1261918 -44.87  0.000953525    1.736    0.424
        99 -11.3923      7.9546     43.3115   1.0360871579e+02   6.6552203489e+01    0.4930046    0.2539952  34.28  0.002746809    2.543    0.607
       100 -11.2018     69.5495     41.6847   7.7038180189e+01   5.9801956524e+01    0.3021279    0.2447271  88.10  0.001591582    2.236    0.553
       101 -12.0973     41.3309     37.6171   8.6599116103e+01   6.4572847264e+01    0.5473021     0.320662  19.58  0.002166084    1.869    0.465
       102  -9.3291    146.7237     36.3637   5.4000518850e+01   4.3994692100e+01     0.147235    0.1056744 -62.00 0.0007007762    1.669    0.401
       103 -11.3287    120.4989     34.4579   5.8978194799e+01   5.0533323338e+01    0.2871667     0.246053  44.50 0.0006647678    1.101    0.092
       104 -10.6309     49.9980     34.8573   8.1824763248e+01   6.3910165513e+01    0.2973115    0.1715059  28.55  0.001295014    1.800    0.445
       105 -11.7843    104.5815     30.2098   6.1393160341e+01   5.4665040974e+01    0.3888452    0.2797582  66.87 0.0002161288    1.664    0.399
       106  -9.8630     73.5065     32.7489   7.1973995892e+01   6.0506578061e+01    0.2702321    0.1105359  55.84  0.000898444    4.517    0.779
       107 -11.8003    220.9485    248.0740   8.9239106315e+01  -7.8186664291e+00    0.4806765     0.265001  44.93  0.002710113    2.083    0.520
       108  -9.3357    187.0055    248.6709   9.5445269071e+01  -2.9511531442e+00    0.2017897   0.08141695  23.74 0.0007049675    4.310    0.768
       109 -11.2376    239.3418     20.5140   3.7635065442e+01   2.3665241820e+01    0.2736297    0.1949617 -86.30  0.000624119    1.321    0.243
       110 -11.0665    203.2204     21.3914   4.1292694259e+01   3.1846987329e+01    0.1934867    0.1172921  86.64 0.0009563956    1.688    0.408
       111  -9.7522     69.7571    245.5872   1.1701964949e+02   1.4968654245e+01    0.1660031   0.08231445  49.94 0.0009402725    1.609    0.379
       112  -9.9044     89.3412     18.2985   6.0777469095e+01   5.9321766255e+01    0.2526288    0.1674772  79.28  0.001176486    2.624    0.619
       113 -10.6079    193.1521     17.8561   4.1486248220e+01   3.4677854606e+01    0.1745763    0.1517783  47.49 0.0003242349    1.295    0.228
       114 -10.4010     32.7628    242.5347   1.2334998296e+02   2.0051080567e+01    0.1562903   0.07430621  51.64 0.0009426848    1.632    0.387
       115 -11.9740     22.2795    239.1656   1.2495027947e+02   2.1821697922e+01    0.3674152    0.1911981  82.08   0.00232286    1.659    0.397
       116 -10.6073      7.9850    240.6913   1.2741479624e+02   2.3000794012e+01    0.1501086    0.1052016  65.16 0.0007114616    1.087    0.080
       117 -10.1486      2.5052    240.0553   1.2827929468e+02   2.3648261505e+01    0.1511287   0.07966022 -88.42  0.001020784    1.557    0.358
       118 -10.1786    109.0909    232.7122   1.0828971245e+02   1.1716630760e+01    0.1803056    0.1350062  45.96    0.0010643    1.144    0.126
       119 -10.9816     14.6555    231.3291   1.2583338462e+02   2.4092332951e+01     0.228497    0.1033323  77.87  0.001308072    1.966    0.491
