#   1 NUMBER                 Running object number                                     
#   2 MAG_AUTO               Kron-like elliptical aperture magnitude                    [mag]
#   3 X_IMAGE                Object position along x                                    [pixel]
#   4 Y_IMAGE                Object position along y                                    [pixel]
#   5 X_WORLD                Barycenter position along world x axis                     [deg]
#   6 Y_WORLD                Barycenter position along world y axis                     [deg]
#   7 A_WORLD                Profile RMS along major axis (world units)                 [deg]
#   8 B_WORLD                Profile RMS along minor axis (world units)                 [deg]
#   9 THETA_WORLD            Position angle (CCW/world-x)                               [deg]
#  10 FWHM_WORLD             FWHM assuming a gaussian core                              [deg]
#  11 ELONGATION             A_IMAGE/B_IMAGE                                           
#  12 ELLIPTICITY            1 - B_IMAGE/A_IMAGE                                       
         1 -12.3265    166.9229     39.6449   7.5415146321e+01   3.8740193239e+01     1.051213    0.8096951  -4.84  0.005489381    1.679    0.405
         2  -8.8524    232.0960     14.2064   6.0523637837e+01   2.6066667037e+01    0.2763256    0.1809361 -36.25 0.0009520684    1.654    0.395
         3 -10.6821    180.6038     10.2747   6.5259266622e+01   3.8775474437e+01    0.6694694    0.3948575  80.18  0.003414745    1.607    0.378
         4 -10.4042    180.8704      3.9055   6.3575343329e+01   3.9331212086e+01    0.7610428    0.3307405  61.22  0.003564436    1.899    0.473
         5  -9.1669     17.7365      8.2415   1.0800063765e+02   7.0052910295e+01    0.1609217   0.07352652  15.41 0.0008990577    2.417    0.586
         6  -8.0904     76.3328      2.7111   8.3400981246e+01   6.2554883128e+01     0.101274    0.0944437 -83.70 0.0007018043    1.627    0.385
         7 -11.6029    133.3842    219.0901   1.2503000164e+02   1.0263412930e+01    0.2261112    0.1781835  35.51 0.0007948114    1.324    0.245
         8 -15.7084    189.7762    222.7698   1.1419462825e+02  -7.3143389294e-01      4.81257     3.768163 -40.89   0.02818728    1.435    0.303
         9 -11.5126    115.5816    229.4197   1.3004621749e+02   1.1364594200e+01    0.1821368    0.1608409  83.80  0.000214792    1.130    0.115
        10 -13.0232    119.6356    232.8246   1.2968371648e+02   1.0028305497e+01    0.5118639     0.277115  54.30  0.002571028    1.668    0.400
        11 -12.5175    122.7376    248.9402   1.3107615967e+02   6.5819979012e+00    0.4305626     0.226421  44.17  0.002275258    1.586    0.370
        12 -12.2949    126.5026    246.4870   1.3007202917e+02   6.3827486309e+00    0.2411481    0.1766877  46.91 0.0005205873    1.162    0.139
        13 -13.1013    121.4898    243.5103   1.3065936969e+02   7.7498576526e+00    0.3225902    0.2565966 -27.28  0.001918592    1.985    0.496
        14 -12.8650    123.3544    239.3840   1.2979234273e+02   8.1818788061e+00    0.4753124    0.3069334  45.00  0.002686837    1.335    0.251
        15 -15.2396     65.2807    134.4815   1.2705285684e+02   4.0607157602e+01     7.931878     6.910182  26.54   0.04748901    1.364    0.267
        16 -10.8691    129.0206    205.2833   1.2385001886e+02   1.3832869674e+01    0.2992017    0.1781759 -58.26  0.001432385    1.804    0.446
        17  -9.5089      1.0000    207.0738   1.4957087996e+02   3.1181889978e+01    0.1644784   0.04805882 -76.94 0.0007656305    2.693    0.629
        18  -8.7968    109.2716    202.8172   1.2770949182e+02   1.7866793010e+01    0.4481777    0.2183637 -50.25  0.001684633    2.300    0.565
        19 -10.1291      5.9633    197.2878   1.4803332823e+02   3.2754906307e+01    0.1339052    0.1014908  82.17 0.0001735167    1.078    0.072
        20  -9.9406     10.3115    205.2753   1.4780589221e+02   3.0677969985e+01    0.1300061   0.08641395 -71.10 0.0003147247    1.416    0.294
        21 -12.9093      9.0620    201.4029   1.4775901286e+02   3.1604179344e+01    0.3095855    0.2205828  34.97  0.002173719    1.816    0.449
        22 -10.5541    111.2738    195.2760   1.2614400105e+02   1.9153182470e+01    0.1759057    0.1453278  75.45 0.0002197318    1.139    0.122
        23 -11.4288    121.4594    203.4606   1.2518826414e+02   1.5583934357e+01    0.2148848    0.1827967  62.46 0.0001125629    1.050    0.048
        24 -12.2855    118.0474    201.3456   1.2559949117e+02   1.6642804717e+01    0.2493911    0.2137497  87.60 0.0004277008    1.130    0.115
        25 -13.2232    114.8793    197.8193   1.2574600698e+02   1.7963635905e+01    0.3636078    0.2606976  47.45   0.00135686    1.306    0.234
        26 -12.3012     98.1688    201.7128   1.2993120861e+02   1.9979203823e+01    0.2280781    0.1913947  77.08 0.0005870062    1.051    0.048
        27 -11.5914    100.5000    195.2596   1.2850618205e+02   2.1005979455e+01    0.4181912    0.3678556 -28.83  0.002414822    1.564    0.361
        28 -10.8637      1.5694    201.1130   1.4908822433e+02   3.2355222383e+01     0.244128    0.1031098 -85.30  0.001343769    1.919    0.479
        29  -9.2531     68.0517    192.2749   1.3514506882e+02   2.6693905387e+01    0.1537149    0.1308028  72.27 0.0001879539    1.089    0.082
        30 -11.0820    108.4859    188.9714   1.2577857118e+02   2.1036096771e+01    0.3733523    0.1752494 -55.42  0.001578809    2.149    0.535
        31  -9.9613    116.9225    190.7489   1.2417632686e+02   1.9143096049e+01    0.1165829   0.07262038 -53.64            0    1.673    0.402
        32 -10.7949     83.5425    190.1693   1.3150458468e+02   2.4879260677e+01    0.3750601    0.1637823  39.78 0.0003694179    2.301    0.565
        33  -9.5068     17.0402    187.0047   1.4512905433e+02   3.3912657785e+01    0.1444974    0.1147995 -87.28  0.001022646    1.108    0.097
        34 -12.6158     20.3523    183.2521   1.4413977726e+02   3.4411201706e+01    0.3276969    0.1614273 -78.72  0.001802018    1.662    0.398
        35  -9.7487      5.9897    186.2297   1.4721534467e+02   3.5099751536e+01    0.1385425    0.1037258  87.73 0.0002087067    1.034    0.033
        36 -11.8171      2.0255    184.0698   1.4781182796e+02   3.5903901868e+01    0.1745016    0.1281065 -87.12 0.0003679237    1.053    0.050
        37 -12.2506    125.5415    226.2783   1.2764416302e+02   1.0258960821e+01    0.4506002    0.2907627  16.50  0.001963565    3.009    0.668
        38  -9.2574    118.4927    182.6907   1.2247746082e+02   2.0650208742e+01    0.1430712    0.1248815  58.90 5.674049e-05    1.082    0.076
        39  -9.9164     92.9031    181.8888   1.2819923209e+02   2.5277899194e+01     0.172939    0.1534338  85.94            0    1.020    0.019
        40  -8.5427    151.8260    181.4567   1.1470215006e+02   1.4475028433e+01    0.2628165    0.1407226  37.60  0.001071341    1.936    0.483
        41  99.0000    110.0935    244.9316   1.3297880083e+02   9.3722167472e+00    0.7847151    0.4979979  63.66  0.004503727    1.463    0.316
        42  -7.6004    147.2167    180.2478   1.1550476803e+02   1.5659167497e+01    0.1280401    0.1143037  -9.05  0.000269749    1.371    0.270
        43  -9.1793     21.4073    178.0378   1.4344238859e+02   3.5461189449e+01      0.13557   0.09249841 -76.73 0.0002057086    1.182    0.154
        44 -11.3621     33.2534    176.2073   1.4076112347e+02   3.4659256006e+01    0.1949702    0.1684304 -76.40 0.0003473874    1.203    0.169
        45 -12.3145     89.2147    175.5331   1.2806213922e+02   2.7342443379e+01    0.2417015    0.2105725  89.96 0.0003854176    1.023    0.023
        46  99.0000    115.2045    213.2453   1.2794976571e+02   1.4650112553e+01     1.291133    0.8210289 -81.84  0.006378861    1.916    0.478
        47 -13.8495    105.2725    228.9858   1.3202466651e+02   1.3167268527e+01    0.9399357    0.8647487   7.10  0.006055098    1.575    0.365
        48  -8.4369     24.7929    172.7452   1.4221157990e+02   3.6312315211e+01    0.1060059   0.07533936 -62.33 0.0002006148    1.373    0.272
        49  -7.9091     73.6399    168.6337   1.3065132529e+02   3.1337001424e+01    0.3837085     0.215965 -76.40  0.001378966    1.861    0.463
        50  -9.1773     77.5343    167.8054   1.2960196015e+02   3.0959087629e+01    0.2141928    0.1600211  56.72 0.0002539859    1.328    0.247
        51  -7.7557    155.5133    168.4880   1.1129996513e+02   1.6513329163e+01    0.1505553    0.1462234  53.43 0.0008101647    1.036    0.034
        52  -8.5304     53.0110    168.0113   1.3538224809e+02   3.4259919490e+01    0.1442365    0.1187438 -84.30 0.0008848898    1.013    0.013
        53 -19.0198     58.8816    228.0506   1.4078818989e+02   2.0328392424e+01     5.297215     3.058518  54.32    0.0313402    1.467    0.318
        54  -8.5419     29.1162    168.2812   1.4080435433e+02   3.6889357540e+01    0.1567586    0.1206285  81.28 0.0002843761    1.139    0.122
        55  -9.7509     21.4264    168.0658   1.4245843436e+02   3.7691561072e+01    0.1744527    0.1467478  76.34 0.0003156827    1.169    0.145
        56 -11.2639    125.4451    218.9803   1.2664520898e+02   1.1699531490e+01    0.3149531    0.2281431 -26.06   0.00157865    2.266    0.559
        57  -7.6516      1.2394    164.2902   1.4638854579e+02   4.0256638344e+01    0.1063932   0.06844596 -61.48 0.0003180334    1.463    0.317
        58  -7.7993    129.8323    215.2587   1.2519811186e+02   1.1657520654e+01    0.1169271   0.09225167  87.67 0.0002216737    1.371    0.271
        59 -10.8023    139.0426    219.1144   1.2387039710e+02   9.2369037597e+00    0.1832279    0.1625421  54.87  0.001103082    1.030    0.029
        60 -15.0449     78.5186    199.5182   1.3382209297e+02   2.3557840416e+01     1.318933    0.9179556  25.96   0.00699913    2.016    0.504
        61 -10.7912    247.6490    108.6750   7.9650681136e+01   8.3101232919e+00     0.815423    0.4370109  35.16  0.003280994    2.892    0.654
        62 -11.3457    247.4722    117.8547   8.1727480052e+01   6.7364791245e+00    0.8621933     0.551979 -58.31  0.003444612    1.750    0.428
        63 -10.8204    245.9733    144.5143   8.7853037451e+01   2.3194874492e+00    0.7887928     0.379721  35.82  0.003182951    2.679    0.627
        64 -10.6467    243.3382    140.5062   8.7419323137e+01   3.5450126870e+00    0.6176241    0.3890214   1.80  0.002439295    2.997    0.666
        65 -12.1641    247.8700    129.1927   8.4180330708e+01   4.6542551928e+00     1.411315     0.734778 -43.11  0.006328691    1.745    0.427
        66  -9.3094    228.3242    138.1389   8.9498126722e+01   7.0308411607e+00    0.2478138    0.2419733   2.60 0.0002359853    1.063    0.060
        67  -9.4278    160.6773    127.5098   1.0083745811e+02   2.4359268973e+01    0.4516825    0.3402814 -88.23  0.001386462    1.759    0.432
        68  -8.7291    196.6694    107.0920   8.8005297015e+01   2.0089648070e+01     0.266118    0.2171751  49.46 0.0004558509    1.259    0.206
        69  -9.4318    135.6994    212.0041   1.2348082572e+02   1.1242895175e+01     0.126641    0.0791829  44.92 0.0002232283    1.440    0.305
        70  99.0000    131.1219    210.5539   1.2421970334e+02   1.2370018437e+01    0.3780886    0.2041273  25.39  0.001165695    3.165    0.684
        71  -7.8023    184.9634     74.9925   8.1909321283e+01   2.8839965848e+01    0.1790217    0.1697257 -70.00 0.0003309811    1.039    0.038
        72  -7.3679    138.2838     75.3303   9.2046861882e+01   4.0075330940e+01    0.1506175     0.117662   9.03 0.0003391642    1.611    0.379
        73 -10.3484    165.2186     63.9270   8.2689460603e+01   3.5582416801e+01    0.4093248    0.2639678  43.86  0.001860427    1.604    0.377
        74  -9.3232    240.5500     63.3099   7.0417850726e+01   1.7416101349e+01    0.2382808    0.2131211 -75.31 0.0003895583    1.051    0.049
        75  -7.9513    126.6907     59.3444   9.0030677471e+01   4.5426414981e+01    0.2340332    0.1340768 -40.66   0.00103966    1.816    0.449
        76  -7.7294    128.6963     62.7097   9.0582547556e+01   4.4429836535e+01    0.2205104    0.1513047  67.62 0.0005906989    1.795    0.443
        77 -11.5780    155.8915     55.0209   8.2010503598e+01   3.9268321721e+01     1.386503    0.4946484  43.43    0.0045102    3.279    0.695
        78 -10.0857    137.3140    243.5615   1.2764200529e+02   5.0581028400e+00    0.1221162    0.1043604  62.44 0.0002037269    1.084    0.078
        79 -10.2688    170.5194     31.8240   7.2585918115e+01   3.8850204731e+01    0.3767866     0.321294   6.88 0.0009502866    1.454    0.312
        80  -9.5245    137.3080     38.0548   8.0756469343e+01   4.6101970334e+01    0.2444732    0.2304691  25.03 0.0003478337    1.076    0.070
        81  -9.0629    150.5266     31.5106   7.6033882628e+01   4.3781768696e+01    0.2518214    0.1302235  73.16  0.001032808    2.318    0.569
        82 -11.7459     15.6462    243.1188   1.4931039786e+02   2.2641052918e+01    0.1396759    0.1004711 -88.71  0.001061158    1.229    0.186
        83 -10.1345    133.0525    237.6297   1.2768578749e+02   6.8414496265e+00    0.1080877   0.05766019 -60.27 0.0002305087    2.221    0.550
        84  99.0000     11.8570    235.1430   1.4945226170e+02   2.4555458307e+01    0.2177413     0.124065 -42.79  0.001045894    4.885    0.795
        85 -10.7896    124.8666    231.9209   1.2853642113e+02   9.3040275361e+00     0.149394    0.1229427  69.58            0    1.125    0.111
