#   1 NUMBER                 Running object number                                     
#   2 MAG_AUTO               Kron-like elliptical aperture magnitude                    [mag]
#   3 X_IMAGE                Object position along x                                    [pixel]
#   4 Y_IMAGE                Object position along y                                    [pixel]
#   5 X_WORLD                Barycenter position along world x axis                     [deg]
#   6 Y_WORLD                Barycenter position along world y axis                     [deg]
#   7 A_WORLD                Profile RMS along major axis (world units)                 [deg]
#   8 B_WORLD                Profile RMS along minor axis (world units)                 [deg]
#   9 THETA_WORLD            Position angle (CCW/world-x)                               [deg]
#  10 FWHM_WORLD             FWHM assuming a gaussian core                              [deg]
#  11 ELONGATION             A_IMAGE/B_IMAGE                                           
#  12 ELLIPTICITY            1 - B_IMAGE/A_IMAGE                                       
         1 -13.1428    203.5058     34.4527   5.5437093787e+01   2.9682185563e+01     1.355851     1.184344  41.72  0.006693637    1.215    0.177
         2 -13.6615    222.0812     15.9899   4.7966504302e+01   2.7114467927e+01     1.246106    0.9156732  30.68  0.002992283    1.709    0.415
         3 -13.5976      2.9161      4.9939   1.0369948812e+02   7.2708366810e+01     1.964748    0.5605046 -56.82  0.007779998    4.393    0.772
         4 -12.3672     12.6841      3.8226   9.8065400839e+01   7.2210465295e+01    0.9009629    0.3924029 -22.04  0.004487571    2.809    0.644
         5 -11.5304    167.5219    242.5275   1.0849788384e+02   3.5127864130e+00    0.2885657    0.2135489 -27.71  0.001962828    1.892    0.471
         6 -12.0154    180.4664    243.8800   1.0648356705e+02   1.2515013659e+00    0.4731385    0.1875411  38.19  0.002368888    2.106    0.525
         7 -11.2526    177.0323    249.7395   1.0779484117e+02   1.0867172878e+00    0.4498409    0.1481096  36.56  0.001954703    2.978    0.664
         8 -10.4412    160.9981    250.1184   1.1050030943e+02   3.5790549698e+00      0.27456    0.1000855  39.71  0.001338945    2.271    0.560
         9 -10.7083    143.2752    249.6715   1.1338911022e+02   6.4167956601e+00    0.3829042    0.1857234  61.86  0.001958655    2.603    0.616
        10 -11.2532    100.2106    247.7877   1.2027398718e+02   1.3137262894e+01    0.4866696    0.2552517  53.53  0.003106461    1.434    0.303
        11 -12.4689    134.9669    237.9163   1.1350743189e+02   9.3717642034e+00     1.283288    0.5343092 -52.26  0.006759594    3.028    0.670
        12 -10.6123    136.2046    224.4444   1.1173334490e+02   1.1208331143e+01    0.3594418    0.1649531 -51.31  0.001630238    2.670    0.625
        13 -11.9848    119.3173    236.5912   1.1604187385e+02   1.2006874979e+01    0.7293959    0.5098944 -24.09  0.004037985    3.247    0.692
        14 -10.7438    109.8799    247.8286   1.1870548548e+02   1.1733919732e+01    0.3432446    0.2014856  50.25  0.001763612    1.275    0.216
        15 -10.6521    116.1922    250.0186   1.1787725866e+02   1.0485726450e+01    0.4512713    0.2042162  41.02  0.002517404    1.899    0.473
        16 -12.6316    124.0625    245.8498   1.1618061118e+02   9.9069997751e+00    0.6597947     0.633361  71.28  0.005440034    1.357    0.263
        17 -10.8261     84.0749    230.1959   1.2143138535e+02   1.8192574944e+01    0.3750346    0.1831794 -67.19  0.002241185    2.230    0.552
        18 -11.4988     86.8663    248.0523   1.2243903604e+02   1.4961666511e+01    0.4645443     0.274904  54.83  0.002092885    1.241    0.194
        19 -11.5829     82.7494    239.9400   1.2246035084e+02   1.6789402880e+01    0.5277794     0.192894  55.64 0.0009792093    2.303    0.566
        20 -10.9525     91.0004    241.5045   1.2124039064e+02   1.5402257607e+01     0.271027    0.1908385  29.88  0.001424318    2.038    0.509
        21 -11.5148     88.7892    237.8055   1.2129256011e+02   1.6296460760e+01    0.4457344    0.1980698  54.68  0.001840115    1.789    0.441
        22 -10.9221     68.3860    245.6147   1.2518070615e+02   1.7791262722e+01    0.2585915    0.1657417  68.22 0.0006963066    1.194    0.163
        23  -9.2944     56.4807    250.5381   1.2733447791e+02   1.8511548335e+01    0.1783456    0.1121373  54.94 0.0006985129    1.206    0.170
        24 -11.3456     59.8970    245.7946   1.2651447002e+02   1.8834374177e+01    0.5123462    0.2590377  63.19  0.003441941    1.543    0.352
        25 -13.1261      7.3809    214.8887   1.3297882435e+02   2.9809650266e+01     2.024781      1.26069  15.80   0.01210077    4.113    0.757
        26 -12.2124      9.5663    206.7421   1.3223945056e+02   3.1061240551e+01    0.7975616    0.5026704  20.85  0.005250932    3.037    0.671
        27 -13.2872     37.8307    242.5924   1.2969323470e+02   2.1960516723e+01     2.253141    0.6894346 -72.00   0.01262371    3.139    0.681
        28 -13.0953     26.7173    247.2791   1.3157062969e+02   2.2433032879e+01     1.570768    0.5399698  39.86  0.009245593    2.769    0.639
        29 -14.0068     27.7069    218.2712   1.2992160409e+02   2.7182172659e+01    0.8351659    0.6393554  68.76  0.005252976    1.181    0.153
        30 -10.1049    111.0122    234.5001   1.1724867511e+02   1.3592672728e+01    0.2830701    0.1236597  61.54  0.001191692    2.608    0.617
        31 -11.4426    113.4517    230.9645   1.1647083988e+02   1.3780642887e+01    0.3418633    0.2390729  45.73  0.001509512    1.254    0.202
        32 -12.1942    102.6131    230.6060   1.1830624802e+02   1.5467405879e+01     0.667175    0.3910761  32.94  0.002455693    2.151    0.535
        33 -12.4448    102.9817    238.9987   1.1903703435e+02   1.4080461307e+01      0.57862    0.4127732  51.91  0.001996722    1.136    0.119
        34 -10.4177     74.1864    244.4433   1.2418247161e+02   1.7222317328e+01    0.3019086    0.1945713 -67.04  0.002199904    1.818    0.450
        35  -8.8836     66.3354    239.6496   1.2508710496e+02   1.9005841353e+01    0.1167017   0.05762924  66.85 0.0007046579    1.784    0.439
        36 -10.8133     74.0480    236.5179   1.2361133103e+02   1.8510447232e+01     0.409217    0.1773423 -49.78  0.001967582    4.456    0.776
        37  -8.9312     48.7069    237.4010   1.2772398766e+02   2.1547902416e+01     0.201467    0.0654294  47.50  0.001119453    2.252    0.556
        38 -10.2253     81.3807    248.1235   1.2331542089e+02   1.5694125905e+01    0.2628839    0.1585202 -88.15  0.001497157    1.735    0.424
        39 -13.0511      2.8681    189.5880   1.3247975189e+02   3.4846617695e+01     2.921102     0.388151 -80.46  0.008205767    9.273    0.892
        40  -9.2410    157.3637    234.2234   1.0920746348e+02   6.2878305636e+00    0.1392717    0.1100234 -72.41  0.000565828    1.662    0.398
        41 -13.9838      6.1281    244.8838   1.3440451325e+02   2.4908965733e+01     1.353517    0.8654637 -86.58   0.01169263    1.421    0.296
        42  -9.9731    250.0000    230.0414   9.2929231065e+01  -8.2044276388e+00    0.1624375   0.06063887 -29.56 0.0008082264    2.983    0.665
        43  -9.5053    153.5420    230.0122   1.0934703639e+02   7.5169584085e+00    0.1474187    0.1192808 -55.89 0.0003819946    1.549    0.354
        44 -13.2242     22.3453    224.7877   1.3112529860e+02   2.6608100822e+01    0.4011683     0.361788  63.48  0.002882464    1.580    0.367
        45  -9.4311     56.5539    228.5913   1.2588759583e+02   2.2072728238e+01    0.2478412    0.1171889 -89.43  0.001151853    2.223    0.550
        46 -11.1625     79.2254    225.5678   1.2185804002e+02   1.9638977800e+01    0.3287735    0.2510941  77.61  0.002437779    1.123    0.110
        47  -9.4677     77.1540    220.8246   1.2180460837e+02   2.0738262348e+01    0.1713184    0.1163652  67.38 0.0003937837    1.176    0.150
        48  -9.6102     92.2418    226.2289   1.1967874759e+02   1.7701678082e+01    0.1869968    0.1245456  70.88 0.0008504646    1.329    0.248
        49  -9.0149     88.1803    223.7416   1.2015191915e+02   1.8702027420e+01    0.2134897    0.1133218  49.75  0.001215309    1.507    0.336
        50  -8.9460     64.7644    224.8283   1.2424892890e+02   2.1683516366e+01     0.149211    0.1142167 -33.43 0.0009442837    2.806    0.644
        51  -9.0251     45.7757    225.2439   1.2741952293e+02   2.3944276906e+01    0.1257087    0.1019402  88.08 0.0004470158    1.298    0.230
        52 -10.6215     98.9884    223.3187   1.1822121590e+02   1.7206964093e+01    0.2396388    0.2025129  49.22  0.001023478    1.284    0.221
        53 -10.2408    246.0000    220.0028   9.1929483582e+01  -6.5549486903e+00    0.2832596   0.06312988 -32.03  0.001055327    4.971    0.799
        54 -10.2576    141.7483    219.4789   1.1011778313e+02   1.1069795449e+01     0.259777    0.1996471 -50.75  0.001476721    1.602    0.376
        55 -10.4584     71.2630    219.2676   1.2269194161e+02   2.1802967865e+01    0.3690174     0.218546  75.37  0.002349553    1.554    0.356
        56 -10.1372     91.2664    219.8754   1.1924522517e+02   1.8922608261e+01    0.2397956     0.154196  40.80  0.000933386    1.564    0.361
        57 -10.0120    116.9278    215.7510   1.1418791025e+02   1.5733689743e+01    0.2891955    0.2135059  22.35   0.00118763    2.005    0.501
        58  -9.3231    107.1464    216.6959   1.1607439488e+02   1.7101648786e+01    0.2376329   0.07968089  48.17  0.001063863    2.432    0.589
        59  -8.9444     58.5483    212.5150   1.2434738808e+02   2.4651432170e+01    0.1700818   0.09912002  70.67 0.0005354626    1.465    0.317
        60 -10.2519     55.9195    209.0694   1.2453294891e+02   2.5607912915e+01    0.3846234    0.1445023 -72.16  0.001998208    2.583    0.613
        61  -9.2959     86.4175    211.6494   1.1930788110e+02   2.1067722878e+01    0.2529429    0.1307555  61.33 0.0009754329    1.783    0.439
        62  -8.3346    110.6947    211.3392   1.1482374691e+02   1.7476209678e+01    0.1261575   0.07905571  70.78 0.0007040862    1.678    0.404
        63  -9.7400     99.4165    209.7570   1.1673118752e+02   1.9494057438e+01    0.2649613    0.1366522  74.88 0.0008204833    2.701    0.630
        64 -10.0398     63.1997    208.4497   1.2319173216e+02   2.4804544950e+01    0.2731682    0.2611871  33.62  0.001503343    1.616    0.381
        65  -9.1864     63.6756    205.2225   1.2282743965e+02   2.5341170881e+01     0.154163    0.1186092  88.01  0.000215272    1.151    0.131
        66  -8.5948     74.4193    208.4868   1.2117839974e+02   2.3315203168e+01    0.1172198   0.08827583  71.24 0.0003164299    1.043    0.041
        67  -9.5039     91.4713    204.8546   1.1767646942e+02   2.1568087207e+01    0.2920488    0.1251191  39.17  0.001418081    2.324    0.570
        68  -9.9378    106.9242    203.5304   1.1461529724e+02   1.9457210954e+01    0.2076654     0.166145 -75.44 0.0004449458    1.313    0.239
        69 -11.1220     97.1472    239.3339   1.2003949928e+02   1.4871876530e+01    0.2388301    0.1773035  74.17 0.0008528133    1.195    0.163
        70  -9.8184     74.5949    199.9953   1.2033175519e+02   2.4874062188e+01    0.1821253    0.1399289  61.71 0.0005185914    1.107    0.096
        71  -9.1210     96.9312    199.2789   1.1602212773e+02   2.1784189526e+01    0.1661489    0.1321204  59.38 0.0003375509    1.083    0.076
        72  -9.2595     53.0806    198.1762   1.2414847286e+02   2.7999555856e+01     0.161585    0.1436651  80.85    0.0012374    1.302    0.232
        73  -8.5448      7.6960    198.2694   1.3211497918e+02   3.2789418584e+01    0.1055626   0.05327899  67.49 0.0002752125    1.532    0.347
        74  -9.6791    250.1376    193.8563   8.6622138740e+01  -4.2630262067e+00    0.1828247    0.1254866  12.57  0.001090893    1.347    0.258
        75 -11.6175     52.7216    193.0077   1.2377144338e+02   2.9040569125e+01     0.318875    0.2334902  40.98 0.0007288052    1.559    0.359
        76  -9.9754     30.9029    193.2809   1.2778907579e+02   3.1458162151e+01     0.165651    0.1234308  80.71 0.0002870992    1.045    0.043
        77  -9.5017     25.9948    192.7277   1.2862787165e+02   3.2073765113e+01    0.1883588    0.1093621  56.39  0.001088892    1.445    0.308
        78  -9.8565     21.7382    192.8237   1.2938829481e+02   3.2483359120e+01    0.4223434    0.1556955  74.81   0.00201444    3.034    0.670
        79  -9.2765    191.5692    191.6657   9.6599886782e+01   6.5115175026e+00    0.1516135    0.1294264 -49.29 0.0005459065    1.416    0.294
        80  -8.4909     72.4626    192.5988   1.1999067287e+02   2.6585556793e+01    0.1169515   0.09598803  73.15  0.000106697    1.064    0.060
        81  -8.3395     38.6220    192.2894   1.2631802764e+02   3.0815192983e+01     0.121415   0.06174402  66.39  0.000701865    1.734    0.423
        82  -8.9251     40.3681    188.7758   1.2571942950e+02   3.1307183911e+01    0.1552381   0.08622696 -69.30 0.0006763014    1.675    0.403
        83  -9.2141     76.3561    187.3064   1.1867059759e+02   2.7090718190e+01    0.2668681    0.1376669 -77.96   0.00138612    2.041    0.510
        84 -10.1734      9.8615    187.4515   1.3115012004e+02   3.4638381345e+01    0.2393798    0.1149248  86.95   0.00120802    1.675    0.403
        85 -10.6349     71.0962    187.0247   1.1967457253e+02   2.7867068728e+01    0.2270183    0.1490611  49.03  0.000293794    1.407    0.289
        86 -11.7099     59.3634    185.3068   1.2179276735e+02   2.9740064872e+01    0.2347858    0.1947448 -82.81 0.0004817916    1.207    0.172
        87  -8.5849    107.4517    185.5141   1.1222575557e+02   2.2757670609e+01    0.1272234    0.1102878  68.82 0.0001225871    1.035    0.034
        88  -9.6941     36.8337    180.5051   1.2571156015e+02   3.3340077759e+01    0.2815824    0.1300318 -67.08  0.001505441    1.951    0.487
        89  -9.6317     27.1306    179.6092   1.2748486168e+02   3.4532219293e+01    0.1911109    0.1213671 -83.76  0.000133554    1.270    0.213
        90  -8.5239     80.7049    178.6978   1.1680466656e+02   2.8206802701e+01    0.1082673    0.0976285 -38.79 0.0002405552    1.576    0.365
        91  -8.1767    111.6585    177.7098   1.1026448490e+02   2.3598757115e+01    0.1199854    0.1053155   3.53 0.0003506874    1.649    0.394
        92  -8.3835    105.7395    176.0079   1.1125489135e+02   2.4916283539e+01    0.1489324    0.1077504 -66.65 0.0001858045    1.403    0.287
        93 -11.4673    248.2755    172.4184   8.2769474690e+01  -1.2513420553e+00     0.478494    0.3400196   6.59  0.002742783    1.380    0.275
        94 -10.6078     70.9812    173.3156   1.1816821070e+02   3.0667560603e+01    0.2203028    0.1824761  73.71 0.0003208497    1.054    0.052
        95 -11.8343     12.5184    172.6584   1.2974310721e+02   3.7307595419e+01    0.6902921    0.2075359 -60.45   0.00330736    3.299    0.697
        96 -11.4067      9.8332    156.8564   1.2915013355e+02   4.0761651256e+01    0.5870528    0.1926901  76.49  0.002184257    4.771    0.790
        97 -10.9943     12.3382    153.5564   1.2838893487e+02   4.1241576463e+01    0.2252529    0.1590953 -89.96  0.001304839    1.050    0.048
        98 -12.0150     48.7677    216.2135   1.2630696730e+02   2.5179117117e+01     1.865261    0.6049799  68.41  0.006727078    5.415    0.815
        99 -10.9883      5.0053    166.7742   1.3077721181e+02   3.9130257138e+01    0.1866809    0.1531343  50.45 0.0009284174    1.450    0.310
       100 -11.2751     12.2079    167.2150   1.2942870163e+02   3.8434049821e+01    0.2894862    0.1593362  36.47  0.001889263    2.062    0.515
       101 -11.5904      9.2758    164.7302   1.2982264030e+02   3.9190308935e+01    0.3245769    0.1551438 -62.21  0.001961833    2.030    0.508
       102  -9.7006     55.7363    172.6533   1.2123502747e+02   3.2769889763e+01     0.229922    0.1655436  76.07 0.0005254418    1.179    0.152
       103  -9.4376     51.6824    171.0549   1.2189812141e+02   3.3591467476e+01    0.1883532    0.1497394  61.81  0.000650338    1.192    0.161
       104  -9.9440     27.1686    171.6943   1.2686162773e+02   3.6128997677e+01    0.2439515    0.1711723 -52.66 0.0004153412    1.864    0.463
       105  -9.5616     18.0283    172.0571   1.2865569286e+02   3.6930430575e+01    0.1760821    0.1256166  78.97  0.001064875    1.065    0.061
       106 -11.3957     39.1070    167.7640   1.2414027000e+02   3.5704493504e+01    0.2432472    0.2125352 -84.81   0.00036055    1.247    0.198
       107 -11.6627     78.9656    165.4075   1.1549120873e+02   3.1216825432e+01    0.4404598    0.3844177  44.09  0.002012269    1.327    0.246
       108 -10.1162     68.1485    166.2853   1.1792380330e+02   3.2521324828e+01    0.2178116    0.1536933 -83.19 0.0003749329    1.269    0.212
       109 -11.3898    245.1446    162.2727   8.1210249864e+01   6.8522473484e-01    0.3761397    0.2056815 -32.96   0.00185714    1.810    0.448
       110 -11.8991    248.7293    159.1357   7.9949800062e+01   4.5384592405e-01    0.8148475    0.6516504 -88.25  0.004307384    2.324    0.570
       111  -9.0896     29.5696    165.1989   1.2584192609e+02   3.7230059699e+01    0.1482999   0.08661687 -67.83 0.0003221271    1.537    0.349
       112  -8.6691     91.4943    168.5420   1.1321932555e+02   2.8703427959e+01    0.1306554    0.1105596  77.51 0.0008090647    1.021    0.021
       113  -9.6563     24.0121    161.9939   1.2669279983e+02   3.8438403228e+01     0.168084    0.1283584  88.56 0.0003585053    1.040    0.039
       114  -8.7981     66.7518    161.4012   1.1762211222e+02   3.3746566128e+01    0.1459545    0.1187412  36.26 0.0002328662    1.494    0.331
       115  -9.1941     28.8259    160.8864   1.2561357406e+02   3.8205837201e+01    0.1619636     0.125477 -77.78 0.0003773981    1.193    0.161
       116 -10.4360     81.5830    156.7404   1.1371935570e+02   3.2695546466e+01    0.3131289    0.2137587  69.86  0.001741024    1.474    0.322
       117  -8.5230     66.6449    157.2393   1.1711627042e+02   3.4657258840e+01    0.1279893   0.08088487  67.38 0.0002634162    1.582    0.368
       118 -10.3623     32.1646    153.9604   1.2426431340e+02   3.9344494669e+01    0.2672414    0.1756788 -58.33  0.001224046    1.603    0.376
       119 -11.2968     26.2635    155.3335   1.2564531383e+02   3.9626170083e+01    0.4790559    0.1513308  34.08  0.002269133    3.374    0.704
       120 -10.7973    249.5699    151.0714   7.8085281315e+01   1.4177029271e+00    0.3465711    0.2583709 -25.27  0.001966229    1.271    0.213
       121  -9.5420     54.1455    151.9406   1.1922940989e+02   3.7377973822e+01    0.2093869    0.1419898 -55.73            0    1.564    0.361
       122 -10.2794     93.4405    149.8778   1.0996568103e+02   3.2389395036e+01    0.2631466    0.2329295 -78.69 0.0007871047    1.073    0.068
       123 -10.9924     21.8075    149.0727   1.2601938244e+02   4.1371182981e+01    0.4171172    0.1295137  40.05  0.002039262    3.040    0.671
       124  -9.6977     81.2855    148.4796   1.1255880840e+02   3.4542427904e+01    0.2590297    0.2003025  58.70  0.001532324    1.253    0.202
       125 -11.7737     68.1633    143.9525   1.1494400246e+02   3.7374274455e+01    0.6621653    0.3920602  80.43  0.002533599    2.022    0.505
       126 -12.6907      9.3120    143.3902   1.2820348888e+02   4.3629792838e+01    0.5120658     0.279538 -65.14  0.002601522    1.589    0.371
       127 -12.0209    247.6449    112.8859   6.9669127043e+01   7.4018530616e+00    0.6310775     0.440702  38.95  0.003051492    1.503    0.335
       128 -12.7373    248.1059    134.8440   7.4723892491e+01   4.0328158591e+00     1.392943    0.5911912 -23.95   0.00536904    2.652    0.623
       129  -8.9450     96.8236    146.1642   1.0855807050e+02   3.2661353005e+01      0.16869    0.1561515 -46.27 0.0002539431    1.271    0.213
       130  -9.9334    133.2467    141.0372   9.9084437752e+01   2.7234050736e+01    0.3108261     0.232908 -68.48 0.0009053716    1.470    0.320
       131  -9.5708     37.1162    140.1340   1.2168523855e+02   4.1852384187e+01    0.1732661    0.1397448 -70.84 0.0003713705    1.180    0.152
       132 -11.7786      2.3852    143.2008   1.2966108023e+02   4.4191003787e+01    0.5528448    0.1327627 -74.79  0.002431128    3.037    0.671
       133  -9.6681    107.0863    135.5918   1.0417882737e+02   3.3264856922e+01    0.3704632    0.2591293 -10.18  0.001574931    2.831    0.647
       134 -11.8060    243.7996    120.8641   7.2181136617e+01   6.9989683881e+00    0.5035316    0.3781415  65.18  0.002600529    1.690    0.408
       135 -12.8261     11.3595    126.6429   1.2622484906e+02   4.7078285083e+01    0.6336283    0.3262545  73.48  0.003574771    2.020    0.505
       136 -12.0554      2.0033    111.2783   1.2694017938e+02   5.1061529067e+01    0.5802475    0.1774138 -75.90  0.002682754    2.532    0.605
       137 -11.6725      3.1021    132.7277   1.2867036575e+02   4.6360111374e+01    0.3867664    0.1914476  81.30  0.002243338    1.861    0.463
       138 -13.0405      2.9082    122.8398   1.2784397374e+02   4.8497626016e+01    0.8029884    0.3071519 -71.08  0.004341159    1.899    0.473
       139  -9.0956     93.7364    133.2194   1.0698829160e+02   3.6029528033e+01    0.1703753    0.1567544 -35.38 0.0003789899    1.298    0.229
       140  -9.4148    236.0088    145.9984   7.9263692755e+01   4.7874711170e+00    0.2192585    0.1536061  12.21  0.000449617    1.586    0.370
       141  -9.4186     44.4520    130.0155   1.1866276840e+02   4.3342262533e+01    0.1851864     0.102731 -70.41 0.0004631344    1.512    0.339
       142  -9.1441     59.2012    146.9302   1.1744316320e+02   3.7863656458e+01     0.203753    0.1234127 -46.77    0.0007784    2.023    0.506
       143 -12.3359     16.8593    121.1220   1.2432354147e+02   4.7869808242e+01    0.4629043    0.2505625  83.63  0.002076155    1.845    0.458
       144 -12.9051    248.0365    101.4379   6.6838616469e+01   9.0468196936e+00     1.190331    0.6166483 -22.77  0.005011647    2.041    0.510
       145  -8.5565     50.3260    122.6499   1.1612265927e+02   4.4362783530e+01    0.1338469   0.08552422  77.65   0.00070487    1.757    0.431
       146 -10.4766     29.8269    119.1563   1.2085101002e+02   4.7220947817e+01    0.1652569    0.1231579 -55.94  0.001078382    1.333    0.250
       147 -10.5389    231.9361    116.2016   7.3025899198e+01   1.0260413043e+01    0.2199207    0.2001776 -58.66 0.0007618095    1.274    0.215
       148 -12.3833      9.0806    112.7239   1.2531948165e+02   5.0286362745e+01    0.4501513      0.19524 -75.05  0.001924056    1.773    0.436
       149  -9.3968    168.0729    113.1788   8.4662010937e+01   2.5468707717e+01    0.3449185    0.2397345  89.88  0.001374969    2.347    0.574
       150 -11.9853    248.0475    142.0926   7.6364170552e+01   2.9887532594e+00    0.6308449    0.4875596  13.10  0.003541114    1.278    0.217
       151  -9.0502     29.6708    108.6451   1.1943354208e+02   4.9596245724e+01    0.1260572   0.07575107 -45.98 0.0007045595    1.779    0.438
       152 -11.0551     19.4390    105.6495   1.2175829253e+02   5.1104647573e+01     0.218531    0.1720354  62.54  0.001523163    1.392    0.281
       153 -12.9114     12.8973    101.9533   1.2302996524e+02   5.2399683212e+01    0.6479481    0.3331853 -48.85    0.0037236    1.924    0.480
       154  -8.4634     71.7143    100.3070   1.0616550968e+02   4.6793027246e+01    0.1327716   0.09988282  87.30 0.0002902103    1.567    0.362
       155  -9.9958    249.8078    117.7773   7.0494119388e+01   6.2175871555e+00    0.2799108    0.2487057  -3.98 0.0006401355    1.045    0.043
       156 -11.2530      2.4892     68.0260   1.2110707013e+02   6.0422189891e+01    0.3233514   0.08401955 -68.35  0.001385894    2.820    0.645
       157 -11.2346      2.7023     41.8906   1.1574987926e+02   6.5852941079e+01    0.4260762          nan -56.28  0.001489667    4.295    0.767
       158 -11.4141    170.0339    247.8426   1.0872702965e+02   2.4327690502e+00    0.3782818    0.2490238  10.35  0.002186145    2.531    0.605
       159 -11.8348    150.4648    246.8265   1.1187940136e+02   5.6727752986e+00    0.3701105    0.3087509  11.05  0.002702069    1.637    0.389
       160 -11.0969    198.2972    245.5229   1.0372015901e+02  -1.7991710131e+00    0.2357704    0.1519335  29.27  0.001540175    1.357    0.263
