#   1 NUMBER                 Running object number                                     
#   2 MAG_AUTO               Kron-like elliptical aperture magnitude                    [mag]
#   3 X_IMAGE                Object position along x                                    [pixel]
#   4 Y_IMAGE                Object position along y                                    [pixel]
#   5 X_WORLD                Barycenter position along world x axis                     [deg]
#   6 Y_WORLD                Barycenter position along world y axis                     [deg]
#   7 A_WORLD                Profile RMS along major axis (world units)                 [deg]
#   8 B_WORLD                Profile RMS along minor axis (world units)                 [deg]
#   9 THETA_WORLD            Position angle (CCW/world-x)                               [deg]
#  10 FWHM_WORLD             FWHM assuming a gaussian core                              [deg]
#  11 ELONGATION             A_IMAGE/B_IMAGE                                           
#  12 ELLIPTICITY            1 - B_IMAGE/A_IMAGE                                       
         1 -13.9125    249.3183     46.0700   4.2504077894e+00   1.8773272478e+01    0.8141611     0.242646 -33.73  0.003446788    2.766    0.638
         2  -9.5510     70.6852      5.2911   1.9201760935e+01   6.5872741242e+01    0.1232676    0.1024116 -76.43 0.0002385328    1.593    0.372
         3  -9.8520     39.6832      1.9623   3.0283001410e+01   7.2544748263e+01    0.2022881   0.09405905  -6.25  0.000704599    4.385    0.772
         4  -9.9703    100.3279      1.2509   9.5575944236e+00   5.9135139845e+01    0.1399753   0.08485022  44.92 0.0003676624    1.547    0.354
         5 -11.3595    242.9961    245.3017   4.3196662265e+01  -7.3389714076e+00    0.2289407    0.1145926 -20.86  0.001092933    1.817    0.450
         6 -10.0222    247.7932    250.4159   4.3181743053e+01  -8.3843001975e+00    0.1446695   0.07415398  16.05 0.0009395025    1.626    0.385
         7 -10.7663    123.6060    243.7957   6.5541911148e+01   8.0012199376e+00    0.1473061    0.1194545 -82.99 0.0009540828    1.729    0.422
         8 -10.7702    248.1246    238.7552   4.1392262056e+01  -7.1632810269e+00    0.2142708    0.1042611 -11.06  0.001232879    2.147    0.534
         9 -10.7458    250.0099    244.4409   4.1949365591e+01  -7.9780558465e+00    0.2062584    0.1097414 -14.13   0.00109345    1.652    0.395
        10 -10.1617    123.0000    232.9763   6.4406830020e+01   9.8928295041e+00     0.178988   0.07396296 -55.12 0.0008077089    2.979    0.664
        11  -9.5998     39.3041    235.7254   8.2902523581e+01   2.0177817785e+01    0.1239993   0.06564504  54.35 0.0002728699    1.542    0.351
        12 -10.1620    248.4258    228.2075   3.9713693752e+01  -6.0059209422e+00    0.1370224   0.08978255 -32.54 0.0008773871    1.664    0.399
        13 -10.5418    139.6731    228.0277   6.0180628230e+01   8.3357045671e+00    0.1695251    0.1522973  15.45 0.0004076158    1.114    0.102
        14 -11.1272    149.0155    223.9995   5.7630673614e+01   7.6429459391e+00    0.2019069    0.1472728  55.76  0.001145797    1.765    0.433
        15 -10.4450    249.4499    215.7046   3.7545415805e+01  -4.6460431042e+00    0.1995861   0.09197417 -36.20  0.001134218    2.129    0.530
        16 -10.6033    149.3273    197.9987   5.3609708206e+01   1.2152551931e+01    0.1990467    0.1177993 -74.29 0.0007050775    4.323    0.769
        17 -10.1908     38.9571    162.9147   7.7343053060e+01   3.6359957228e+01    0.2032191    0.1538731 -36.82 0.0007047441    1.655    0.396
        18 -10.8742    107.3153    145.5188   5.4654008506e+01   3.0662565040e+01    0.5367732    0.2835411  67.89  0.001512456    4.684    0.786
        19 -10.7940      3.3336    143.2983   8.6108826833e+01   4.4376819396e+01    0.1278588   0.08719043 -47.45 0.0006047947    1.649    0.393
        20 -11.4971     69.1103    136.0347   6.4388499360e+01   3.9366088498e+01    0.2295908    0.2198544 -79.18 0.0003486756    1.037    0.036
        21 -10.2614     53.9863    130.4859   6.8386133591e+01   4.2881085730e+01     0.210602    0.1441612  27.87 0.0006030067    1.533    0.348
        22 -10.9767     98.6311    127.4770   5.3375285232e+01   3.6600794098e+01    0.5293992    0.3033817 -84.81  0.001614693    3.972    0.748
        23 -10.2751    117.6398    125.3304   4.7291845526e+01   3.3434406252e+01    0.1653823    0.1236742  77.53 0.0007041192    1.798    0.444
        24 -10.5461     81.3207    121.8790   5.7616112014e+01   4.1044252255e+01    0.2692705    0.1951268  46.78 0.0006368838    1.392    0.282
        25 -10.3560    141.8031    119.1962   3.9348729195e+01   2.9744221299e+01    0.2683301     0.178463  89.67 0.0009614188    2.902    0.655
        26 -11.2882    109.2043    113.9810   4.6959107650e+01   3.7780779717e+01    0.5200309     0.285493 -71.61  0.001635792    3.503    0.715
        27 -11.2077     79.6009    113.3352   5.6266704826e+01   4.3476870932e+01    0.5346493    0.3169986  81.00  0.001774226    3.426    0.708
        28 -11.6860     92.6315    112.7583   5.1808173295e+01   4.1299852931e+01    0.5267788    0.3428992 -80.54  0.002052224    2.306    0.566
        29 -10.6895    122.3125    112.6581   4.2833540362e+01   3.5360095559e+01    0.1619496    0.1260566  87.70 0.0003976719    1.701    0.412
        30 -11.5230     14.5005    111.9965   7.9593145700e+01   5.1624036380e+01    0.2972811    0.1062908  53.01  0.001044704    3.570    0.720
        31 -10.9166     66.5241    111.0185   6.0291262403e+01   4.6160239173e+01    0.3277704    0.1648213  61.74  0.001048043    3.540    0.717
        32 -10.4788    140.0133    104.9816   3.6117051005e+01   3.3140711129e+01    0.2573343    0.1968462 -87.64  0.001135975    1.773    0.436
        33 -11.9585     24.2143    104.1136   7.4861069115e+01   5.2927553462e+01    0.5177311    0.1665245  51.66  0.001516504    5.042    0.802
        34 -10.7682      1.4243    105.0005   8.3657318529e+01   5.4192583420e+01    0.1970808    0.1107409 -78.44 0.0003256863    1.531    0.347
        35 -11.8847     44.7647    102.1239   6.6502184018e+01   5.1379330296e+01    0.5709156    0.2743138  71.62  0.001565788    5.539    0.819
        36 -11.0585    129.2384    102.5406   3.8243371083e+01   3.6071734259e+01    0.3476121    0.2286862  81.31  0.001270308    2.670    0.625
        37 -11.9195    110.2295     99.4270   4.2779237136e+01   4.0908735491e+01    0.9068436    0.5083978  68.86  0.002811701    3.660    0.727
        38 -10.6229      5.6689    102.6778   8.1816856812e+01   5.4566839549e+01    0.1410494   0.08249436 -45.45 0.0007049635    1.698    0.411
        39 -10.5675     81.9892    100.0128   5.2139018383e+01   4.6342905915e+01    0.3891738     0.243578  88.30  0.001351455    3.131    0.681
        40 -11.4482     94.2926     92.9415   4.5981480553e+01   4.5676598809e+01    0.3256347    0.2374138 -51.29 0.0009440682    1.389    0.280
        41 -11.5014     63.5785     96.1811   5.7878771151e+01   5.0343658547e+01    0.4942675    0.2926174  82.76  0.001684339    3.460    0.711
        42 -12.0040    124.8629     91.0793   3.6185278464e+01   3.9483677285e+01    0.4717128    0.3562068  83.78  0.001712909    1.772    0.436
        43 -10.7149      6.4986     92.4860   8.0269597316e+01   5.7120606324e+01    0.1330795    0.1127692 -63.22 5.741991e-05    1.045    0.044
        44 -10.3780    138.3587     91.6716   3.2844130601e+01   3.6243526963e+01    0.1643547    0.1236808 -84.68 0.0007043068    1.788    0.441
        45 -12.1420     87.4363     87.4225   4.6701921054e+01   4.8292311937e+01    0.5201561    0.3358071  71.18  0.001981631    2.562    0.610
        46 -11.6463    105.2416     83.8377   3.9729633988e+01   4.5405440709e+01    0.5230461    0.3628127  88.55  0.002055555    2.404    0.584
        47 -10.1829     47.9934     84.4938   6.1159527957e+01   5.5431061398e+01    0.2085607    0.1081323  51.02 0.0008102807    2.521    0.603
        48 -11.3524     10.9701     81.5497   7.6766676870e+01   5.9632852852e+01    0.4124267    0.1078813  36.15  0.001441978    3.990    0.749
        49 -10.5333    182.1205     80.8410   2.0721139602e+01   2.7956533087e+01    0.2232744    0.1859327 -66.91 0.0003667616    1.244    0.196
        50 -10.2999    119.6437     80.3424   3.4392327536e+01   4.2883631395e+01     0.165132    0.1241824 -85.80 0.0007037934    1.822    0.451
        51 -10.2628    141.1981     75.8019   2.7489806841e+01   3.8616719544e+01      0.26704    0.1663765 -77.87 0.0009515386    2.839    0.648
        52 -11.0605    128.1618     75.6151   3.0628563673e+01   4.1799106906e+01    0.3447469    0.2440627 -70.28  0.001481368    1.869    0.465
        53 -11.3510     82.1975     72.6395   4.3931699986e+01   5.2596925737e+01    0.4143014    0.2748525 -74.92    0.0016477    2.483    0.597
        54 -11.7237      6.0152     73.0451   7.7624785579e+01   6.2015814934e+01    0.3590804    0.1597533  23.41  0.001213449    2.429    0.588
        55 -10.7239    105.8453     71.6100   3.5623452321e+01   4.7793587519e+01    0.3001405    0.2027671 -60.72 0.0007136372    1.839    0.456
        56 -11.1036     95.1862     70.4303   3.8638067771e+01   5.0385144914e+01    0.4899041    0.2144861 -44.76  0.001793193    2.336    0.572
        57 -12.2211     17.6273     69.8275   7.1439026836e+01   6.2099270616e+01    0.3503584    0.2561416  49.61  0.001563261    1.619    0.382
        58 -10.8033    147.0000     69.4987   2.4278902082e+01   3.8322334460e+01    0.3423556   0.08615841 -36.39 0.0009459584    4.026    0.752
        59 -10.4419     51.0032     69.0240   5.5468034344e+01   5.8714062992e+01    0.3822892    0.1717337 -71.08  0.001025333    5.662    0.823
        60 -10.5690    121.9808     66.5054   2.9319597187e+01   4.4984248560e+01    0.2198193     0.136693  78.67 0.0008098999    2.540    0.606
        61 -10.9241     37.2435     64.3763   6.0449761324e+01   6.1562599674e+01    0.3500555    0.2114332  73.72  0.001336117    3.429    0.708
        62 -10.5800    110.0177     63.8404   3.1744937209e+01   4.8323324945e+01    0.2530035    0.1805274  81.83 0.0009821565    1.971    0.493
        63 -13.1153    247.5516     61.3033   7.6300417333e+00   1.7135327869e+01    0.3074175    0.2770559  78.92   0.00122042    1.289    0.224
        64 -10.7045    100.4898     60.4937   3.3456429607e+01   5.1146300275e+01    0.2756592    0.1378839 -50.48  0.001033181    2.362    0.577
        65 -10.4540     63.3293     74.6722   5.1946176779e+01   5.5537681083e+01    0.1489515    0.1170671  74.73 0.0004609199    1.708    0.414
        66 -10.1276     57.8600     58.8892   4.8997798340e+01   5.9913764817e+01    0.1832806    0.1692157 -77.88 0.0003839872    1.295    0.228
        67 -12.5302      7.8241     58.2148   7.3874860094e+01   6.5508556861e+01    0.3059723    0.2160469  59.80  0.001707884    1.802    0.445
        68 -10.6498    131.2935     57.8449   2.4126231172e+01   4.4205592636e+01    0.2439498    0.1826482 -57.30 0.0008487166    1.466    0.318
        69 -10.8038    119.8543     56.8502   2.6618512393e+01   4.7202943688e+01     0.318761    0.2013211 -65.56  0.001277146    2.279    0.561
        70 -11.1317     86.4830     54.6085   3.5954980659e+01   5.5334360351e+01    0.2982294    0.2355259 -41.28  0.001236834    1.312    0.238
        71 -11.0222     62.0714     54.0986   4.5367751696e+01   6.0196877610e+01    0.2804479    0.2018867 -48.29 0.0003963513    1.438    0.305
        72 -10.8062     54.1755     54.3339   4.8995225069e+01   6.1460969323e+01    0.2945957    0.1724495 -70.99  0.001085745    3.371    0.703
        73 -12.9990    250.0847     25.0407   3.5981547300e+02   2.1146996167e+01    0.4237528    0.2379726 -22.83  0.002344976    2.139    0.532
        74 -10.4722    165.4954    249.4848   5.7713873506e+01   1.4676483137e+00     0.120761   0.09140605  18.26 0.0008101679    1.039    0.038
        75 -10.9871     92.6641     50.4199   3.2241238131e+01   5.4730107994e+01     0.253029    0.1961962 -48.01  0.001266335    1.403    0.287
        76 -11.4776     16.7710     44.9076   6.5324775932e+01   6.7971786979e+01    0.2323831    0.1816415 -81.46  0.001354775    1.587    0.370
        77 -11.9657    238.2944     42.4717   4.3882232141e+00   2.1348855479e+01    0.2101161    0.1683782 -43.69 0.0004835278    1.123    0.110
        78 -10.4366     28.1373     42.6360   5.7957381445e+01   6.7396403797e+01    0.1839637    0.1536969  -7.93 0.0008991776    1.132    0.116
        79 -12.1472      4.9390     41.0712   7.1295443461e+01   6.9602025257e+01    0.4080903    0.1783558 -82.62  0.001552097    3.833    0.739
        80 -11.0559     69.6249     41.3180   3.6984911282e+01   6.1193759179e+01    0.2993594    0.2168369  70.57  0.001405732    2.067    0.516
        81 -10.7766     37.1110     40.7479   5.2216458178e+01   6.6707500563e+01    0.2881737    0.1956358  64.47  0.001316757    2.714    0.631
        82 -10.8587    121.8425     37.0775   1.9105225125e+01   4.9756262220e+01    0.2661817    0.2049745  60.12 0.0009514244    1.207    0.171
        83 -10.1290     80.6618     36.3173   3.0609552119e+01   5.9718877815e+01    0.1407336    0.1146808 -83.89 0.0007048756    1.704    0.413
        84 -10.5791     22.7049     34.6765   5.8076929432e+01   6.9610613833e+01     0.136639   0.08469976 -25.33 0.0003309405    1.620    0.383
        85 -10.8788     12.3750     30.1897   6.2918457646e+01   7.1453864055e+01    0.1696831    0.1142442 -66.13 0.0005458372    1.707    0.414
        86  -9.9132    164.8039     28.3856   8.6266129355e+00   3.9865010414e+01     0.184282    0.1190149  60.72  0.000219626    1.486    0.327
        87 -10.4343    124.2985     28.3074   1.5374416073e+01   5.0277038744e+01    0.1884067    0.1556709 -76.12 0.0005457616    1.299    0.230
        88 -10.1895     81.5008     27.0300   2.6203222556e+01   6.0892812008e+01     0.197097    0.1124511 -54.07 0.0008099438    2.596    0.615
        89 -11.6065      3.4926     26.5017   6.7648212175e+01   7.2814777859e+01     0.211451    0.1163858 -75.87  0.001043063    2.436    0.590
        90  -9.8492    216.9779     25.9294   2.4271771659e+00   2.7794632285e+01    0.1498517    0.1235701 -60.99  0.000384938    1.016    0.016
        91 -10.4883     14.3288     20.3334   5.7338469673e+01   7.3229049390e+01    0.1348359   0.07844502 -22.74 0.0007051896    1.721    0.419
        92 -11.9486    181.6434    247.2676   5.4299480652e+01  -3.3440274835e-01    0.3677307   0.08581495  30.26  0.001310303    4.058    0.754
        93 -11.5186    148.1530    245.6324   6.0683234474e+01   4.3494383677e+00    0.3057975    0.2393264  84.50  0.001877646    2.243    0.554
