#   1 NUMBER                 Running object number                                     
#   2 MAG_AUTO               Kron-like elliptical aperture magnitude                    [mag]
#   3 X_IMAGE                Object position along x                                    [pixel]
#   4 Y_IMAGE                Object position along y                                    [pixel]
#   5 X_WORLD                Barycenter position along world x axis                     [deg]
#   6 Y_WORLD                Barycenter position along world y axis                     [deg]
#   7 A_WORLD                Profile RMS along major axis (world units)                 [deg]
#   8 B_WORLD                Profile RMS along minor axis (world units)                 [deg]
#   9 THETA_WORLD            Position angle (CCW/world-x)                               [deg]
#  10 FWHM_WORLD             FWHM assuming a gaussian core                              [deg]
#  11 ELONGATION             A_IMAGE/B_IMAGE                                           
#  12 ELLIPTICITY            1 - B_IMAGE/A_IMAGE                                       
         1 -14.9071      3.2132    121.5559   1.4195142385e+02   4.9471099997e+01     4.726386    0.2935952 -71.33   0.01252532    6.971    0.857
         2 -13.6751    200.2504     27.6052   6.6441800960e+01   3.1648358305e+01     1.599966     1.369267  24.46  0.006847852    1.427    0.299
         3 -13.6961    216.5224      8.3874   5.9736347759e+01   2.9822521628e+01     0.925692    0.8006146  74.23  0.002786796    1.165    0.142
         4  -9.9872     98.8139    148.8047   1.2088870025e+02   3.1930395621e+01     0.237902    0.2305802 -22.94 0.0005206947    1.199    0.166
         5 -13.2031    245.9448    248.3287   1.0822170511e+02  -1.0067508284e+01    0.8921483    0.5562369  26.70  0.006091227    1.264    0.209
         6 -11.7074    139.2003    248.7987   1.2695856318e+02   5.8647374577e+00    0.3320206    0.2753896 -47.59  0.002370998    1.528    0.345
         7 -11.9823    146.4697    248.4450   1.2560069096e+02   4.7916680430e+00    0.3585438    0.2911694  42.68  0.002530238    1.025    0.024
         8 -11.5160     98.0108    248.7968   1.3436392340e+02   1.2020214771e+01    0.2566357    0.2209858  41.82  0.001585572    1.294    0.227
         9 -10.6308     66.2884    250.3172   1.4002086977e+02   1.6084376412e+01    0.2529702   0.09970096  44.13  0.001106336    1.969    0.492
        10 -13.5609     32.1012    247.0743   1.4551528550e+02   2.0746240207e+01     1.507126    0.7780842  33.91  0.009415824    2.263    0.558
        11 -13.8687      8.5604    244.8721   1.4916246738e+02   2.3597132179e+01     1.683255    0.9749298 -88.18   0.01264209    1.461    0.316
        12 -14.8802     32.3244    229.2426   1.4443165624e+02   2.3908834362e+01    0.9422929    0.8496466 -69.34  0.007611964    1.563    0.360
        13 -10.9515     81.4991    249.0341   1.3729443345e+02   1.4285645945e+01    0.1837166    0.1232568  50.98  0.001253093    1.171    0.146
        14 -12.0495    198.6471    246.4527   1.1597779790e+02  -3.0390339929e+00    0.3719367    0.1975369  29.66  0.002099204    1.658    0.397
        15  -9.7553    185.6501    250.2997   1.1881235308e+02  -1.5418687308e+00    0.1121423   0.08212417  56.92 0.0007037272    1.690    0.408
        16 -12.3941    115.0198    232.1846   1.2951666601e+02   1.2276010712e+01    0.8250311   0.09576356  42.48  0.002337664    5.834    0.829
        17 -11.4207     50.5729    235.4372   1.4165809013e+02   2.0653006739e+01    0.2228585    0.1631438 -89.30  0.001552518    1.265    0.210
        18 -12.2410     90.4516    227.4057   1.3366270394e+02   1.6801581988e+01     0.648944    0.1524921  47.37  0.002440285    3.506    0.715
        19  -9.5548    175.3113    223.6708   1.1685805938e+02   3.8457600806e+00    0.1205197   0.09451863  66.91  0.000370549    1.668    0.400
        20 -12.9336     44.4658    215.6162   1.4129515357e+02   2.5110942908e+01    0.7494609    0.4567416  68.45  0.002941314    1.386    0.278
        21 -12.6631      9.3896    207.4287   1.4719761035e+02   3.0430464539e+01    0.6252185    0.4744679  27.56   0.00320892    1.853    0.460
        22  -8.8402    152.5952    213.1926   1.1967327362e+02   9.3967499628e+00    0.1528655    0.1238416 -31.75 0.0003148961    1.475    0.322
        23 -10.7143     57.4915    212.5179   1.3856106150e+02   2.4127011032e+01    0.2813458    0.1297721  66.37  0.001373671    2.346    0.574
        24 -10.7994     52.9984    204.2535   1.3870160398e+02   2.6345030889e+01    0.3554317    0.1876964  60.98  0.001599308    1.736    0.424
        25 -12.1717     56.6698    199.7472   1.3754469642e+02   2.6809969012e+01    0.2939245    0.2316831 -86.51 0.0005127281    1.151    0.131
        26 -12.3738     63.4874    191.1165   1.3524808071e+02   2.7739191282e+01    0.2534586    0.2212219  83.00   0.00045504    1.099    0.090
        27 -10.9351      6.9076    192.7186   1.4680565407e+02   3.3605477997e+01    0.2517516    0.1438652  58.52  0.001001831    1.478    0.323
        28 -13.2546     60.7122    176.2887   1.3417004854e+02   3.1318466717e+01    0.4874143    0.2648911 -48.74  0.001928102    2.254    0.556
        29 -11.0303     74.6548    177.8155   1.3122202968e+02   2.9094998448e+01    0.2373618    0.2057528 -83.87 0.0003599009    1.090    0.083
        30 -12.0918     11.4798    121.2450   1.3970515566e+02   4.8980481580e+01    0.5014677    0.2230476  48.44  0.002536674    2.553    0.608
        31 -14.0508      6.5751    150.4953   1.4386405674e+02   4.2693803139e+01     2.027647    0.7821121 -87.86  0.009397047    2.513    0.602
        32 -11.4811    159.7537    249.0336   1.2327313581e+02   2.6389756533e+00    0.3650819    0.1293064  48.40  0.001597239    2.715    0.632
        33 -12.0241     83.9955    151.9378   1.2515959962e+02   3.3583513723e+01     0.293679    0.2417349 -50.34 0.0005184017    1.291    0.226
        34 -12.1995     67.4922    143.3840   1.2794404010e+02   3.7965454255e+01    0.6412451    0.3919431  62.35  0.002281227    1.877    0.467
        35 -10.5382    108.2954    137.6567   1.1627808874e+02   3.2838656899e+01    0.4788476    0.3435272  -6.63  0.001645781    2.344    0.573
        36 -10.8163     95.0846    135.0510   1.1918043343e+02   3.5738387211e+01    0.2457278    0.2164301 -49.96 0.0003170377    1.151    0.131
        37  -9.4355    114.7518    130.0293   1.1295653831e+02   3.3385648035e+01    0.2418796    0.1713477 -23.28  0.001067927    1.956    0.489
        38  -9.3870    105.7524    124.0504   1.1397017849e+02   3.6419747131e+01    0.1959857    0.1793477 -57.26 0.0002318885    1.050    0.048
        39  -9.0574     95.2069    172.4433   1.2575676853e+02   2.7190159564e+01    0.1884376    0.1160518  53.48 0.0005263857    1.594    0.373
        40  -8.4994     68.2880    114.6868   1.2242258832e+02   4.4639243266e+01    0.1377323    0.1033103  83.19 0.0004002212    1.584    0.369
        41 -10.8650    243.3323     92.4967   7.7283297497e+01   1.2343091174e+01    0.2658814    0.1172551 -34.16  0.001100632    2.025    0.506
        42 -11.4961    159.0271     76.8400   8.7755780794e+01   3.4706861081e+01     0.365982    0.3096282 -59.60 0.0009782721    1.267    0.211
        43 -12.4015     82.8353    168.1563   1.2799766153e+02   3.0055783777e+01    0.7830976    0.6383736 -40.50  0.004516072    1.519    0.342
        44 -11.1082     95.4346    153.1267   1.2251570623e+02   3.1499590546e+01    0.3282505    0.3264984 -47.39 0.0008312847    1.164    0.141
        45 -11.7654    173.9564    248.6211   1.2066709669e+02   4.8422766767e-01    0.4349078    0.1703719  50.27  0.001913334    2.892    0.654
        46 -11.7272    124.4617    249.7264   1.2972319423e+02   7.9752344211e+00    0.4554598    0.1192819  41.61  0.001869536    2.971    0.663
