#   1 NUMBER                 Running object number                                     
#   2 MAG_AUTO               Kron-like elliptical aperture magnitude                    [mag]
#   3 X_IMAGE                Object position along x                                    [pixel]
#   4 Y_IMAGE                Object position along y                                    [pixel]
#   5 X_WORLD                Barycenter position along world x axis                     [deg]
#   6 Y_WORLD                Barycenter position along world y axis                     [deg]
#   7 A_WORLD                Profile RMS along major axis (world units)                 [deg]
#   8 B_WORLD                Profile RMS along minor axis (world units)                 [deg]
#   9 THETA_WORLD            Position angle (CCW/world-x)                               [deg]
#  10 FWHM_WORLD             FWHM assuming a gaussian core                              [deg]
#  11 ELONGATION             A_IMAGE/B_IMAGE                                           
#  12 ELLIPTICITY            1 - B_IMAGE/A_IMAGE                                       
         1  -8.2036     29.8475     16.1012   8.8724475275e+01   6.9583278189e+01     0.170871    0.1464817 -31.61  0.000961668    1.335    0.251
         2  -8.5820    135.1175     11.2371   5.2212840151e+01   5.0015755431e+01    0.2852319    0.1809444  66.54  0.001403208    1.500    0.333
         3  -8.5693     55.6817     10.0838   7.4119731239e+01   6.6952729588e+01    0.1830896    0.1648527  23.68 0.0007549508    1.317    0.241
         4  -8.0378     90.8005      8.9956   6.1590728106e+01   6.0536734617e+01    0.2009173    0.1405428 -49.31 0.0006640571    1.971    0.493
         5  -7.5764    101.6420      8.3022   5.8370576960e+01   5.8254113098e+01    0.1282355    0.1041571 -69.71  0.000703814    1.716    0.417
         6  -8.6264     33.4470      5.1914   8.1470400968e+01   7.0738802308e+01    0.2387991    0.1808833 -52.09  0.001412592    2.238    0.553
         7  -8.3607     79.0540      4.4534   6.2982926438e+01   6.3381684537e+01    0.2321947    0.1580527 -31.96  0.000962453    1.630    0.387
         8  -7.9108     44.5438      3.4841   7.5389441754e+01   6.9450564801e+01    0.1209547   0.09489466  -0.54 0.0001119655    1.017    0.017
         9  -7.9375    115.3600      2.6727   5.2856817464e+01   5.5597969772e+01    0.1346426    0.1006357 -66.51 0.0007042343    1.788    0.441
        10  -8.3548     62.1880      1.5765   6.7253185092e+01   6.6816697494e+01    0.1653053    0.1438574  43.57 0.0004890852    1.389    0.280
        11  -7.5366     39.2806      1.6214   7.6755899391e+01   7.0421078425e+01    0.1052288   0.08828883 -39.75 0.0007009297    1.714    0.417
        12  -8.9797    175.3347    247.3720   1.0208072367e+02  -1.5061835553e-01    0.2603369    0.2021747  68.59  0.001205639    1.768    0.434
        13  -9.1737    211.2320    247.1124   9.5626629739e+01  -5.7382392786e+00    0.2952456    0.1915918 -55.14   0.00153116    2.908    0.656
        14  -7.9026    183.2035    250.6106   1.0109966708e+02  -1.8223632989e+00    0.1774937   0.08826266  33.39 0.0009531105    1.697    0.411
        15  -8.4772     93.8107    249.3746   1.1704309630e+02   1.2198564545e+01    0.2101649    0.1218024  72.44     0.001245    1.862    0.463
        16  -7.5482     86.4142    250.5188   1.1843714691e+02   1.3060647447e+01    0.1150704   0.08353732  60.91 0.0002081462    1.054    0.051
        17  -8.7622    177.7889    242.5480   1.0097522122e+02   1.0792258828e-01    0.2446114    0.1661783  16.84 0.0008307138    1.668    0.401
        18  -8.9309    132.3121    247.8670   1.0997999262e+02   6.6311459434e+00     0.265252    0.1624413  57.38 0.0009528532    1.545    0.353
        19  -7.8707     40.4864    248.4960   1.2605116673e+02   1.9327042517e+01    0.1092119   0.07425631  66.04 4.331148e-05    1.033    0.032
        20  -9.9814    224.0011    244.2765   9.2969947444e+01  -7.3316185064e+00    0.4062437    0.2244632 -44.58  0.002285693    2.707    0.631
        21  -9.3255    147.1360    245.7500   1.0702259251e+02   4.5999355446e+00    0.3083314    0.2414843 -70.27  0.001548665    1.677    0.404
        22  -8.7665    146.3523    239.5466   1.0640129742e+02   5.6607783135e+00    0.3100968    0.2202407 -59.52  0.001556844    1.794    0.443
        23  -9.0295    120.0078    245.4252   1.1195489968e+02   8.9264094776e+00    0.3262019    0.1975981  75.27  0.001807457    2.202    0.546
        24  -8.6147    194.0212    244.3465   9.8282174690e+01  -2.7272941802e+00    0.1882168     0.146291   8.08 0.0006009662    1.324    0.245
        25  -8.6917    194.0946    239.6750   9.7587664212e+01  -2.1358567788e+00    0.1978984    0.1714353 -55.31 0.0006378465    1.650    0.394
        26  -8.2820    139.4610    244.9265   1.0833398729e+02   5.9491055673e+00    0.1506254   0.09804503  85.14 0.0008074686    2.471    0.595
        27  -7.8969     67.4041    245.2272   1.2131549614e+02   1.6537048542e+01    0.1458764   0.08903233  85.69 0.0005644957    1.611    0.379
        28  -8.8766      9.5584    243.7957   1.3073857782e+02   2.3495124612e+01    0.2280976    0.0710726  88.04  0.001133002    3.275    0.695
        29  -8.5838    201.8404    243.5698   9.6766490463e+01  -3.8598522881e+00    0.1843272    0.1552388 -57.89 0.0006288709    1.839    0.456
        30  -8.6979    169.0167    243.4561   1.0270814192e+02   1.4020082242e+00    0.1872726     0.164061  79.64  0.000704358    1.503    0.335
        31  -9.7046    160.1099    240.3717   1.0394316914e+02   3.2928347568e+00    0.3301664    0.2299738 -86.58  0.001520849    2.538    0.606
        32  -8.1816     88.4184    242.4507   1.1738589625e+02   1.4125718630e+01    0.1771324    0.0993315 -86.04 0.0005999384    2.156    0.536
        33  -8.8195     77.6110    242.9659   1.1935456123e+02   1.5551675707e+01     0.209376    0.1217246  84.24  0.001244664    1.854    0.461
        34  -7.7350     49.7126    243.3426   1.2420658093e+02   1.9111933977e+01    0.1163801   0.05959044  66.81  0.000532208    1.645    0.392
        35  -9.1586    183.3096    240.5149   9.9677788206e+01  -5.0912546162e-01    0.3996562    0.2357996  63.05  0.001882723    3.085    0.676
        36  -8.3421    153.5049    241.5946   1.0532889370e+02   4.1889130149e+00    0.1769141    0.1184814 -68.30 0.0008280296    2.197    0.545
        37  -8.9432    240.6945    239.5732   8.9365917276e+01  -9.2477166956e+00    0.2708005    0.1323954 -14.03  0.001385971    2.637    0.621
        38  -8.1536    208.9825    238.9163   9.4789831724e+01  -4.3999808993e+00    0.1620403    0.1389053  56.95 0.0005229953    1.621    0.383
        39  -8.8314    135.3904    238.8505   1.0836613544e+02   7.5434100297e+00    0.2358446    0.1293987  57.66  0.000968115    1.896    0.473
        40  -8.1398    128.9821    238.5695   1.0953210671e+02   8.6150188895e+00    0.1985068     0.144196  76.86 0.0008612789    1.612    0.380
        41  -9.1422    231.0079    237.2626   9.0653673715e+01  -7.5713725475e+00     0.226407    0.1891718 -56.92    0.0012684    2.167    0.539
        42  -9.8876    215.2365    233.6856   9.2855566846e+01  -4.7298931220e+00    0.5235061     0.389319  89.43  0.002480999    4.145    0.759
        43  -8.1169     58.4914    237.4539   1.2229163273e+02   1.9053291658e+01    0.2053038   0.06915487  48.77 0.0007477815    2.229    0.551
        44  -8.2773     25.7703    237.1615   1.2783783997e+02   2.2970132550e+01    0.2015276   0.06472565  64.14 0.0009656341    2.931    0.659
        45  -8.0938     13.3502    237.7263   1.2987987659e+02   2.4173865928e+01    0.1111467   0.05032657  62.65 0.0005214842    1.633    0.388
        46  -9.0299    203.1855    235.0260   9.5235246301e+01  -2.9884101135e+00    0.3108718    0.1805756 -47.70  0.001068092    2.433    0.589
        47  -7.6180    197.3019    236.3067   9.6500748213e+01  -2.2098894039e+00    0.1219896   0.08149972  14.63 0.0007011096    1.598    0.374
        48  -9.6369    175.5662    233.2743   1.0007247935e+02   1.7745024447e+00     0.414746    0.2753141 -64.31  0.002108683    2.459    0.593
        49  -8.1990    170.3810    236.1081   1.0144734107e+02   2.2248815069e+00    0.1470661    0.1175284 -67.81 0.0006451065    1.771    0.435
        50  -9.3372    108.8615    234.5841   1.1285909663e+02   1.2436101215e+01    0.3637723    0.2033952  64.61  0.001099004    1.935    0.483
        51  -8.0559    184.2146    235.6001   9.8800079807e+01   1.5884451642e-02    0.1817039   0.09547546  32.40 0.0009438183    1.687    0.407
        52  -8.0158    153.2828    235.6605   1.0459907159e+02   5.1202628345e+00    0.1194986   0.08699366  66.26 0.0003354332    1.629    0.386
        53  -8.4110     99.8112    234.6715   1.1456147110e+02   1.3796435067e+01    0.2219331    0.1290282  74.88   0.00117596    2.050    0.512
        54  -8.9020     78.7821    234.2416   1.1840291375e+02   1.6917597273e+01    0.2547095    0.1381809 -86.85 0.0009568839    2.130    0.530
        55  -8.1626    145.0031    233.4831   1.0588279602e+02   6.8271243214e+00    0.2089198    0.1194163  67.69 0.0007796658    2.764    0.638
        56  -8.5732    140.1349    230.1151   1.0637796621e+02   8.1742953618e+00    0.4000534    0.1746941  56.57  0.001668124    2.901    0.655
        57  -7.9353    122.8602    234.0613   1.1016012137e+02   1.0330707763e+01      0.19139    0.1229917  76.54 0.0006857081    2.003    0.501
        58  -9.3930     68.2330    232.3495   1.2016114940e+02   1.8698925681e+01    0.3982632    0.1601398  64.70  0.001810841    2.904    0.656
        59  -8.0333    194.5083    232.7817   9.6476568922e+01  -1.2860873234e+00    0.1368243    0.1210342 -56.45 0.0005247144    1.590    0.371
        60  -8.1046    132.7384    232.9356   1.0814885842e+02   8.9264161372e+00    0.1901336    0.1269452  76.04  0.001053072    1.967    0.492
        61  -9.1109    186.5872    231.0288   9.7678239989e+01   2.6155778539e-01    0.2948604    0.2242722  84.15  0.001376961    2.406    0.584
        62  -8.4832    158.1527    232.2484   1.0321702383e+02   4.8345607073e+00    0.1692836    0.1290149  58.27 0.0005175594    1.367    0.269
        63  -8.3078     92.2079    231.7093   1.1568579344e+02   1.5446560187e+01    0.2528022    0.1367909  66.44 0.0009968466    1.945    0.486
        64  -9.1184    236.1125    230.5626   8.8677019112e+01  -7.5554161238e+00    0.2324185    0.1770241 -24.73 0.0009079277    1.459    0.315
        65  -8.5215      1.8448    231.1153   1.3143166661e+02   2.6478498745e+01    0.1678673   0.09077644  68.08 0.0007155013    1.311    0.237
        66  -9.0557    151.3267    228.9763   1.0407457133e+02   6.4904400058e+00    0.2596552    0.1739456  89.17  0.001199056    2.599    0.615
        67  -9.4701    148.6860    224.6839   1.0399633463e+02   7.6299802215e+00     0.410877    0.2754692 -88.16  0.001491992    2.503    0.601
        68  -8.0249    229.7749    228.9937   8.9519315666e+01  -6.4096736209e+00    0.1580377    0.1434422 -70.65   0.00106223    1.973    0.493
        69  -8.8302    162.3575    227.9414   1.0181083052e+02   4.7914241903e+00    0.3235269     0.204603  60.41  0.001164932    1.935    0.483
        70  -8.3650    120.4072    228.3420   1.0995731058e+02   1.1694248473e+01     0.291357    0.1609145  69.54  0.001378252    2.547    0.607
        71  -8.7636      8.4520    228.9459   1.3027502022e+02   2.6237942821e+01     0.153881   0.05600028  74.03 0.0007907702    2.494    0.599
        72  -8.9684    127.9974    227.2790   1.0836101662e+02   1.0646779858e+01    0.2872575    0.1949565  72.61   0.00117722    1.751    0.429
        73  -9.0353    206.0888    226.2970   9.3326431384e+01  -2.3086289802e+00    0.2279777    0.1759315 -38.05 0.0009098695    1.582    0.368
        74  -8.4207     49.5323    226.9563   1.2311760931e+02   2.2090912040e+01    0.2337632    0.1137319  80.01  0.001276329    2.119    0.528
        75  -8.2181    200.0088    226.3157   9.4449753282e+01  -1.3105986831e+00    0.1743744    0.1396934  30.11 0.0005086685    1.049    0.047
        76  -8.8061    180.5670    224.4697   9.7812047724e+01   2.2213139047e+00    0.2671827    0.1942178  62.64 0.0007383895    1.805    0.446
        77  -8.9018    104.7901    223.7596   1.1245127553e+02   1.4974259088e+01    0.3198783    0.1949393  82.77  0.001623658    2.092    0.522
        78  -8.7638     93.9834    224.1509   1.1458349806e+02   1.6550559186e+01    0.3404915    0.1668854  66.22  0.001586008    2.484    0.597
        79  -7.8905     38.4600    224.9622   1.2495257802e+02   2.3783090624e+01    0.1624281   0.06898902  76.56 0.0008088923    2.512    0.602
        80  -8.9726    225.4467    222.1577   8.9136594696e+01  -4.8883566374e+00    0.2676524    0.2112689  10.42  0.001114688    1.079    0.073
        81  -8.7631    216.3983    223.5787   9.1000990274e+01  -3.6249550458e+00    0.2188102    0.2055885  64.26 0.0009656977    1.572    0.364
        82  -8.6570    172.9107    223.1074   9.9069888562e+01   3.7362052792e+00    0.2314376    0.1822167 -83.39 0.0008343706    1.953    0.488
        83  -7.9834    113.9829    224.0081   1.1069008895e+02   1.3482742240e+01    0.1969961    0.1285176  68.89 0.0006273389    1.645    0.392
        84  -8.2625     59.7641    223.9768   1.2102859265e+02   2.1361969643e+01    0.1973637   0.09932595  72.03 0.0009661924    2.021    0.505
        85  -9.3876    192.3954    221.2386   9.5058428592e+01   6.8102757381e-01    0.2949048    0.2427578 -65.32  0.001008312    1.810    0.448
        86  -9.3332    160.5227    221.4691   1.0122749117e+02   6.1265632919e+00    0.5549822    0.2475036  57.81  0.002038322    3.754    0.734
        87  -8.3355    140.3151    222.8490   1.0538282760e+02   9.3524018673e+00    0.1869914     0.148487  82.01  0.001139696    1.502    0.334
        88  -9.0876    238.9734    221.5757   8.6659707989e+01  -6.9167573435e+00    0.1968523    0.1608089 -35.50 0.0007295086    1.614    0.380
        89  -8.1879    202.6474    220.5405   9.3021387337e+01  -9.5107165138e-01    0.2142987    0.1547415 -36.85 0.0007493597    1.613    0.380
        90  -9.3170    120.4970    219.3956   1.0884637170e+02   1.3256569977e+01    0.4738278    0.2368709  66.19   0.00185889    3.117    0.679
        91  -8.7086     82.6127    220.4161   1.1639418446e+02   1.8915922355e+01    0.2807395    0.1555151  79.50  0.001202565    2.138    0.532
        92  -8.1871     72.8662    220.5820   1.1827840643e+02   2.0256713168e+01    0.2364077    0.1154776  69.68  0.001159845    2.317    0.568
        93  -8.0912     27.5910    220.7706   1.2660598528e+02   2.5791735882e+01    0.1974299   0.08516632 -72.99  0.001134514    2.129    0.530
        94  -8.3086    210.1554    219.5672   9.1468881776e+01  -2.0683663370e+00    0.1852663    0.1644268 -30.64 0.0005178088    1.377    0.274
        95  -8.4317    249.0684    218.5861   8.4408347298e+01  -8.0749592881e+00    0.3358606    0.2048243  59.78  0.001425907    4.563    0.781
        96  -9.3728    132.9282    216.1415   1.0593862175e+02   1.1766152672e+01    0.4550973    0.2766185  81.09  0.002057813    2.828    0.646
        97  -8.8659     51.4330    217.0507   1.2202344196e+02   2.3741669087e+01    0.2602516    0.1476058 -87.88  0.000918088    1.662    0.398
        98  -8.7584    142.6443    216.3154   1.0401640474e+02   1.0074382901e+01    0.2630115    0.1892794 -85.81  0.001170241    1.932    0.482
        99  -8.1096    111.7515    216.9801   1.1028772993e+02   1.5116239104e+01    0.2042373    0.1285533  77.03  0.001044658    1.971    0.493
       100  -8.5819     61.6558    217.1336   1.2010405006e+02   2.2424373258e+01    0.1886514    0.1171972  78.25  0.001142635    1.482    0.325
       101  -8.3420    154.3709    215.2325   1.0151652087e+02   8.2228152257e+00    0.2009741    0.1656521 -70.90 0.0005132963    1.511    0.338
       102  -7.5314     18.6705    216.3038   1.2791288443e+02   2.7582345448e+01    0.1176724   0.05718447  65.49 0.0003514227    1.651    0.394
       103  -8.6330    232.1922    214.9119   8.6684018039e+01  -5.0315924450e+00    0.2077865    0.1897856   0.27 0.0008006101    1.286    0.222
       104  -8.3384    185.7959    214.7112   9.5257014331e+01   2.7884281994e+00    0.2045584    0.1679205 -89.27 0.0008232545    1.899    0.473
       105  -9.0455     93.2776    214.2465   1.1365485276e+02   1.8517776286e+01     0.417553    0.1644079  55.81   0.00148129    2.670    0.626
       106  -9.5187    214.0556    212.3578   8.9513871531e+01  -1.7254283021e+00    0.3464924    0.2566226  54.44  0.001365439    1.753    0.429
       107  -9.4320     73.5585    212.2641   1.1735459023e+02   2.1769963718e+01    0.6303607    0.2052305  58.60  0.002224344    4.199    0.762
       108  -8.8824    161.6554    212.5956   9.9661595140e+01   7.3834225889e+00    0.2311304    0.1949439 -89.83 0.0007007748    1.531    0.347
       109  -7.9955    106.4975    212.9244   1.1084853819e+02   1.6716432898e+01    0.1718577    0.1217087 -73.34 0.0009950565    1.544    0.352
       110  -7.8115    224.5793    212.4747   8.7613830362e+01  -3.4859833946e+00    0.1247561    0.1042064  15.86 8.452546e-05    1.055    0.052
       111  -9.0483    204.3244    211.0189   9.1095804035e+01   1.2060135975e-01    0.2478327    0.2245916 -76.34 0.0006899189    1.641    0.391
       112  -9.4219    175.7594    210.2684   9.6488292312e+01   5.2581537802e+00     0.381096    0.2640847  75.82  0.001473312    2.551    0.608
       113  -9.0947      7.0483    210.1993   1.2962236487e+02   2.9894509996e+01    0.4558377    0.1251586  74.24  0.001597446    5.550    0.820
       114  -7.6551    242.6647    211.7409   8.4286954931e+01  -6.2708053995e+00      0.12587   0.07834381  13.18 0.0002342462    1.575    0.365
       115  -8.0307    192.2823    210.6566   9.3328546594e+01   2.2699258890e+00    0.2077626    0.1585287 -51.78 0.0007179834    1.704    0.413
       116  -8.8016    147.9149    210.5415   1.0211232252e+02   1.0163724712e+01    0.2756538    0.1953571  70.28  0.001072514    1.771    0.435
       117  -8.9890    116.3668    210.5421   1.0854434962e+02   1.5567021995e+01    0.3248006     0.193296  68.70  0.001061151    2.060    0.515
       118  -8.4409     32.6261    210.7628   1.2505765540e+02   2.7179084557e+01    0.2575456    0.1006494  76.76  0.001162408    3.011    0.668
       119  -8.6760     85.6701    209.4603   1.1465212680e+02   2.0586888419e+01    0.3376398     0.176048  72.47  0.001526611    2.423    0.587
       120  -8.7676    169.3477    216.4564   9.8740014545e+01   5.3965357640e+00    0.2499324    0.2073306  79.88 0.0008663762    1.605    0.377
       121  -9.3452    236.5195    207.9493   8.4673258666e+01  -4.8191006626e+00    0.3856041    0.2276578 -34.31   0.00157665    1.809    0.447
       122  -8.2453    126.6700    208.6081   1.0617295000e+02   1.4201761193e+01    0.2104639    0.1524486  85.50 0.0007530125    1.690    0.408
       123  -9.2084    246.4413    207.3858   8.2846220413e+01  -6.3074200393e+00    0.2297337    0.1892758 -15.96  0.000540277    1.249    0.199
       124  -8.0873    156.6259    208.2925   1.0000140474e+02   9.0097328538e+00    0.1993223    0.1471356  70.44 0.0009537681    1.720    0.418
       125  -8.5194    139.0753    208.1323   1.0355716065e+02   1.2146248642e+01    0.2482746    0.1604316  58.96 0.0009324617    1.615    0.381
       126  -9.2773     99.3595    206.1672   1.1148144610e+02   1.9152489965e+01     0.380235     0.227402  86.41  0.001373612    2.159    0.537
       127  -8.4461     56.4705    205.3349   1.2007267313e+02   2.5433371217e+01       0.2964    0.1472035  75.81  0.001123766    2.223    0.550
       128  -8.1001     11.6614    206.7207   1.2862460555e+02   3.0137564844e+01   0.09235176   0.07770119 -63.91  0.000361358    1.620    0.383
       129  -9.0252    183.8088    204.0296   9.3847023509e+01   4.8196837832e+00    0.3075627     0.231629  67.85  0.001038734    1.858    0.462
       130  -8.7365    131.3604    204.0057   1.0454687749e+02   1.4255989417e+01    0.3178073    0.2086084  82.85  0.001297616    2.220    0.550
       131  -7.9733    109.1990    205.2715   1.0933387877e+02   1.7754181144e+01    0.1831492    0.1322551  69.41 0.0005400782    1.379    0.275
       132  -8.2540     25.0361    204.8246   1.2606860103e+02   2.9176554469e+01    0.2141452    0.1111384  82.32  0.001140845    1.671    0.401
       133  -9.2801    194.8813    203.5272   9.1590106386e+01   2.9058964531e+00    0.3638002    0.2787246  -8.89  0.001556989    1.447    0.309
       134  -9.2536    192.4031    197.3112   9.0960959162e+01   4.3393274252e+00    0.3238354    0.2499183 -52.14  0.001285502    1.632    0.387
       135  -9.6469    163.7621    203.1416   9.7722654478e+01   8.6136499450e+00    0.3836136    0.2520124  59.15   0.00100384    1.772    0.436
       136  -9.4189    250.1012    201.9197   8.1210167736e+01  -6.1807929295e+00    0.3330366     0.165292 -29.52  0.001319928    1.961    0.490
       137  -7.6860     41.3195    202.9830   1.2283991027e+02   2.7754870464e+01    0.1953903   0.07259642  83.35 0.0007049543    4.309    0.768
       138  -8.0253     17.3323    203.6648   1.2742066203e+02   3.0191847737e+01    0.1225898   0.05928235  66.88 0.0007052196    1.734    0.423
       139  -9.3015    243.1247    200.8297   8.2204511480e+01  -4.9414064030e+00    0.2942941    0.1929001 -36.93  0.001029803    1.720    0.419
       140  -8.4260    210.9314    202.1574   8.8276309602e+01   2.7224365865e-01    0.1851106    0.1701868  41.62 0.0004887488    1.293    0.226
       141  -8.7829    140.4546    201.1049   1.0221259504e+02   1.3195301836e+01    0.3505953    0.2292151  80.41  0.001256472    2.395    0.582
       142  -8.6597     80.1765    201.3438   1.1487908758e+02   2.3020890055e+01    0.3149256     0.169111  71.10  0.001493388    2.167    0.539
       143  -8.3083     48.3666    202.2217   1.2139932919e+02   2.7074702845e+01    0.1732505   0.09285036 -89.51 0.0009103818    1.800    0.444
       144  -9.0594    237.0196    198.8462   8.2900623795e+01  -3.6879378579e+00    0.2548319    0.1775094 -40.59  0.001226877    1.738    0.425
       145  -9.4993    149.6023    198.7173   9.9921702382e+01   1.1986255932e+01    0.4358719     0.296852  88.59  0.001383179    2.397    0.583
       146  -8.9842    123.9085    199.3641   1.0543496038e+02   1.6437277677e+01    0.2971202      0.20457  80.46  0.001116698    1.831    0.454
       147  -9.2484    112.8490    198.4933   1.0765762798e+02   1.8488949758e+01    0.4175014    0.2428185  68.66  0.001557455    2.183    0.542
       148  -9.2621     88.9551    198.2588   1.1268928242e+02   2.2351580996e+01    0.4750244     0.272252 -83.56  0.001936574    2.066    0.516
       149  -8.4749    176.9455    199.1018   9.4362357578e+01   6.8871140572e+00    0.2008262    0.1761673  66.96  0.000596168    1.355    0.262
       150  -8.3056    202.6692    198.1645   8.9118173224e+01   2.3406150646e+00    0.1877467    0.1710802 -65.17 0.0007555684    1.501    0.334
       151  -9.2194     61.2751    196.9591   1.1831566488e+02   2.6536891451e+01     0.398243    0.1933941  69.81  0.001436035    2.347    0.574
       152  -7.9584     12.5260    198.0391   1.2797362854e+02   3.1787294211e+01    0.1636374   0.06496011  75.85 0.0006451935    2.445    0.591
       153  -8.1551     53.6689    196.6969   1.1984595085e+02   2.7564767580e+01     0.252849    0.1202351  82.61  0.001171192    2.509    0.601
       154  -9.7718    245.6858    193.8694   8.0441732445e+01  -4.4277986051e+00    0.3487765    0.2876054 -77.87  0.001388541    2.536    0.606
       155  -8.8685    215.8843    195.3794   8.6090741562e+01   4.0812138866e-01    0.3102784    0.1821706 -48.41 0.0008654725    2.292    0.564
       156  -9.0688    216.5092    187.8294   8.4527411163e+01   1.4384587673e+00    0.3227532    0.2137336 -38.38   0.00105377    1.629    0.386
       157  -8.2231    133.0453    196.0742   1.0299953498e+02   1.5473277371e+01     0.215456    0.1525748  71.60 0.0006777664    1.673    0.402
       158  -8.8875    224.5273    194.0423   8.4236906421e+01  -9.0633720334e-01    0.2955657     0.195713 -54.15   0.00103782    2.417    0.586
       159  -7.4993    209.2906    195.6746   8.7389958079e+01   1.5353380571e+00    0.1195686     0.108063  82.56 0.0006589894    1.614    0.381
       160  -8.9168    185.3247    194.8514   9.1920394265e+01   6.0492667752e+00    0.2372443    0.2060587  68.40 0.0006540642    1.438    0.305
       161  -9.1348    160.9068    194.2416   9.6811619612e+01   1.0717189878e+01    0.2852675    0.2221192  82.19 0.0009285345    1.745    0.427
       162  -8.9874     43.9611    193.5433   1.2153352964e+02   2.9401109080e+01    0.4199282    0.1787792  70.03  0.001873908    2.780    0.640
       163  -8.3337    231.1264    194.1999   8.3069348757e+01  -2.0603579337e+00     0.159722    0.1532242  -9.70 0.0005022687    1.330    0.248
       164  -8.8743     77.1571    193.8503   1.1466450983e+02   2.5010490171e+01    0.2624233    0.1776152  70.76 0.0006871574    1.393    0.282
       165  -8.5486    172.4478    191.9817   9.4019753902e+01   8.9548901625e+00    0.2773464    0.2186409  89.91  0.001098176    1.857    0.462
       166  -8.1553    199.1162    191.8757   8.8638976873e+01   3.9806072340e+00    0.1920249    0.1814114  55.72 0.0006153579    1.283    0.221
       167  -8.4650    178.9756    191.7153   9.2633381479e+01   7.7706431015e+00    0.2197756    0.1815222 -66.82 0.0005886799    1.585    0.369
       168  -9.1762    139.6549    190.8830   1.0075577213e+02   1.5286892186e+01    0.3714986    0.2504519  79.35  0.001163734    2.163    0.538
       169  -8.1031     23.1662    192.3783   1.2558149721e+02   3.1910079697e+01     0.165812   0.08022498  49.81 0.0009551032    1.798    0.444
       170 -10.4006     92.1606    188.5326   1.1077233105e+02   2.3890118740e+01    0.9267089    0.4047109  54.54  0.003317249    2.384    0.581
       171  -8.5232    148.4803    189.1604   9.8569772710e+01   1.3986589633e+01    0.2617894    0.1906958 -67.86 0.0008474077    1.695    0.410
       172  -8.2959    237.1707    188.6362   8.0915291194e+01  -2.2976003504e+00    0.2106904    0.1594193 -30.85 0.0006215074    1.374    0.272
       173  -9.2927    156.0039    187.4891   9.6669461369e+01   1.2888299077e+01    0.3495929    0.2253512 -59.19 0.0009617346    1.898    0.473
       174  -8.9522    129.1937    188.5732   1.0265155690e+02   1.7641532211e+01    0.2810728    0.2027466  75.67 0.0009171622    1.659    0.397
       175  -9.8822    120.8869    186.8326   1.0420054601e+02   1.9471598663e+01    0.5238428    0.2921954 -75.69  0.002189224    2.684    0.627
       176  -8.6879     34.3273    188.2759   1.2304458278e+02   3.1603287488e+01    0.3054803    0.1311061  70.31  0.001146335    2.568    0.611
       177  -8.8415    191.6791    187.6180   8.9304396479e+01   6.0700721638e+00    0.3120708    0.2216471  76.32  0.001118413    2.565    0.610
       178  -9.3103    109.7361    186.4226   1.0660327051e+02   2.1479739947e+01    0.3953733    0.2493459  76.87  0.001427178    2.052    0.513
       179  -9.1229     54.6273    186.8716   1.1869422724e+02   2.9530496691e+01    0.3981546    0.1958577  75.57   0.00174492    2.400    0.583
       180  -8.3853    230.1979    187.1273   8.1866771646e+01  -8.8369753893e-01    0.2167734    0.1728872  65.15  0.001178291    1.955    0.489
       181  -8.7536    164.8640    186.6618   9.4641140639e+01   1.1355175153e+01    0.2474375    0.2060623 -62.55 0.0006599444    1.423    0.297
       182  -8.7157    249.2211    185.5548   7.8217609368e+01  -3.8747527053e+00    0.2253198     0.158497 -26.53 0.0006280454    1.349    0.259
       183  -8.7164    210.1265    184.2198   8.5032272109e+01   3.1694395619e+00     0.259239    0.1849264 -37.93 0.0005431479    1.503    0.334
       184  -8.6606    182.9449    184.7690   9.0529407166e+01   8.2236488816e+00    0.2448331    0.2048057 -52.93 0.0005615584    1.410    0.291
       185  -9.0398     66.6619    184.4802   1.1584912330e+02   2.8480494301e+01    0.3601547    0.2098821  74.74  0.001141357    1.830    0.454
       186  -8.4215    224.1736    183.8822   8.2325585767e+01   6.6202428802e-01    0.1861584    0.1765501  -0.84 0.0004234699    1.213    0.176
       187  -9.1363    174.1777    183.1798   9.2040800578e+01   1.0198593778e+01    0.3403379    0.2365385 -57.64 0.0009066758    1.806    0.446
       188  -8.5917    139.3451    184.0258   9.9674980958e+01   1.6694985949e+01    0.1876563    0.1779919 -88.05 0.0004051142    1.110    0.099
       189  -8.1405      2.1736    183.7347   1.2909941416e+02   3.5641651022e+01    0.1795098    0.1102766  48.43  0.001161506    1.555    0.357
       190  -9.2658    241.2127    181.6624   7.8825267373e+01  -1.9917084802e+00    0.3851716    0.2146552 -49.73  0.001728984    2.796    0.642
       191  -8.9755     44.3909    182.2635   1.2041729961e+02   3.1765179194e+01    0.3628208    0.1885435  79.43  0.001372463    2.012    0.503
       192  -9.3062    147.5542    180.7693   9.7302672310e+01   1.5793993409e+01    0.3676178    0.2730891  80.38  0.001107494    1.788    0.441
       193  -8.8330      6.5737    190.3080   1.2863805214e+02   3.3906773534e+01     0.216382    0.0850016 -84.97  0.001145872    2.118    0.528
       194  -9.4208     25.7488    179.2117   1.2407258860e+02   3.4443253883e+01    0.6455904    0.2265959  77.62  0.002241941    4.761    0.790
       195  -7.5000    235.2733    181.6360   7.9867229795e+01  -9.6422661201e-01    0.1199978    0.1051542 -58.14 0.0003800871    1.663    0.399
       196  -8.8206    137.5122    179.2016   9.9245867284e+01   1.8009952394e+01    0.3122841    0.2219256 -88.93  0.001065762    1.941    0.485
       197  -9.3853    191.5557    178.4289   8.7544550786e+01   7.6642614802e+00    0.3084944    0.2584347  70.21 0.0006844848    1.554    0.356
       198  -8.3860    169.3035    178.7922   9.2233897859e+01   1.1956278243e+01    0.2576619    0.2137615  86.11  0.001096655    1.577    0.366
       199  -9.0794     35.8118    176.5978   1.2172208751e+02   3.3966341088e+01    0.4954604    0.1919513  82.48  0.001828021    3.980    0.749
       200  -9.5368    248.4798    176.6151   7.6555415850e+01  -2.5045917257e+00    0.4329916    0.2709552 -47.19  0.002202395    2.146    0.534
       201  -8.6103    250.5281    172.9247   7.5456466505e+01  -2.3252176870e+00    0.1910539    0.1160246 -30.03 0.0006342009    1.529    0.346
       202  -8.4363    231.3539    177.2291   7.9679786262e+01   3.8224362025e-01    0.2205349    0.1586682 -37.73 0.0006432089    1.486    0.327
       203  -8.7037    205.0609    177.5617   8.4686016843e+01   5.2052747392e+00    0.2527829    0.1940397 -50.91 0.0008598418    1.603    0.376
       204  -8.8132    129.1481    177.4358   1.0081661888e+02   1.9929733912e+01     0.326478    0.2179799 -86.44 0.0009878803    2.142    0.533
       205  -8.2399     97.4706    177.7079   1.0807310939e+02   2.5378052195e+01    0.2597996    0.1648257  27.39 0.0009013909    2.023    0.506
       206  -8.2642    217.5695    177.3001   8.2234116675e+01   2.8874195269e+00    0.1855139     0.163118 -68.25 0.0006790487    1.626    0.385
       207  -8.5915    202.7804    184.7364   8.6554861331e+01   4.4559155245e+00    0.2447821     0.186204 -47.56 0.0006172488    1.569    0.363
       208  -9.3431    183.2198    175.7652   8.8721388138e+01   9.7704605982e+00      0.39209    0.2266909 -40.88 0.0009035943    1.840    0.457
       209  -9.4168    158.9194    175.0485   9.3754863366e+01   1.4713491574e+01    0.4378425    0.3076805  85.17  0.001451052    2.306    0.566
       210  -8.6880     89.0602    176.6546   1.0984331642e+02   2.6944449779e+01    0.3146676    0.1957304 -88.92  0.001043695    1.898    0.473
       211  -9.1184     58.9858    175.9858   1.1657477332e+02   3.1364169534e+01    0.4319873    0.1778648  61.46  0.001557662    3.081    0.675
       212  -9.5303     55.9765    171.4572   1.1673303374e+02   3.2760573121e+01    0.4630278    0.2248641  80.61  0.001957784    2.774    0.640
       213  -8.8376     12.9949    176.8062   1.2651771461e+02   3.6169188559e+01    0.2632317    0.1125631  66.74  0.001347971    2.258    0.557
       214  -9.4675    104.2690    174.6632   1.0604944922e+02   2.4921000075e+01    0.5114863    0.3133686  79.63  0.001597911    2.262    0.558
       215 -10.6472     75.8576    170.8509   1.1208460333e+02   3.0218702130e+01     1.040578    0.4300876 -81.32  0.003300411    4.612    0.783
       216  -8.5407    224.6402    174.4907   8.0343170189e+01   2.0207652612e+00    0.2465995    0.2017581 -58.28 0.0007872859    1.723    0.420
       217  -7.3312    241.3227    174.3188   7.7318754826e+01  -9.4570748132e-01    0.1395366   0.09243163   6.04 0.0004520873    1.670    0.401
       218  -9.7258    175.7833    172.3624   8.9599736025e+01   1.1874081992e+01    0.3469477    0.2704485 -44.00 0.0008840868    1.377    0.274
       219  -8.6145    143.0723    172.7267   9.6832130657e+01   1.8274092871e+01    0.2360376     0.198292 -76.33  0.000582622    1.344    0.256
       220  -8.8159    134.7726    171.9297   9.8566841008e+01   2.0028871524e+01     0.258037    0.1977815 -83.05 0.0008575663    1.580    0.367
       221  -9.5608    121.4281    170.2912   1.0134748864e+02   2.2862224615e+01    0.4448034    0.2843013 -77.33  0.001216345    2.062    0.515
       222  -9.0337     45.0779    171.1034   1.1915162518e+02   3.4151904322e+01    0.3492951    0.1784457  85.83  0.001152748    2.122    0.529
       223  -8.8315    230.7581    170.3140   7.8363373524e+01   1.5463385430e+00    0.2242785    0.1775085 -32.97  0.001277879    1.295    0.228
       224  -8.6339    205.7405    170.4417   8.3095054620e+01   6.2682885698e+00    0.2378007    0.1690689 -45.74 0.0005989924    1.587    0.370
       225  -8.1620    237.1990    169.8666   7.7121600730e+01   4.4730803168e-01    0.1907529    0.1742288 -29.62 0.0005314886    1.263    0.208
       226  -8.4897    198.6494    170.1739   8.4441914373e+01   7.7078851713e+00    0.2108656     0.179054 -55.69 0.0006831552    1.437    0.304
       227  -9.1942    167.2862    168.7632   9.0699625340e+01   1.4267675385e+01    0.4061302    0.2691509  72.27  0.001063713    2.413    0.586
       228  -8.7827    149.8777    169.6581   9.4721677918e+01   1.7571069524e+01    0.2970834     0.239427  85.63  0.001025238    1.533    0.348
       229  -8.9705     74.3452    160.3414   1.1096854968e+02   3.2838749053e+01    0.2444514    0.1712891  10.14  0.001051177    2.378    0.579
       230  -7.8676    244.7050    169.5524   7.5750716278e+01  -8.3517271858e-01    0.1664071    0.1269107  49.87 0.0009349463    1.606    0.377
       231  -8.7990    111.9835    167.6202   1.0309677324e+02   2.5140541059e+01    0.3610802    0.2179444 -83.44  0.001131414    2.430    0.588
       232  -8.2692     88.7841    169.1295   1.0881421265e+02   2.8666377300e+01    0.2175144    0.1642047  77.56 0.0007929372    1.323    0.244
       233  -8.3018    218.8861    168.5137   8.0171417252e+01   4.0505542453e+00    0.1995578    0.1312697  41.73 0.0004227585    1.497    0.332
       234  -8.0396    211.5088    168.0302   8.1471606546e+01   5.5503402202e+00    0.2097529    0.1349356 -36.17 0.0007138145    1.572    0.364
       235  -8.7664    185.1848    166.8853   8.6505748795e+01   1.0995214392e+01    0.2872549    0.1962767 -54.53 0.0008468264    1.784    0.440
       236  -8.8594    191.8672    166.4355   8.5033043369e+01   9.7249033823e+00    0.3263186    0.2025882 -46.62 0.0008028147    1.779    0.438
       237  -9.9968     95.0003    162.5758   1.0630973932e+02   2.9159836588e+01    0.8912743    0.5220631  84.08  0.003287079    2.562    0.610
       238  -9.0364     20.9526    166.5594   1.2405341877e+02   3.7677329399e+01    0.3143556    0.1323964  57.33  0.001097828    2.338    0.572
       239 -10.0383    136.7862    164.3407   9.6686564626e+01   2.1244365470e+01    0.6657618    0.3531188  59.16  0.002442704    2.425    0.588
       240  -7.7192    250.6753    165.2139   7.3834816511e+01  -1.2369217938e+00    0.1856403    0.1086857 -23.14 0.0005626865    1.627    0.385
       241  -8.0899    233.8530    165.1126   7.6716135042e+01   1.7841440112e+00     0.194464    0.1762587 -35.86 0.0005425452    1.277    0.217
       242  -8.7594    159.4056    164.4725   9.1565234728e+01   1.6710305742e+01    0.2906287    0.2406867  89.42 0.0007323446    1.509    0.337
       243  -9.3582     33.6673    163.5098   1.2094632167e+02   3.7111615449e+01    0.5093716    0.1925511  56.99  0.002196732    2.927    0.658
       244  -8.1330    239.8011    163.9769   7.5428874391e+01   8.7279756784e-01    0.2677562    0.1990037 -76.12  0.001241156    2.824    0.646
       245  -8.6042    212.8887    163.6658   8.0281038642e+01   6.0126844085e+00    0.2564064    0.1964176 -41.20 0.0005743488    1.395    0.283
       246  -8.0133     56.3030    163.8673   1.1575304360e+02   3.4444575782e+01    0.2456208    0.1607891  -2.74  0.001085011    3.453    0.710
       247  -8.7440    246.0236    162.9996   7.4152590206e+01  -9.4783859812e-02    0.2047834    0.1761912  -9.86 0.0004712125    1.044    0.042
       248  -8.4187    204.9589    162.9535   8.1667645584e+01   7.7069125189e+00    0.2083054    0.1791557 -79.86 0.0004990833    1.629    0.386
       249  -9.2344      3.3650    162.4061   1.2751857841e+02   4.0088279416e+01    0.3577408    0.1476777  58.87  0.001505486    2.314    0.568
       250  -9.1576    177.4082    160.9416   8.6897282484e+01   1.3705433642e+01    0.2789412    0.2496824 -76.88 0.0008623655    1.344    0.256
       251  -9.1668    151.6338    161.1428   9.2638217854e+01   1.8965511630e+01    0.3163326     0.240953 -82.13 0.0009545105    1.745    0.427
       252  -8.7537     60.6492    160.3113   1.1426903434e+02   3.4710769508e+01    0.2857572    0.1742333  73.58 0.0009014405    1.779    0.438
       253 -10.1885    250.1688    157.8679   7.2365938440e+01  -6.2880695893e-02    0.6651993    0.3429969  31.28  0.003056532    2.173    0.540
       254  -9.6984    246.5594    155.5189   7.2464675122e+01   9.3773828054e-01    0.4795984    0.2814977  -1.41  0.002087242    2.438    0.590
       255  -8.6776    227.3909    159.0228   7.6573860145e+01   3.9630598035e+00    0.3256111    0.2166314 -56.41 0.0009890681    2.223    0.550
       256  -8.4474    128.1369    159.2145   9.7733817548e+01   2.4020064678e+01    0.2727316    0.1878691 -85.41 0.0007515851    2.009    0.502
       257  -9.6613    105.8055    157.9652   1.0289774466e+02   2.8388837049e+01    0.4986048    0.3239775 -89.83  0.001235327    2.072    0.517
       258  -8.4691    237.1153    158.8922   7.4811635494e+01   2.1495337227e+00    0.1996772    0.1848382 -40.77 0.0007390346    1.296    0.228
       259  -8.8245    196.6169    158.1395   8.2291062742e+01   1.0253576487e+01    0.2823898    0.2280599  80.00 0.0007115094    1.762    0.433
       260  -8.3312    188.1363    157.7593   8.3948229582e+01   1.2078991977e+01    0.2449014    0.1985737 -49.24 0.0006284879    1.357    0.263
       261  -9.1807    167.5535    157.3853   8.8281335705e+01   1.6449971737e+01    0.3295023    0.2690071 -88.06 0.0009733897    1.604    0.376
       262  -8.3564     79.5418    158.4628   1.0942150510e+02   3.2516347775e+01    0.2258135    0.1299282  40.10   0.00108781    1.765    0.433
       263  -9.3496     81.9929    155.2844   1.0832064265e+02   3.2888106125e+01    0.4519684     0.245456  69.71  0.001432031    2.617    0.618
       264  -8.4895    217.9680    156.4740   7.7758802453e+01   6.2205531818e+00    0.2665072    0.1866971 -48.68 0.0007733416    1.669    0.401
       265  -9.1097    157.5471    155.7761   9.0178194215e+01   1.8859358338e+01    0.3583521    0.2488006 -56.77  0.001108261    1.620    0.383
       266  -9.5365    119.5638    155.3292   9.9050603269e+01   2.6502232966e+01    0.4672607    0.2987497 -80.54  0.001584626    2.212    0.548
       267  -7.9300    204.8365    155.7499   8.0125630250e+01   8.9928471662e+00    0.1879099    0.1714791 -64.26 0.0004251072    1.341    0.254
       268  -9.2266     49.3957    155.1193   1.1631673111e+02   3.7303129772e+01     0.371413    0.1891423  70.25  0.001551621    2.426    0.588
       269  -9.0527    233.4071    147.5896   7.2983236537e+01   4.6535712832e+00    0.2749746     0.195195 -41.67 0.0007263799    1.458    0.314
       270  -8.5897    239.7209    153.2941   7.3144950025e+01   2.5397385993e+00    0.2206832    0.1157595 -41.37   0.00039953    1.952    0.488
       271  -8.1871    237.2284    150.4158   7.2943846532e+01   3.4644635012e+00    0.1731467    0.1348174  54.69 0.0003579763    1.562    0.360
       272  -8.7890    144.4490    154.7860   9.2989857608e+01   2.1758045030e+01    0.2838978    0.2256713  75.92 0.0007904103    1.493    0.330
       273  -9.4357    133.6607    148.6687   9.4281919160e+01   2.5259995708e+01    0.3709264    0.2545612 -37.91  0.001233363    1.639    0.390
       274  -9.3640     68.1429    153.8534   1.1154217422e+02   3.5218351904e+01    0.4425615    0.2499568  74.10  0.001539836    2.276    0.561
       275  -8.0130    233.1484    154.1626   7.4482388833e+01   3.6439496320e+00    0.1822885    0.1636238 -49.11 0.0004807105    1.347    0.258
       276  -8.2403    151.5885    152.8227   9.0914694308e+01   2.0709165997e+01    0.2103746    0.1438503 -59.96 0.0007812238    1.686    0.407
       277  -8.0852    182.6477    151.6790   8.3762242336e+01   1.4383441425e+01    0.2743614    0.1752761 -61.89  0.001013821    2.255    0.557
       278  -9.6668     29.3954    150.8675   1.2064146776e+02   4.0426089304e+01    0.4153151    0.1987022  70.75  0.001942711    2.440    0.590
       279  -8.4700      2.4818    150.2330   1.2682987765e+02   4.2835428096e+01    0.3535941    0.0838583 -74.90  0.001444043    3.123    0.680
       280  -9.6879    248.7633    149.5498   7.0802364155e+01   1.4480744270e+00    0.3512897    0.2005721 -32.32 0.0007942387    1.592    0.372
       281  -8.9056    247.0672    143.7717   6.9810341339e+01   2.6536991433e+00    0.2801225    0.1753187 -26.20 0.0006399155    1.482    0.325
       282 -10.1951    243.2282    150.0842   7.1843798591e+01   2.3867451938e+00     1.278283    0.1843449 -37.83  0.003237913    6.027    0.834
       283  -9.4530    240.3848    145.2797   7.1263074629e+01   3.6795099265e+00    0.2424287    0.1605978 -39.51 0.0008472757    1.490    0.329
       284 -10.2027    242.6884    143.3125   7.0435506925e+01   3.5520984016e+00    0.5661116     0.196287 -37.38  0.002124694    2.643    0.622
       285  -8.5335    162.4634    150.4870   8.7921718662e+01   1.8913784099e+01    0.2583098    0.1440274 -55.66 0.0007637449    2.167    0.539
       286  -9.8350    132.7611    153.0567   9.5406545176e+01   2.4472684311e+01    0.5232135    0.3899449  79.49  0.001545441    1.693    0.409
       287  -8.6880     98.3681    150.7358   1.0344627074e+02   3.1326945160e+01    0.3054321    0.2145918  80.89  0.001105464    1.701    0.412
       288  -8.2280    213.0671    149.8850   7.7223087783e+01   8.3343406718e+00    0.2058333    0.1951667 -59.11 0.0004673573    1.253    0.202
       289  -9.6392     39.7626    147.9519   1.1779108272e+02   4.0051907085e+01    0.4979912    0.2278153  66.25  0.001648716    2.875    0.652
       290  -7.9492    228.7654    148.9220   7.4103769789e+01   5.3436566526e+00    0.1869351    0.1115413 -31.52 0.0004362589    1.598    0.374
       291 -10.0318     89.2207    146.3912   1.0499273563e+02   3.3847939855e+01    0.6806545    0.3783598  87.01  0.002468493    3.245    0.692
       292 -10.2458    149.0951    145.0776   8.9810858720e+01   2.2871935246e+01    0.6413815    0.4318727  87.52  0.001715443    2.567    0.611
       293 -10.3370    106.6932    144.2943   1.0011403333e+02   3.1376894091e+01    0.8055205    0.4885646 -87.88  0.002280954    2.721    0.632
       294  -8.5100    109.1765    137.5986   9.8112605848e+01   3.2483737170e+01    0.3018889    0.1427376  32.39  0.001104676    2.636    0.621
       295  -9.0829     78.3780    147.4003   1.0795020671e+02   3.5280619838e+01    0.3150569    0.1841553  74.34 0.0009408063    2.341    0.573
       296 -10.5505     54.8079    143.1057   1.1334731927e+02   3.9481067520e+01     1.051685    0.5297947 -79.40  0.003194152    2.130    0.531
       297  -8.0326    223.3222    146.9856   7.4654168024e+01   6.7481796292e+00     0.200245    0.1694534 -26.41 0.0004100805    1.125    0.111
       298  -8.2321    175.7035    146.5404   8.4098849244e+01   1.6873450159e+01    0.2466534    0.1872592 -66.42 0.0007236142    1.687    0.407
       299 -10.0622    139.2101    145.0850   9.2172346347e+01   2.4924469650e+01    0.5109886    0.3210699 -73.28  0.001398175    2.423    0.587
       300  -9.5570     13.2245    146.1216   1.2401373511e+02   4.2940998096e+01    0.3705492    0.1638758  70.52  0.001379488    2.560    0.609
       301  -8.0359    206.9164    146.4993   7.7642335833e+01   1.0204437534e+01    0.2119748    0.1435221  47.20 0.0006476735    1.512    0.339
       302 -10.0068    125.0450    142.7457   9.5150335293e+01   2.8288847620e+01    0.5848576    0.3855734 -82.37  0.001883018    2.267    0.559
       303  -7.5598    194.4549    144.4432   7.9657911399e+01   1.3227555098e+01    0.1463423    0.1439203   6.05 9.846316e-05    1.071    0.066
       304  -8.7570    165.5066    144.0315   8.5787388264e+01   1.9583943303e+01    0.2763537    0.2111141  63.49 0.0006851199    1.502    0.334
       305 -10.8000     69.0818    140.8904   1.0928616728e+02   3.8156828167e+01    0.7838615      0.48069 -79.07  0.002669796    1.714    0.416
       306  -9.2444      2.8084    141.7950   1.2608811513e+02   4.4699530699e+01    0.4124084     0.172879  79.12  0.001682587    2.544    0.607
       307  -8.2614    182.0068    141.9571   8.1683056487e+01   1.6403994065e+01    0.2334042    0.1897753 -84.82 0.0006024794    1.658    0.397
       308  -8.4894     39.8051    141.7733   1.1701020669e+02   4.1497256332e+01    0.2085892    0.1122731 -38.85 0.0009472466    2.759    0.638
       309  -8.3093    250.4975    140.9530   6.8625861418e+01   2.4514731878e+00    0.2100678    0.1213744 -33.05  0.000593352    1.555    0.357
       310  -8.8912    189.4075    150.2168   8.2014180198e+01   1.3224378285e+01    0.3679841    0.2377979 -50.98  0.001142609    1.768    0.434
       311  -8.4318    134.3885    140.2322   9.2282624528e+01   2.6982018101e+01    0.2143291    0.1440733 -60.15 0.0007631153    1.628    0.386
       312  -9.7757     23.5882    138.2426   1.2069208198e+02   4.3885670731e+01    0.4962835    0.2217866  67.90  0.002012586    2.884    0.653
       313  -7.9464    218.6031    138.7827   7.3644016328e+01   9.1153876691e+00    0.2050757    0.1305003 -44.20 0.0005760317    1.630    0.387
       314  -8.6578    172.3080    138.5473   8.2994218547e+01   1.9211973991e+01    0.3182767    0.2206531 -68.17 0.0008375341    2.043    0.510
       315  -8.1196    207.4877    138.0462   7.5574028470e+01   1.1598406889e+01    0.2234817    0.1416636 -38.83 0.0005642172    1.547    0.354
       316  -8.6640    197.6102    137.5526   7.7407604387e+01   1.3828393695e+01     0.289975    0.2190032 -55.98 0.0009285135    1.557    0.358
       317  -8.8820    139.7549    137.5760   9.0366284189e+01   2.6460376188e+01    0.2387324    0.1869953   5.83 0.0009691741    1.725    0.420
       318 -10.4478     83.2657    133.2559   1.0413441050e+02   3.7904985125e+01     0.641152    0.3752502 -61.88  0.001324735    1.615    0.381
       319  -8.5927     84.5029    123.1496   1.0176388795e+02   4.0126459542e+01    0.3542844    0.2353612 -30.40  0.001379208    2.034    0.508
       320  -8.0731    192.3605    137.1014   7.8368776775e+01   1.5064642667e+01    0.2146469    0.1371205 -48.60 0.0007697704    1.696    0.410
       321  -9.4495    162.6363    136.0747   8.4588409355e+01   2.1852076398e+01    0.3998579    0.1947976 -48.33  0.001345441    2.163    0.538
       322  -9.2149     39.1887    136.2771   1.1644897678e+02   4.2859740767e+01    0.2931599    0.1701644  72.77 0.0008019225    1.966    0.491
       323  -9.2939    250.7173    130.2391   6.6185973485e+01   4.0789298342e+00    0.5523528     0.129362 -33.41  0.001460121    4.004    0.750
       324  -8.9077    248.5294    135.2286   6.7661863045e+01   3.7138354429e+00    0.3023439    0.1885201 -33.13 0.0006541956    1.441    0.306
       325  -8.6375    247.0191    130.4381   6.6817870139e+01   4.7602539126e+00    0.2697922    0.1821055 -38.57 0.0006245567    1.390    0.281
       326  -8.6624    151.5981    135.9101   8.7124713896e+01   2.4299737726e+01    0.3708481    0.1950803  37.36  0.001422466    2.061    0.515
       327  -7.8501    237.5513    133.7998   6.9143477260e+01   6.0825565072e+00    0.1968826    0.1225488 -44.15 0.0009256605    1.655    0.396
       328  -8.6504    179.4731    134.0079   8.0344555498e+01   1.8526400525e+01    0.2690188    0.2222104  70.19 0.0006629315    1.429    0.300
       329  -9.2433    112.9204    133.3361   9.6222943744e+01   3.2777937176e+01    0.3993661    0.2867773  75.35  0.001237812    1.773    0.436
       330  -7.5765    231.3270    133.7285   7.0191046595e+01   7.3488791540e+00    0.1344738    0.1137394 -72.11 0.0002521315    1.581    0.367
       331 -10.2939    133.6881    109.4612   8.4953999840e+01   3.3961060522e+01    0.7189313    0.3473119 -46.92  0.002326609    2.056    0.514
       332 -10.1937    132.4957    131.5925   9.0789449929e+01   2.9299424039e+01    0.5795194    0.3986018 -81.32  0.001083396    2.145    0.534
       333  -9.5365    134.4051    124.7656   8.8677421835e+01   3.0424700721e+01     0.379709    0.2752262  30.80  0.001719819    1.558    0.358
       334  -9.9946    131.1248    118.8251   8.8046132689e+01   3.2442793064e+01    0.5715014    0.3857875  87.64  0.002012075    2.503    0.601
       335 -10.4201     98.1356    130.4174   9.9532300736e+01   3.6138112709e+01    0.6618885    0.3290266 -58.25  0.001601482    1.989    0.497
       336  -8.9743     98.5606    121.1113   9.7377502491e+01   3.8260420790e+01    0.6543586    0.4019735  10.12  0.002344077    3.392    0.705
       337  -9.3070    142.9232    131.5223   8.8180362796e+01   2.7118491828e+01    0.3558061    0.2635197 -62.15 0.0008277617    1.508    0.337
       338  -9.3564    168.3628    129.6388   8.1733569343e+01   2.1902641285e+01    0.3434803    0.2634977 -70.94 0.0008603752    1.671    0.402
       339  -9.9285     12.9237    129.4369   1.2244379361e+02   4.6792730672e+01    0.4297993    0.2133009  72.92  0.001818962    2.282    0.562
       340  -7.9540    204.5588    130.0837   7.4244873288e+01   1.3680431621e+01      0.21162    0.1243026 -57.66 0.0008058875    2.436    0.590
       341  -8.0589    192.8007    130.1979   7.6617538259e+01   1.6276608987e+01    0.2065894    0.1748742  -5.79 0.0004494435    1.280    0.218
       342  -9.6335    152.8783    128.0636   8.4937786312e+01   2.5696983799e+01    0.6853203    0.2872733 -45.79  0.001943891    2.409    0.585
       343 -10.0096     73.1116    129.1276   1.0613279065e+02   4.0408642433e+01    0.4488921    0.2608908 -74.02  0.001333996    1.868    0.465
       344  -8.6272     26.4287    129.7471   1.1895781703e+02   4.5623506730e+01    0.2586085    0.1614886   1.36  0.001356818    2.667    0.625
       345  -8.3558    198.8108    149.0587   7.9829742959e+01   1.1447198320e+01     0.217451     0.197464 -61.77 0.0005331851    1.294    0.227
       346  -8.0675    211.6617    129.1399   7.2658731794e+01   1.2292958186e+01    0.2346215    0.1769311 -53.82 0.0008831566    1.518    0.341
       347  -8.3644    162.2958    129.6521   8.3119463717e+01   2.3263578418e+01    0.1590551    0.1250386 -81.75 0.0006675296    1.676    0.403
       348 -10.7248     44.8185    123.5258   1.1306046992e+02   4.5303508341e+01     1.098166    0.5333761  79.13  0.003965379    3.860    0.741
       349 -10.1150    118.1598    124.8275   9.2909330891e+01   3.3732928205e+01    0.6912041    0.5172142 -66.62  0.002355732    1.452    0.311
       350 -10.5003     59.9883    125.0922   1.0905918676e+02   4.3149464356e+01    0.7352127    0.4109498  83.01  0.002587798    2.765    0.638
       351  -8.7634     59.2503    115.6804   1.0753354054e+02   4.5503956961e+01    0.2739087    0.1811551 -22.02  0.001289641    2.292    0.564
       352  -8.1021    228.3736    125.2610   6.8713776904e+01   9.3832591075e+00    0.2117157    0.1243024 -43.40 0.0008952467    1.697    0.411
       353  -8.9836    179.1539    124.8532   7.8164857474e+01   2.0411577114e+01    0.2776938     0.243983 -62.34 0.0005239449    1.256    0.204
       354 -10.1204     28.3431    122.3533   1.1747467131e+02   4.7197576865e+01    0.7281995    0.3382578  80.61  0.002922416    3.286    0.696
       355  -9.5495     27.1834    113.6160   1.1656060043e+02   4.9362724311e+01    0.4476238    0.1591246  23.68  0.001906819    3.572    0.720
       356  -7.6835    243.5871    124.4773   6.5996287457e+01   6.3895364675e+00    0.1414032    0.1244452 -22.35 7.749079e-05    1.015    0.014
       357  -8.1006    188.5499    124.0736   7.5981629223e+01   1.8410808227e+01    0.2131989    0.1300965 -60.56 0.0008046843    2.339    0.573
       358  -9.3089    158.7329    121.7523   8.1978127657e+01   2.5718276054e+01    0.4225097    0.2993059 -75.52  0.001194551    2.060    0.514
       359  -8.0635    220.4873    130.4294   7.1337747016e+01   1.0166049357e+01    0.1463802    0.1357314  -7.99 0.0001305384    1.016    0.016
       360  -8.2122    202.8964    122.1216   7.2617481835e+01   1.5511713324e+01    0.2315987    0.2053301 -59.94 0.0004845091    1.253    0.202
       361  -8.6942    171.7983    121.6658   7.8972567119e+01   2.2741080739e+01    0.2857574    0.2502359 -46.86 0.0006135374    1.156    0.135
       362  -9.4676     71.1283    120.0055   1.0492767997e+02   4.2881369931e+01    0.4319218    0.2703413 -78.80  0.001393207    1.857    0.461
       363  -9.9086    141.5560    118.6228   8.5340461030e+01   3.0235750908e+01    0.4920703    0.3128143 -66.24  0.001036412    2.156    0.536
       364  -9.2878    141.3304    113.3334   8.4027033712e+01   3.1434809811e+01     0.514345    0.3017505  20.46  0.001707888    3.178    0.685
       365  -9.4936      2.7077    117.2465   1.2383748067e+02   5.0289094388e+01    0.4596103    0.1925104  82.85  0.002055296    2.855    0.650
       366  -7.8197    231.4500    117.5139   6.6338340773e+01   1.0038368570e+01    0.1453581    0.1328285 -30.61 0.0003066639    1.044    0.042
       367  -9.9287    109.3172    114.3105   9.2768485143e+01   3.7871556153e+01    0.5707332    0.3769656 -80.68  0.001307866    2.307    0.566
       368  -9.1622    109.5808    107.8447   9.1057178029e+01   3.9303490448e+01    0.3899933    0.2509486  14.11  0.001499446    2.619    0.618
       369  -8.4459    185.3900    115.8979   7.4563484443e+01   2.0719424284e+01    0.2516565    0.1904834 -56.05 0.0008695947    1.474    0.322
       370  -8.2134    153.0096    115.9767   8.1849362379e+01   2.8237183140e+01    0.2349882    0.2338737 -72.57 0.0004980911    1.010    0.010
       371  -8.7075    250.0404    115.0303   6.2796208027e+01   6.6100021530e+00    0.2193701    0.1608234   9.64 0.0008943046    1.679    0.404
       372  -8.3082    192.8960    115.1834   7.2841802117e+01   1.9101939289e+01    0.2377735    0.2068614 -66.83 0.0005951625    1.305    0.233
       373  -9.9656     78.8575    112.3845   1.0106137150e+02   4.3569482542e+01     0.592187    0.3749445 -87.26   0.00194564    2.352    0.575
       374  -8.3998     78.1737    105.7305   9.9739866747e+01   4.5248704351e+01    0.2765983     0.211861 -37.91 0.0008975808    1.356    0.263
       375  -7.9700    167.4223    114.2639   7.8041423181e+01   2.5257616158e+01    0.2223614    0.1481329 -50.87 0.0008626841    1.594    0.373
       376 -10.3947    122.1362    112.0613   8.8692463796e+01   3.5836485903e+01    0.6207728    0.3957175 -34.79  0.001541368    1.753    0.430
       377  -9.9277    119.4507    106.6688   8.8005992274e+01   3.7598199458e+01    0.4664991     0.318243 -35.95  0.002079058    1.554    0.357
       378 -10.6282    109.4730     99.1760   8.8772594756e+01   4.1280438748e+01    0.9041142    0.5086356  65.89  0.003058957    3.234    0.691
       379  -9.0513    107.9531     92.4989   8.7335398346e+01   4.3055727907e+01    0.4549353    0.2894049  23.91  0.001835361    2.096    0.523
       380 -10.1271     92.7373    112.5243   9.7036128061e+01   4.1292186520e+01    0.5800022    0.3623592 -71.70  0.001420435    2.002    0.500
       381  -8.8641     93.5089    104.6492   9.4879023157e+01   4.2996801927e+01    0.4819287    0.2801053  11.78  0.001623536    3.774    0.735
       382  -8.4907    208.9829    112.6184   6.9082743253e+01   1.5854063112e+01     0.203648    0.2006207 -10.96  0.001123839    1.043    0.042
       383  -9.9358    248.4337    108.0833   6.1411300685e+01   8.0362226558e+00    0.3907439    0.2700109 -24.94  0.001893511    1.381    0.276
       384 -10.3984    249.0917    102.6127   6.0023983428e+01   8.7680459118e+00    0.4505061    0.2966782 -31.58    0.0022806    1.365    0.267
       385  -8.6181    174.7739    111.7827   7.5754692320e+01   2.4024696175e+01     0.310452     0.211409 -51.64 0.0008310986    1.580    0.367
       386  -8.4131    159.2802    111.9686   7.9307214547e+01   2.7629611110e+01    0.2720127    0.2230569  85.12 0.0006980077    1.503    0.335
       387 -10.2104     66.3374    110.1434   1.0430574168e+02   4.5904717520e+01     0.550009    0.3106956 -65.30  0.001994016    1.711    0.416
       388  -9.6864     14.0444    111.1343   1.1998934713e+02   5.0962737073e+01    0.3443442    0.1839438  76.37  0.001432273    2.237    0.553
       389  -8.0198    182.4632    109.2597   7.3441730620e+01   2.2692927168e+01    0.2235242    0.1450936 -49.76  0.000938544    1.636    0.389
       390  -9.1701     43.1680    109.5375   1.1117537720e+02   4.8820726441e+01     0.286497    0.1389232  22.47  0.001303172    2.707    0.631
       391  -8.2000    189.2887    108.0280   7.1709738075e+01   2.1303694457e+01    0.2274777    0.1965217 -42.27  0.000610636    1.142    0.124
       392  -9.3924    139.9837    104.8356   8.2083705311e+01   3.3563470814e+01    0.3936296    0.3011541 -88.80 0.0009259633    1.784    0.439
       393 -10.5920     45.6483    102.3783   1.0906671562e+02   5.0259077455e+01     0.798959    0.4426174  76.92  0.003013115    3.211    0.689
       394  -8.9325     46.0481     92.6423   1.0691813870e+02   5.2503429468e+01    0.3625145     0.197052  16.77  0.001700666    2.527    0.604
       395 -10.6043     23.0242    102.6991   1.1612856108e+02   5.2269428855e+01    0.7364488    0.3778236  74.71  0.002957223    2.948    0.661
       396  -8.5681    166.8389    104.2426   7.5486342890e+01   2.7413432961e+01    0.2863703    0.2158729 -64.86  0.000834288    1.602    0.376
       397  -9.6796    150.5524    103.0887   7.8975849780e+01   3.1504468179e+01    0.4888619    0.3020878 -60.07  0.001008876    2.082    0.520
       398  -9.7320    128.3695    102.1595   8.4368420784e+01   3.6709139726e+01     0.353084    0.2743813 -70.21 0.0008260327    1.544    0.353
       399  -7.9108    175.4635    102.2272   7.3037699138e+01   2.5734332773e+01    0.2170758    0.1466175 -50.68 0.0005846203    1.573    0.364
       400  -9.3111     82.1118    100.0135   9.7144689024e+01   4.5972133353e+01    0.3993476     0.256049 -74.87 0.0009194938    2.081    0.519
       401  -8.3706    159.6409    100.9719   7.6228612424e+01   2.9790322167e+01    0.3075316    0.1870188 -51.78 0.0006808822    1.804    0.446
       402 -10.1862     63.8999     96.1990   1.0192954572e+02   4.9525508137e+01    0.6860402    0.3780924 -76.52  0.001943647    2.721    0.632
       403  -9.1588     66.4052     87.4623   9.8931904449e+01   5.1199552601e+01    0.6727135    0.3182361  16.15   0.00224528    4.396    0.773
       404  -9.5436     95.0494     96.6382   9.2320302256e+01   4.4560638473e+01    0.5415514    0.2305184 -50.13  0.000921472    2.218    0.549
       405  -8.6710      6.9881    103.0213   1.2098374244e+02   5.3299635169e+01    0.2828239    0.1480534  67.03   0.00112264    2.396    0.583
       406  -8.3934    176.3828     93.2797   7.0363176682e+01   2.7222154528e+01    0.2820067    0.1904118 -47.21 0.0006428226    1.513    0.339
       407  -7.7950    164.9485     94.2083   7.3110937453e+01   2.9848642565e+01    0.2263127    0.1681737 -60.61 0.0003590516    1.562    0.360
       408  -9.3980    138.8698     92.1610   7.8769504345e+01   3.6473824108e+01     0.490366    0.2892492 -52.87  0.001392358    1.895    0.472
       409  -7.5818    188.5273     93.5447   6.7963724018e+01   2.4185463899e+01     0.156677    0.1493003 -63.13 0.0001252967    1.071    0.067
       410 -10.5892    123.9420     91.2924   8.2463340129e+01   3.9998919782e+01     0.596972    0.4830241  23.97  0.001384796    1.390    0.281
       411  -9.6191      5.3033     92.1856   1.2002757983e+02   5.5879370737e+01    0.3372573    0.1842969  55.77  0.001367399    2.324    0.570
       412  -8.3574    157.9962     91.7802   7.3999165291e+01   3.2014438634e+01    0.2900645    0.1911912 -51.10 0.0005427463    1.628    0.386
       413  -9.8420     34.7551     89.9839   1.1009288718e+02   5.4244641199e+01    0.4769016    0.2422945 -79.29  0.001642996    2.510    0.602
       414  -7.8296    151.0024     89.2486   7.4908583354e+01   3.4201435578e+01    0.2308855    0.1667843 -59.71 0.0004702597    1.621    0.383
       415  -9.9672     86.3834     86.6818   9.2230335171e+01   4.8299958295e+01     0.484979      0.35932 -87.55  0.001282509    1.989    0.497
       416  -8.3438     86.3554     81.3141   9.0673906622e+01   4.9481352245e+01    0.2842273    0.2092581   1.23  0.001357298    1.792    0.442
       417  -7.8061    188.0000     87.0412   6.6265868028e+01   2.5493789388e+01    0.2520166   0.08758198 -35.56 0.0004631703    2.824    0.646
       418  -7.9685    164.1417     87.1887   7.1268204070e+01   3.1396027580e+01    0.2147236    0.1861907 -76.52 0.0004161472    1.307    0.235
       419  -9.8073     48.5757     84.4558   1.0418576513e+02   5.4115490984e+01     0.501909    0.3161367  79.79  0.002108485    2.774    0.639
       420  -7.5977    179.2843     85.6348   6.7598593712e+01   2.7919131646e+01     0.164862    0.1202861 -66.26 0.0003917746    1.690    0.408
       421  -9.8912    104.8401     83.3823   8.5561254344e+01   4.5633595334e+01    0.4594757    0.3408945 -77.72 0.0009524119    1.934    0.483
       422  -8.8611    104.7099     77.6147   8.3813880823e+01   4.6864075197e+01    0.4435969    0.2459437  19.89  0.001500915    3.366    0.703
       423  -8.4147    157.8979     84.0998   7.1766826480e+01   3.3521417316e+01    0.2396865    0.2105141 -67.11 0.0003741258    1.246    0.198
       424  -9.0663    140.8639     82.5228   7.5377137253e+01   3.7942161260e+01    0.3803943    0.2198057 -46.20 0.0008399987    1.775    0.437
       425  -9.8027     24.6897     80.6695   1.1161033294e+02   5.7231010346e+01    0.4468422     0.262101  88.92  0.001492498    2.385    0.581
       426  -9.4789      9.8203     81.0844   1.1681302468e+02   5.8142558094e+01    0.3326263    0.1884998  68.45  0.001450123    2.527    0.604
       427  -9.1765     22.6570     90.3610   1.1416343374e+02   5.5167058051e+01    0.2850354    0.2130424 -44.78 0.0009886734    1.278    0.218
       428  -8.6140    150.1610     80.6408   7.2529892766e+01   3.6072715395e+01    0.2828951    0.2067669 -47.94 0.0007173014    1.412    0.292
       429  -9.2518    119.3837     80.2685   8.0384321728e+01   4.3269948258e+01     0.384568    0.2556241 -49.98  0.001275317    1.568    0.362
       430  -9.0006     74.4890     80.2949   9.4264703032e+01   5.1626066150e+01    0.3410622    0.2350816 -70.20 0.0009889439    1.856    0.461
       431  -8.4025    248.3339     80.6775   5.4896882844e+01   1.2347239702e+01    0.1472196   0.09846634 -61.48 0.0007050326    1.706    0.414
       432  -8.2052    166.9402     79.5308   6.8400034997e+01   3.2123293120e+01    0.2442219    0.2021707 -36.49  0.000499681    1.204    0.169
       433  -8.1396    183.8965     78.1773   6.4549825737e+01   2.8089446221e+01    0.2117268    0.1846927   4.80 0.0005111252    1.309    0.236
       434  -9.9582     63.4548     73.8444   9.6164085770e+01   5.4635128378e+01    0.6820343    0.3082523 -62.82  0.002510311    3.102    0.678
       435  -9.3946    128.1505     75.3787   7.6436555471e+01   4.2288821507e+01    0.3824215    0.2612376 -58.72 0.0007121648    1.799    0.444
       436  -7.7300    157.2981     76.6779   6.9665223283e+01   3.5054238240e+01    0.1604368    0.1235853 -71.77 0.0003457019    1.623    0.384
       437  -8.7211    140.0916     75.3114   7.3329979786e+01   3.9511466841e+01    0.2717121    0.2127517 -64.35  0.000690942    1.527    0.345
       438  -9.7381     82.4243     72.4985   8.9252751292e+01   5.2024831182e+01    0.5193634    0.3039949 -61.77  0.001164467    2.288    0.563
       439  -8.9936     83.8287     65.0108   8.6339042139e+01   5.3314111347e+01      0.48817    0.2708607   7.92  0.001515184    4.664    0.786
       440 -10.2553    113.7956     72.0931   7.9358719918e+01   4.6098985021e+01    0.3802363    0.3236532  66.16 0.0007104182    1.370    0.270
       441  -8.0181    163.4266     73.2883   6.7278279613e+01   3.4129083151e+01    0.2163423    0.1449808 -46.23 0.0005939979    1.535    0.349
       442  -8.2087    151.3755     73.2439   6.9962025245e+01   3.7149551685e+01    0.2278243     0.141805 -45.76 0.0009298282    1.664    0.399
       443  -9.4061    105.8760     71.7438   8.1574663005e+01   4.7816663485e+01    0.3765218    0.2088079 -50.21 0.0009401033    1.948    0.487
       444  -8.6316     42.5019     72.5000   1.0331539239e+02   5.7455160031e+01    0.2961868    0.1766189 -70.35 0.0009569638    1.953    0.488
       445  -7.9700    175.4961     72.5356   6.4550325981e+01   3.1198401708e+01    0.1541999    0.1517636 -77.42 7.802927e-05    1.010    0.010
       446  -9.3986     95.0599     70.9993   8.4666106056e+01   5.0081876416e+01    0.3890315    0.2465018 -59.12 0.0009879081    1.995    0.499
       447  -9.3313     29.5436     70.1975   1.0751427791e+02   5.9184087232e+01    0.5345415    0.2382118 -22.34  0.001979906    4.320    0.769
       448  -9.6541     51.4502     69.5362   9.9219428751e+01   5.7105393571e+01    0.4254104    0.2439145 -68.42  0.001542923    2.284    0.562
       449  -9.0317     16.6431     70.1515   1.1229068040e+02   6.0164113937e+01    0.2867968    0.1756968 -82.91 0.0009387059    1.908    0.476
       450  -8.6460    129.5057     69.7748   7.4264816625e+01   4.3041024539e+01    0.3792854    0.2221237  18.79  0.001284929    3.131    0.681
       451  -8.6986    147.0139     68.3172   6.9425963881e+01   3.9111540511e+01     0.318501    0.2053615 -45.33 0.0005079195    1.609    0.378
       452  -8.9856    121.9890     66.5605   7.5220133494e+01   4.5355260606e+01    0.4877249     0.293118 -63.32  0.001801519    2.763    0.638
       453  -9.0258    138.5417     66.3788   7.0844846440e+01   4.1522594042e+01    0.3258509     0.229533 -65.44 0.0008006705    1.913    0.477
       454  -8.2956    209.2536     65.3676   5.6561661515e+01   2.3830098652e+01    0.2454005     0.187221  77.23  0.000680035    1.413    0.292
       455  -9.2917    110.1087     63.6741   7.7609235228e+01   4.8490258900e+01    0.3458327    0.2283426 -49.73  0.000819578    1.660    0.398
       456  -8.6590     64.7882     63.4666   9.2481021784e+01   5.6640408197e+01    0.4298543    0.2508907  -9.07  0.001720495    3.026    0.670
       457  -8.8585     37.2382     64.1735   1.0303231659e+02   5.9796726037e+01    0.2963233    0.2060104 -84.39  0.001162129    2.096    0.523
       458  -7.7230    158.0269     61.9506   6.4915855220e+01   3.7446906376e+01    0.1809168    0.1790093 -31.94 0.0003416553    1.023    0.023
       459  -9.4930     97.5474     60.4778   8.0313485864e+01   5.1653066778e+01    0.3449569    0.2945716 -26.56  0.001364292    1.111    0.100
       460  -9.7843     73.3020     58.8547   8.7871055989e+01   5.6280193387e+01    0.6696344    0.2318842 -46.26  0.002472781    2.709    0.631
       461  -8.0177    146.7916     59.0540   6.6472426526e+01   4.0759303522e+01     0.203348    0.1226538 -34.58 0.0005170432    1.672    0.402
       462  -7.8914     89.2691     59.6570   8.2687148476e+01   5.3382831535e+01    0.1374453     0.113396 -69.38 0.0006988323    1.609    0.378
       463  -9.9082     23.5039     56.7000   1.0638483902e+02   6.2584574924e+01    0.4322834    0.2759328  88.83  0.002169304    2.710    0.631
       464  -9.6188      7.5774     57.4157   1.1296361873e+02   6.3472113387e+01    0.2990005    0.2054584  83.27   0.00108269    1.974    0.493
       465  -8.3221    130.8997     57.9462   6.9941556704e+01   4.4820791665e+01     0.232212    0.1844147 -72.31 0.0005040732    1.633    0.388
       466  -9.4525    119.1622     55.5786   7.2217536680e+01   4.7948581299e+01    0.5346851    0.2416845 -42.66  0.001603835    2.302    0.566
       467  -9.4340     54.2846     55.4522   9.3754475181e+01   5.9688404090e+01    0.3417862    0.2134268 -62.32  0.001122851    2.048    0.512
       468  -9.2122    140.2061     55.6874   6.6886251713e+01   4.2945709204e+01    0.3670337     0.188969 -30.48  0.001088514    2.032    0.508
       469  -8.8476     44.1541     55.6675   9.7787095779e+01   6.0858564662e+01    0.2207421    0.1601393 -55.08 0.0008061994    1.348    0.258
       470  -8.8386    105.9028     53.4107   7.5226356776e+01   5.1223217543e+01    0.2703463    0.1975834 -50.93 0.0007914048    1.574    0.365
       471  -9.4112     92.3758     50.6526   7.8406831150e+01   5.4437989765e+01    0.4064424    0.2340394 -47.41   0.00119659    1.928    0.481
       472  -8.2245    249.6944     55.3470   4.8670158320e+01   1.5782486614e+01    0.1475498   0.08975771 -59.02 0.0006222943    1.697    0.411
       473  -8.0286    145.0000     49.0373   6.3534497010e+01   4.2805331299e+01    0.2384415   0.08645781 -31.56 0.0004502758    2.831    0.647
       474  -7.9807    129.9802     49.2120   6.7136922222e+01   4.6468986630e+01    0.2338066    0.1741017 -87.07 0.0005121898    1.931    0.482
       475  -8.7713    120.9268     47.7247   6.8930317080e+01   4.8835835607e+01    0.2479093    0.2049136 -25.37 0.0003933319    1.214    0.176
       476  -8.4308    112.2143     46.9731   7.1032963266e+01   5.0929006164e+01    0.2178343    0.1909148 -52.40 0.0005999219    1.309    0.236
       477  -9.0827     82.1030     46.4378   8.0235636171e+01   5.7084929809e+01     0.303591    0.2233146 -50.28 0.0006839207    1.582    0.368
       478  -8.5081     45.0835     44.7193   9.3676130253e+01   6.2910699658e+01     0.208878    0.1585094 -50.91  0.000565211    1.361    0.265
       479  -9.2279     16.5585     44.5468   1.0584829882e+02   6.5597164718e+01     0.249206    0.1699745 -65.65 0.0008995745    1.532    0.347
       480  -8.8178    132.8749     43.6016   6.4443395646e+01   4.6624865993e+01    0.2801279    0.2110013 -39.87 0.0006425934    1.390    0.280
       481  -8.6291     92.9054     42.9862   7.5310338841e+01   5.5625251276e+01    0.3108438    0.1826224 -16.54  0.001349069    2.097    0.523
       482  -9.3856     69.6502     41.3673   8.2703858217e+01   6.0083599514e+01    0.4724083    0.2540695 -49.75  0.001950211    2.233    0.552
       483  -8.3731     32.7541     44.2322   9.8708126435e+01   6.4321978462e+01    0.1797172   0.09695867   7.99 0.0008902589    2.438    0.590
       484  -8.9616     58.0093     42.3585   8.7554986331e+01   6.1674577907e+01    0.2881235     0.175193 -54.63  0.001191485    2.066    0.516
       485  -9.5457      5.0139     42.1105   1.1024748929e+02   6.6786047644e+01    0.3092025    0.2044687 -79.11  0.001419045    1.868    0.465
       486  -9.3994    106.0573     40.9139   7.0500714373e+01   5.3224881893e+01    0.4342414    0.1935177 -32.23  0.001374115    2.245    0.554
       487  -7.9871    140.3960     41.4944   6.1968770701e+01   4.5073613810e+01    0.1439453    0.1426907  33.69 0.0001488798    1.047    0.045
       488  -8.3914     36.6303     40.7498   9.5810148038e+01   6.4601264713e+01    0.2121239    0.1413976 -51.90 0.0005619248    1.474    0.322
       489  -8.9580     95.7227     37.6753   7.2326879017e+01   5.5891439943e+01    0.3747911    0.1714667 -37.73  0.001238117    2.186    0.542
       490  -8.2559     80.6288     36.8019   7.6918866792e+01   5.8945376923e+01    0.1883285    0.1196326 -41.39 0.0004527664    1.646    0.393
       491  -7.8680    133.4934     36.4728   6.1747110836e+01   4.7486627866e+01    0.1454895    0.1390991  40.22  0.000141696    1.029    0.028
       492  -8.1410    126.0111     35.6800   6.3219493178e+01   4.9413647143e+01    0.2038443    0.1757682  46.54 0.0003719332    1.105    0.095
       493  -9.5601     26.0345     35.2036   9.8502295428e+01   6.6668546321e+01    0.3241115    0.1985829 -53.41  0.001057324    1.561    0.360
       494  -8.6360    111.9413     34.5397   6.6387439314e+01   5.2852505828e+01     0.263739    0.1881184 -45.81 0.0006262096    1.617    0.381
       495  -8.9896     48.4711     33.4792   8.7903784909e+01   6.4525865010e+01    0.2268895    0.2046734 -40.82 0.0006552844    1.337    0.252
       496  -8.5861    119.1057     32.9280   6.3894552660e+01   5.1424094650e+01    0.2535897    0.1711235 -43.21 0.0005795408    1.656    0.396
       497  -8.6709     60.7572     32.6238   8.2521527185e+01   6.2936878037e+01    0.2322932    0.1926422 -36.61 0.0006238256    1.281    0.219
       498  -7.5537    139.3161     31.7054   5.8757194973e+01   4.6669078715e+01    0.1449615    0.1125768 -70.70 0.0007011822    1.603    0.376
       499  -8.5015     71.9941     31.1433   7.7618438654e+01   6.1350549530e+01    0.1882693    0.1755547 -40.45 0.0007701279    1.343    0.255
       500  -8.9162     12.8638     30.3166   1.0294617085e+02   6.8618846842e+01    0.2900582    0.1551511 -62.09  0.001521856    2.059    0.514
       501  -8.7171    101.6709     29.4930   6.7245514763e+01   5.5811303561e+01    0.2576756     0.199664 -54.21 0.0007969959    1.678    0.404
       502  -8.8921     81.5117     27.5619   7.2728766985e+01   6.0159056602e+01    0.2609338    0.2001308 -49.16 0.0007417204    1.683    0.406
       503  -8.9604      3.3552     27.5647   1.0666234109e+02   6.9715807058e+01     0.230868    0.1691634 -70.94  0.001057343    1.670    0.401
       504  -8.8066     91.7630     26.1711   6.8819851059e+01   5.8334297285e+01    0.2570148    0.1732342 -37.76  0.000695667    1.602    0.376
       505  -8.5552    104.0735     22.7060   6.3790725541e+01   5.6153241932e+01    0.1974095    0.1640565  36.90 0.0004799568    1.104    0.094
       506  -8.0770     34.9116     23.4548   8.9651547246e+01   6.7847957414e+01     0.149456    0.1021614  52.14 0.0008073121    2.644    0.622
       507  -9.0170     63.6567     21.2791   7.6366019546e+01   6.4191428009e+01    0.2653044    0.1962886 -42.51 0.0008994825    1.622    0.383
       508  -8.9947     48.3251     21.7911   8.2867994862e+01   6.6434360900e+01    0.2194787    0.1963437 -34.78 0.0006438957    1.394    0.283
       509  -8.6535    120.9493     20.9988   5.8858936279e+01   5.2465801579e+01    0.2184211    0.1676498 -62.49  0.001120919    1.696    0.410
       510  -7.7746     19.5325     21.5128   9.6270717158e+01   6.9693349758e+01    0.1169665   0.09077881 -28.62  8.74698e-05    1.048    0.046
       511  -8.9597     73.9545     19.5871   7.1791683551e+01   6.2635615631e+01    0.2422719    0.1745872 -33.13 0.0006731843    1.450    0.310
       512  -8.2917     87.8321     17.6448   6.6336569872e+01   6.0203997210e+01    0.2073313    0.1476695 -27.23 0.0005452708    1.425    0.298
       513  -8.2812     38.7275     17.9242   8.5353653827e+01   6.8273379584e+01    0.2263725    0.1270522 -38.23  0.001063652    1.617    0.382
       514  -7.7683    112.8704     16.8163   5.9122069261e+01   5.4831837377e+01    0.1723097     0.162097 -74.95   0.00035609    1.282    0.220
       515  -9.6193    248.6416    242.3836   8.8482889466e+01  -1.0670399754e+01     0.291862    0.1864081 -26.76 0.0009607701    1.701    0.412
       516  -8.0813      7.5765     15.7872   1.0009710380e+02   7.1590661221e+01    0.1491736   0.09390814 -56.18  0.000753106    1.710    0.415
       517  -7.8408    168.4671     13.5282   4.7523419290e+01   4.1229692873e+01    0.1406218    0.1282044  72.89 6.895659e-05    1.004    0.004
       518  -9.3134    247.8128    235.0574   8.7428622871e+01  -9.7693045580e+00     0.272409    0.1859989 -34.01  0.001758175    1.817    0.450
       519  -7.5410     83.4802     11.4555   6.4889472984e+01   6.1782530041e+01    0.1296239    0.1144338  16.06 0.0001359668    1.068    0.063
       520  -9.4516    246.4656    229.2381   8.6684659483e+01  -8.9279775272e+00    0.4143086    0.2083788 -23.62   0.00232044    2.065    0.516
       521  -7.5694     47.6620     10.3107   7.7594035824e+01   6.8146334131e+01    0.1051968   0.09812702 -50.64 0.0004064726    1.687    0.407
       522  -7.9957     97.1209     15.1378   6.2515737864e+01   5.8544868736e+01    0.1764477    0.1570581 -42.08  0.000565389    1.356    0.263
       523  -8.8394    218.8145    247.0805   9.4297119190e+01  -6.8781451750e+00    0.3541903    0.1513487 -32.36  0.001862748    2.758    0.637
       524  -8.6206    202.3584    249.0095   9.7466927682e+01  -4.6063497628e+00    0.2276891    0.1365677  22.09  0.001349106    1.603    0.376
       525  -8.8208    156.4609    248.4693   1.0565284084e+02   2.7146835635e+00    0.2214073    0.1592543  57.53 5.876998e-05    1.432    0.302
       526  -8.3836    113.1361    248.6104   1.1352918659e+02   9.4706466425e+00    0.1874803    0.1406676  83.27 0.0008968567    1.465    0.318
       527  -9.3588    104.0290    247.0189   1.1500822768e+02   1.1090626919e+01    0.4195305    0.2215762 -89.90  0.001989988    3.056    0.673
       528  -8.9824    242.8578    246.7425   9.0139923603e+01  -1.0322126441e+01    0.3090735    0.1471569 -26.90  0.001789487    2.276    0.561
       529  -8.9712    232.5797    247.1891   9.1944897030e+01  -8.9114612927e+00    0.2005624    0.1589689   4.64  0.000686164    1.168    0.144
