#   1 NUMBER                 Running object number                                     
#   2 MAG_AUTO               Kron-like elliptical aperture magnitude                    [mag]
#   3 X_IMAGE                Object position along x                                    [pixel]
#   4 Y_IMAGE                Object position along y                                    [pixel]
#   5 X_WORLD                Barycenter position along world x axis                     [deg]
#   6 Y_WORLD                Barycenter position along world y axis                     [deg]
#   7 A_WORLD                Profile RMS along major axis (world units)                 [deg]
#   8 B_WORLD                Profile RMS along minor axis (world units)                 [deg]
#   9 THETA_WORLD            Position angle (CCW/world-x)                               [deg]
#  10 FWHM_WORLD             FWHM assuming a gaussian core                              [deg]
#  11 ELONGATION             A_IMAGE/B_IMAGE                                           
#  12 ELLIPTICITY            1 - B_IMAGE/A_IMAGE                                       
         1 -12.5834    119.8189     37.5934   3.8454169165e+01   4.9781503829e+01    0.8678029     0.508979 -56.02  0.002273139    2.035    0.509
         2 -11.4412     60.5144     47.5377   6.0144393915e+01   6.1105006337e+01    0.9951982    0.4414008 -42.59  0.004215718    2.321    0.569
         3 -11.2275      4.9498     36.8618   8.4701816048e+01   7.0266546656e+01    0.6281222    0.3244898 -57.58  0.003106958    1.828    0.453
         4 -11.8869     48.5135     12.9802   4.9689117452e+01   6.8397514765e+01    0.6384726    0.2924187  49.95  0.002951246    2.054    0.513
         5 -11.8809     26.6211     27.9993   6.8122153661e+01   6.9729279630e+01    0.5567971    0.3566343 -38.05  0.002537815    1.511    0.338
         6 -12.2186     20.1085     21.9140   6.9080190646e+01   7.1552997402e+01    0.5479035     0.385909 -14.31  0.001923664    1.361    0.265
         7 -11.8987     35.6799     17.8970   5.8274510617e+01   6.9977065454e+01    0.7097808    0.3110122 -27.85  0.003193786    2.710    0.631
         8 -12.1584    105.9808     20.8915   3.5575324329e+01   5.5121838727e+01    0.4765904    0.3421779 -79.59  0.001718768    1.663    0.399
         9 -11.9503    145.1212     24.1086   2.9682629400e+01   4.5347355626e+01    0.6708924    0.5028704  76.84  0.003880284    1.197    0.165
        10 -11.4613    134.9456     22.1195   3.0623764007e+01   4.8027463303e+01    0.6731102     0.352768  59.01  0.002714165    1.713    0.416
        11 -10.4527    127.1464     11.8622   2.8563066364e+01   5.0979607543e+01    0.3479498    0.2332455 -75.00  0.001557849    1.602    0.376
        12 -11.3610    134.2386     14.9362   2.8477404140e+01   4.8963300329e+01    0.6044246    0.2664428  62.11   0.00278243    1.942    0.485
        13 -10.6078    121.4917     11.8011   2.9441180839e+01   5.2347895454e+01    0.3724986    0.1663602  67.44  0.001700231    1.935    0.483
        14 -10.6422     90.7961     22.2198   3.9699584652e+01   5.8502841236e+01    0.4186261    0.2850656 -32.69  0.001880471    1.616    0.381
        15 -10.4877     87.3793      7.4515   3.4543014205e+01   6.0800243976e+01    0.5108179    0.2723509  63.98  0.002289478    1.660    0.397
        16 -11.2966     85.8667     14.0793   3.7674171928e+01   6.0506348381e+01    0.7176777      0.44685  18.91  0.003425774    2.149    0.535
        17 -11.1101    179.5773     20.2807   2.4438731146e+01   3.7680145015e+01    0.4711982    0.2406311  45.40  0.001888405    2.818    0.645
        18 -11.1390      6.0647     10.9577   7.2857414498e+01   7.4856142265e+01    0.5285773    0.4750265  30.38  0.003887736    1.473    0.321
        19 -10.4853     12.6316      8.6638   6.6968328833e+01   7.4495894118e+01    0.3645458    0.2613682 -60.04  0.001803842    2.392    0.582
        20 -12.0836     16.1292     14.3059   6.7731698717e+01   7.3235648511e+01    0.6570148    0.3634793 -14.44  0.003381107    2.237    0.553
        21 -11.7939     22.7551     11.2557   6.1926628064e+01   7.2825017293e+01    0.4647927    0.2848286  12.42  0.001738168    1.737    0.424
        22 -12.4481    164.5350     18.3855   2.5557502726e+01   4.1366890662e+01    0.5134954    0.2741199  47.11  0.002470138    2.339    0.573
        23 -12.2589    227.6472     15.3386   1.9431934427e+01   2.8031928026e+01    0.4608304    0.2621207 -82.02  0.001444827    1.616    0.381
        24 -10.2199    148.3766     16.0381   2.6856879198e+01   4.5449146476e+01    0.3327661    0.1746145  47.49  0.001048343    2.197    0.545
        25 -12.2532    104.8213     12.8213   3.2836600464e+01   5.6234585419e+01    0.4990405    0.3482395 -32.34  0.002371674    1.598    0.374
        26 -11.7906     67.9689     18.3223   4.4852944174e+01   6.3940447926e+01    0.4478481    0.3907579  45.44  0.001603263    1.067    0.063
        27 -11.4496    205.9105      2.5418   1.8142235613e+01   3.3802922187e+01    0.4939792    0.2254862  89.51   0.00260343    2.060    0.514
        28 -11.4513    211.9854      9.5979   1.9266603529e+01   3.1809057609e+01    0.5185964    0.3128498 -13.87   0.00276258    2.822    0.646
        29  -9.9183    211.7973      3.3793   1.7951204563e+01   3.2496368698e+01    0.1421805    0.1263038  86.78 0.0001567846    1.305    0.234
        30 -11.2012    192.4047      8.4931   2.0440291735e+01   3.6088683501e+01    0.4672822    0.3063307   5.35  0.002353807    3.096    0.677
        31  -9.8773     98.7932     11.9239   3.3753186134e+01   5.7741131408e+01     0.243336    0.1458661  11.02  0.001143206    2.538    0.606
        32 -10.0441     65.9299     10.4073   4.1867316603e+01   6.5231833548e+01    0.3040745    0.1563038  51.15  0.001209835    1.657    0.397
        33 -10.0888     62.6004      7.1994   4.1433469977e+01   6.6245768063e+01    0.2636849    0.2112622   7.43  0.001428477    1.319    0.242
        34 -11.4088    247.0756      5.7183   1.6468115830e+01   2.5420442915e+01    0.2327731    0.1868398  81.00  0.001121718    1.437    0.304
        35 -11.1381    243.3833      2.7272   1.6091233240e+01   2.6409922888e+01    0.2686527    0.1983408  64.37  0.001967455    1.752    0.429
        36 -10.4265    169.3156      9.4561   2.2689431315e+01   4.1189847400e+01    0.4174009    0.1409374  59.69  0.001779774    2.756    0.637
        37 -10.6626    145.2394      9.7640   2.5414240360e+01   4.6831378680e+01    0.2179782    0.1867308  63.14 0.0003496351    1.199    0.166
        38  -9.7945      1.2016      8.5119   7.5182836309e+01   7.5699335158e+01    0.2735935    0.0651744 -46.00  0.001128519    3.511    0.715
        39 -10.3766    232.7444      7.4246   1.7545494373e+01   2.7910416783e+01    0.2022133    0.1661833 -73.89 0.0008073219    1.167    0.143
        40 -12.0765    234.3595      3.2969   1.6652795180e+01   2.8037656316e+01    0.5011186    0.1995395 -64.95  0.001709443    2.218    0.549
        41 -11.1275    121.9670      6.1395   2.7463412208e+01   5.2756877049e+01     0.355814    0.1655281 -31.71  0.001081517    2.299    0.565
        42 -10.3414    184.6904      7.6552   2.0860664629e+01   3.7878591842e+01    0.2051276    0.1720401  48.09  0.001360883    1.555    0.357
        43 -10.5015    183.4911      4.5410   2.0206316658e+01   3.8457042462e+01    0.1968745    0.1571624 -28.93 0.0008782077    1.509    0.337
        44 -11.3083    177.1367      5.9778   2.1086462404e+01   3.9745179211e+01    0.2984206    0.1755803 -88.39 0.0005855581    1.527    0.345
        45  -9.8885    157.6061      7.1906   2.3268189147e+01   4.4143904899e+01    0.1554446    0.1234264  -7.45 0.0007893743    1.722    0.419
        46  -9.5672     78.0401      7.5201   3.6936310797e+01   6.2897418543e+01      0.19436    0.1118167  61.29   0.00063136    1.549    0.354
        47 -11.0670     74.6756      3.4613   3.6029681321e+01   6.4002705343e+01    0.6595738    0.2228718  55.62  0.002850429    2.309    0.567
        48  -9.5867    163.1434      6.1379   2.2418030782e+01   4.2948182172e+01    0.1792975    0.1543814  64.82 0.0004567223    1.266    0.210
        49 -10.3735     41.3718      4.1395   4.8094053941e+01   7.0691710837e+01    0.2763853     0.172231  16.50  0.001168437    1.774    0.436
        50 -10.8709    218.6615      3.9063   1.7646143923e+01   3.1046078693e+01    0.2594604    0.1840237  88.30 0.0008739589    1.280    0.219
        51 -11.4292    224.0754      2.6288   1.7074572698e+01   3.0099202075e+01     0.305461    0.1725219  80.90  0.000471755    1.654    0.395
        52 -10.3184    141.5737      3.3307   2.3948168951e+01   4.8302152376e+01    0.2473777    0.2003789  68.21    0.0014463    1.160    0.138
        53 -11.6661    133.1228      2.5374   2.4741793817e+01   5.0392355675e+01    0.5347083    0.2486052  75.43   0.00256304    1.894    0.472
        54 -11.0251    105.8911      2.9018   2.8957779191e+01   5.6872762179e+01    0.3367216    0.2472976 -60.59  0.001101209    1.522    0.343
        55  -9.8625     21.8290      3.2495   5.7826552453e+01   7.4008195877e+01    0.1790003    0.1455392 -26.05 0.0005855354    1.348    0.258
        56 -11.1304    113.5163      2.4514   2.7514281021e+01   5.5095976358e+01     0.494395    0.2127726  78.03  0.002149918    2.355    0.575
        57  -9.9062     13.3618      1.6402   6.2281773302e+01   7.5377699969e+01     0.216289    0.1226515  27.83 0.0007913611    1.580    0.367
        58 -10.0969    152.3810      1.4151   2.2205741438e+01   4.5907098913e+01    0.2291846    0.1049124  75.77  0.000200401    1.887    0.470
        59  -9.4366     82.0558      1.1524   3.3136468291e+01   6.2547413974e+01    0.1722394   0.07628245  62.74 0.0003905879    1.906    0.475
        60 -10.9524      2.5722      1.9463   7.0389043315e+01   7.6576848641e+01    0.2926204     0.167972   7.19  0.001464106    1.730    0.422
        61 -10.5439     15.9748    141.0308   9.9755000336e+01   4.4230016503e+01    0.2569033    0.2050353  79.28 0.0007720608    1.183    0.155
        62  -9.3747    249.3538    250.2979   6.0969846993e+01  -9.2779327773e+00    0.1107278   0.06093428  -5.34 0.0007035438    1.695    0.410
        63  -9.5462    188.4783    249.9848   7.1419685809e+01  -2.7150936143e+00    0.1640999    0.1068476 -36.22  0.001038217    1.609    0.379
        64 -11.3430     50.1003    249.2628   1.0025101573e+02   1.5047802437e+01    0.3778436    0.1747219  49.16  0.001964463    1.795    0.443
        65  -9.6370    217.1757    138.8350   4.6691430757e+01   1.1543322513e+01    0.1944473    0.1640477 -51.90 0.0004527681    1.202    0.168
        66 -10.3300     40.4077    137.9285   9.1368617480e+01   4.2676486144e+01    0.2871265    0.2091346  75.27 0.0006618709    1.476    0.323
        67  -9.8875     79.1015    137.7308   7.8815836307e+01   3.7393736466e+01    0.2982647    0.2189503 -54.19 0.0009917646    1.335    0.251
        68  -9.8790     32.0641    137.5165   9.4069284824e+01   4.3682077918e+01    0.2894943    0.1967263  30.81 0.0009358121    1.544    0.352
        69 -11.1271     22.6032    135.9767   9.7003232110e+01   4.4992901028e+01    0.6425427    0.3510979  43.12  0.003002904    1.876    0.467
        70 -11.3778     29.7313    133.1808   9.4245054171e+01   4.5062055587e+01    0.4426438    0.3130387 -41.26 0.0008561064    1.528    0.345
        71 -10.0817     73.1280    133.3407   7.9828823320e+01   3.9469024651e+01    0.2822915    0.2011943 -50.42  0.001325569    1.388    0.280
        72  -9.8474     39.3813    133.4522   9.1025512989e+01   4.3975599341e+01    0.2337386    0.1467996  18.11 0.0006617692    1.839    0.456
        73 -10.3337     30.4647    151.9841   9.6435883112e+01   4.0029829759e+01    0.2573116    0.2012493 -11.85  0.001178031    1.628    0.386
        74  -9.0106    103.7233    131.2960   7.0003983616e+01   3.4704760267e+01    0.1526915    0.1209601  80.28 0.0003869533    1.530    0.346
        75 -11.2937     10.0244    127.8335   1.0026924784e+02   4.8140059779e+01    0.5306245    0.2751892 -52.15  0.001911464    1.823    0.451
        76  -9.2584     26.5425    127.4839   9.4530342675e+01   4.6872388653e+01    0.1408852    0.1267432 -69.41 4.508124e-05    1.032    0.031
        77  -9.5861     22.8694    126.8799   9.5722225465e+01   4.7366185555e+01    0.1977434    0.1702084 -55.52 0.0002654121    1.130    0.115
        78  -9.5489     47.3640    135.1573   8.8621886266e+01   4.2589719163e+01    0.2106717    0.1330187 -80.01 0.0008334589    1.683    0.406
        79 -10.1568      2.0088    125.6184   1.0276557720e+02   4.9242276262e+01    0.2625979    0.1636549  82.00  0.001284567    1.581    0.368
        80  -9.2404     82.3023    125.3397   7.5198255372e+01   4.0014649113e+01    0.1585117    0.1186189 -24.33 0.0007038155    1.671    0.402
        81 -12.4027    103.8172    122.4348   6.7917239377e+01   3.6826938920e+01    0.3658836    0.3514431  30.74 0.0004102301    1.077    0.071
        82 -10.3820     49.8412    122.9494   8.5619273143e+01   4.5488754977e+01    0.2616409    0.1969475  -2.82  0.001271106    1.662    0.398
        83  -9.2588     93.1664    129.4022   7.2715857199e+01   3.7102707950e+01     0.231985    0.1383236  48.39 0.0009538888    1.767    0.434
        84 -10.2240     48.8683    112.4135   8.3887122957e+01   4.8346256158e+01    0.3943865    0.2565735 -45.82  0.001852414    1.521    0.343
        85 -10.4767     44.9976    120.0318   8.6784876744e+01   4.6853691902e+01    0.2645901    0.2020385 -66.92 0.0006166089    1.238    0.192
        86 -10.2847     43.5620    116.4904   8.6634806462e+01   4.7949269994e+01    0.2618667    0.2587113  85.12 0.0006780432    1.060    0.056
        87 -12.7108      2.5278    111.5777   1.0106237427e+02   5.2836568527e+01    0.6234494     0.364969  72.52 0.0005912245    1.912    0.477
        88 -11.4573      4.7701    104.8237   9.9373582528e+01   5.4436951368e+01    0.4363908    0.3555185  11.40  0.002630367    1.404    0.288
        89  -9.8167     79.0440    114.6797   7.3811038570e+01   4.3234579294e+01    0.2922048    0.2212699 -49.90 0.0009159572    1.294    0.227
        90  -9.4054     67.7799    114.8369   7.7667406787e+01   4.5034846093e+01    0.2879818    0.1983437  86.35  0.001232898    1.995    0.499
        91  -9.9999     66.8954    110.7773   7.7040497739e+01   4.6194448733e+01    0.3473182    0.2160807  33.05  0.001234905    1.658    0.397
        92 -11.3864     29.9560     97.2770   8.8067262417e+01   5.4371631576e+01     1.133299    0.3200599 -49.88  0.003868659    3.071    0.674
        93 -11.9975      7.0456     88.7549   9.6057369235e+01   5.8351496661e+01     0.980378    0.4154855   6.46  0.004127879    2.918    0.657
        94 -12.4250     17.8777    100.7508   9.3595170180e+01   5.4572843672e+01    0.4893888    0.4596704  34.40  0.002425314    1.178    0.151
        95 -11.8688     10.1247     96.9325   9.6101533207e+01   5.6107228329e+01    0.6632637    0.5075799  -9.71  0.001165561    1.471    0.320
        96 -11.8274     27.5964     85.0508   8.6412760479e+01   5.7633750835e+01    0.7881641    0.5384781   9.96  0.004093958    1.633    0.388
        97 -10.6748     35.5258     92.7512   8.4814107077e+01   5.4915082122e+01    0.3931514    0.2665018 -73.51  0.001385174    1.579    0.367
        98 -11.7191     25.2089    107.6000   9.1890803106e+01   5.2191045377e+01     1.624818    0.7668762  -5.72  0.005750569    3.759    0.734
        99 -10.6113     37.3020     85.9668   8.2464955982e+01   5.6371961607e+01    0.3832972    0.2133833  22.74  0.001148564    1.939    0.484
       100 -11.1043     21.6605    114.3754   9.4340092330e+01   5.0747874432e+01    0.7243818    0.3188186   5.76  0.002712226    3.346    0.701
       101 -11.1294     28.0421    113.3489   9.1796728497e+01   5.0436748430e+01    0.4508027    0.2867498   1.23   0.00134929    1.994    0.499
       102 -11.2893     22.5675     94.5030   9.0546363768e+01   5.5762677705e+01    0.3589944    0.2957936   4.20 0.0008953236    1.333    0.250
       103 -11.3446     18.3581     91.2076   9.1674851777e+01   5.6940960887e+01    0.4255576    0.3068107  83.28  0.001207997    1.626    0.385
       104  -9.1214     93.9829    112.5095   6.8463703486e+01   4.1077130808e+01    0.2191514    0.1279604  61.19 0.0008080284    2.406    0.584
       105  -9.8695    170.6424    110.3735   4.8594888561e+01   2.5590742391e+01    0.2875009    0.1742079 -40.33 0.0008186189    1.580    0.367
       106 -10.3210    102.7240    108.8260   6.4849941048e+01   4.0252873639e+01    0.4314232    0.2603799  20.19  0.001599279    2.586    0.613
       107 -11.3292     80.0736    108.1643   7.1875559884e+01   4.4656933869e+01    0.4930892     0.330534  28.09 0.0007117717    1.638    0.389
       108 -11.7083     44.2053     85.1019   7.9344923401e+01   5.5733853901e+01    0.5094509    0.3685175  14.80  0.001807752    1.520    0.342
       109  -9.4262    120.2880    109.3643   5.9990733065e+01   3.6536487814e+01    0.1572548    0.1233856 -11.65 0.0007023534    1.697    0.411
       110  -9.8239    143.5268    106.0420   5.3298896026e+01   3.2266533840e+01    0.2894748    0.2163671  70.95  0.001214248    1.573    0.364
       111  -9.7373     85.8325    103.8535   6.8853841779e+01   4.4657853355e+01    0.2281487    0.2085083 -18.81 0.0006313734    1.179    0.152
       112  -9.7413     50.7105    102.3338   8.0996000025e+01   5.0664911803e+01    0.2241951    0.2045343 -75.10  0.000697755    1.116    0.104
       113 -10.6730     52.5051     98.9913   7.9522276463e+01   5.1252673907e+01    0.5518529    0.2192387 -52.77   0.00156491    2.290    0.563
       114  -8.9790     64.7231    101.6723   7.5614181609e+01   4.8790663303e+01    0.2893595    0.1484699 -59.35 0.0006161041    1.980    0.495
       115 -11.8487     68.8945     95.7147   7.2553793414e+01   4.9557342465e+01    0.4305369    0.3298825  13.08 0.0004532607    1.527    0.345
       116 -10.2501     80.9081     98.1437   6.8979904584e+01   4.6901657125e+01    0.5126601     0.258778  52.32  0.001908658    2.442    0.590
       117 -10.4342     83.0636     93.1812   6.6875375635e+01   4.7653330822e+01    0.2620642    0.2128776  41.83 0.0003146851    1.240    0.193
       118 -10.8555     78.5132     93.1311   6.8423791481e+01   4.8498735648e+01    0.5166183    0.4309779 -45.26  0.002668149    1.186    0.156
       119  -9.4189    210.0037     97.7643   3.9052430432e+01   1.9907136763e+01    0.1602211    0.1127704  59.36 0.0007134297    1.607    0.378
       120 -11.9376    125.6712     94.8774   5.4685169579e+01   3.8492146746e+01     0.290856    0.2683902  62.31 0.0002171582    1.083    0.076
       121 -10.5615    122.0000     93.9870   5.5393230525e+01   3.9483183317e+01    0.5598155    0.2563632 -55.91  0.001926121    2.762    0.638
       122 -10.4862     43.2144     94.4676   8.2086135539e+01   5.3588483442e+01    0.3648325     0.289745  30.23  0.001366876    1.321    0.243
       123 -10.8829     98.5735     91.0466   6.1242721445e+01   4.5093391102e+01    0.3206426    0.2318529  48.27 0.0005709384    1.392    0.281
       124 -11.0717     89.4356     90.2716   6.3921168295e+01   4.7091603051e+01     0.439765    0.3041001 -46.82  0.001200672    1.443    0.307
       125 -10.3626     49.3194     91.5414   7.8925013578e+01   5.3512179551e+01    0.3241633    0.2681496  45.92  0.001743459    1.306    0.234
       126  -9.8857     66.0034     88.7224   7.1703266516e+01   5.1676380235e+01    0.3371003    0.2148233 -10.04   0.00132212    2.613    0.617
       127  -9.9838    104.1133     87.2877   5.8472427302e+01   4.4745351360e+01    0.2650175    0.2058897 -35.48  0.001026581    1.365    0.267
       128 -11.0855    143.1758     84.6651   4.7681963551e+01   3.6575351908e+01    0.2569882    0.2385158 -58.20 0.0002524074    1.052    0.050
       129 -10.2458    133.1040     84.7035   4.9997572751e+01   3.8863237628e+01     0.235369    0.1955837 -62.95 0.0003349391    1.239    0.193
       130 -10.5472     80.3950     84.0260   6.5128991553e+01   5.0199967941e+01    0.3591397    0.3490227  33.79  0.001641936    1.031    0.030
       131 -11.0583     74.9599     78.4119   6.5342391303e+01   5.2425759905e+01     0.547124     0.496043  50.96  0.002534452    1.151    0.131
       132  -9.2237    165.5915     83.8400   4.2936560943e+01   3.1640173796e+01    0.2145605    0.1241837 -50.90 0.0009500825    1.702    0.412
       133 -10.6800    113.0954     82.5739   5.4507545946e+01   4.3772662247e+01      0.33922      0.29155 -81.04 0.0003225427    1.295    0.228
       134 -10.0712     66.6380     81.8754   6.9481821124e+01   5.3131122756e+01    0.4500825    0.2887433  33.63  0.002097724    1.590    0.371
       135  -9.6383     60.5956     82.1835   7.1899722764e+01   5.4051775132e+01    0.2382092    0.2014589  -7.91 0.0008336507    1.288    0.224
       136 -11.3909     53.4546     76.6692   7.3134943732e+01   5.6397369624e+01    0.5197862    0.4107252 -61.62  0.002562659    1.355    0.262
       137 -11.1356     58.4134     77.6944   7.1429645224e+01   5.5407154767e+01    0.3100507    0.2562775 -39.42 0.0008060645    1.178    0.151
       138  -9.5394    120.7874     81.7248   5.2198282970e+01   4.2228203516e+01      0.23076    0.1114475 -52.31 0.0003514077    2.339    0.572
       139  -9.4197      1.4173     79.7999   9.7025337814e+01   6.0864196553e+01    0.2389359    0.1154598 -74.51  0.001112443    1.956    0.489
       140 -11.7705     13.6520     75.0424   9.0454938823e+01   6.1244146608e+01    0.6275163    0.4262163 -68.16  0.002446418    1.417    0.294
       141 -10.2421     14.2878     67.6798   8.8442595100e+01   6.2921547433e+01    0.5018649    0.2158754  13.19  0.002171442    2.650    0.623
       142 -10.9832     94.8974     76.6690   5.8057565326e+01   4.8871094708e+01    0.8891812    0.2776346  43.14  0.002815224    3.223    0.690
       143 -10.2126     92.0611     71.9426   5.7448983751e+01   5.0403612397e+01    0.2659813    0.2290284  64.64 0.0003652944    1.248    0.198
       144 -10.7359     79.1943     68.1627   6.0519814915e+01   5.3743647805e+01    0.9184007    0.4199188  53.39  0.003379814    2.721    0.632
       145 -11.0285     83.2073     74.0872   6.1069353491e+01   5.1765786930e+01    0.5126603     0.331918  39.85  0.002150465    1.535    0.349
       146 -10.6997     88.1520     73.1667   5.9112479115e+01   5.0963974851e+01    0.3859602    0.2655216 -50.26  0.001296884    1.518    0.341
       147  -9.6705    233.5031     77.5036   3.1761457987e+01   1.8706365252e+01    0.1267392    0.1005247 -54.58 0.0001122675    1.028    0.027
       148  -8.7777    134.6692     77.3382   4.7527237151e+01   3.9893053995e+01     0.156977    0.1137805 -78.65  0.000705194    1.738    0.425
       149 -11.5469    186.2063     71.4950   3.6402721055e+01   2.9150502228e+01    0.7084058    0.5480032 -30.09  0.003921808    1.438    0.305
       150 -11.0705      2.0320     71.7662   9.5288113965e+01   6.2757674101e+01    0.3971097    0.1803157 -60.95  0.001714288    1.792    0.442
       151 -10.0451     24.3411     73.9829   8.5211191295e+01   6.0589666293e+01    0.2631247    0.2073615 -45.05 0.0007329343    1.140    0.122
       152 -10.2598     28.7163     71.9638   8.2650473913e+01   6.0621152753e+01    0.3234535    0.2165861  37.38   0.00101527    1.636    0.389
       153 -11.0261     34.8558     71.7640   7.9770073575e+01   5.9986962873e+01    0.5112707    0.3173278  22.32  0.002549893    1.694    0.410
       154  -9.9162     41.1994     72.6151   7.7166928916e+01   5.9015061837e+01    0.3143114    0.2411101 -11.64 0.0009750422    1.425    0.298
       155 -10.9873     39.5668     69.3783   7.6933567431e+01   5.9948382432e+01    0.2981376    0.2333919  14.75 0.0009006024    1.320    0.243
       156  -9.6730    153.6855     72.5764   4.2179545445e+01   3.6328778852e+01    0.2721729    0.1319501  52.33 0.0009072238    2.074    0.518
       157 -11.3919    122.9546     68.9069   4.7799226883e+01   4.4130415639e+01    0.4553988    0.2912847  49.86   0.00113883    1.532    0.347
       158  -9.1445    158.9604     76.4894   4.2237378782e+01   3.4436963933e+01    0.2018074    0.1396574  59.03  0.000368636    1.458    0.314
       159 -10.8187    219.9467     66.8377   3.0991049031e+01   2.2858004071e+01    0.4155483    0.2123153  69.11  0.002092393    2.212    0.548
       160 -12.1046     10.0123     62.7077   8.9358021533e+01   6.4375142105e+01    0.6612648    0.2656053 -52.65 0.0003998569    2.011    0.503
       161 -12.2139      4.5983     61.8336   9.1921561683e+01   6.4923909256e+01    0.4865198    0.3746342 -54.90  0.001688611    1.138    0.121
       162  -9.8482    104.0246     74.9142   5.4743154556e+01   4.7273055928e+01     0.230215    0.2199973  51.90    0.0006932    1.026    0.026
       163  -9.1740     51.9620     65.7774   7.0334803616e+01   5.8991371055e+01    0.1811257    0.1124268  31.68 0.0005429506    1.625    0.384
       164  -9.1963     25.6069     65.2461   8.2261967541e+01   6.2466756362e+01    0.1881173    0.1080798 -46.84 0.0009284284    1.559    0.359
       165 -10.1537    157.7026     63.3920   3.8910744857e+01   3.6917814489e+01    0.4336351    0.1956949  44.56  0.001576327    2.794    0.642
       166 -10.5604     87.6191     56.8329   5.3762498691e+01   5.4153318190e+01    0.5021992    0.2311947 -32.87  0.001938178    2.593    0.614
       167 -10.1089     91.7146     57.1694   5.2582601467e+01   5.3221937289e+01    0.2678494    0.1949569  52.06 0.0007605797    1.339    0.253
       168 -11.0254     91.7140     62.8427   5.4539861516e+01   5.2206778676e+01    0.4322126    0.2935093  63.75  0.001378241    1.744    0.427
       169 -10.4661     59.1920     63.3007   6.6472387595e+01   5.8346489322e+01    0.3299289    0.2930687  68.47  0.001224964    1.371    0.271
       170  -9.8053     51.1946     56.4846   6.7462480158e+01   6.1004780134e+01    0.2782241    0.2334921 -13.67 0.0008124959    1.194    0.163
       171 -11.2459     40.9826     57.0552   7.2293661001e+01   6.2394099883e+01     0.417548    0.2232776  39.92  0.001947372    1.990    0.497
       172 -11.1848     43.2461     62.4570   7.3078711760e+01   6.0959943747e+01    0.3088064     0.232555 -43.22  0.000529833    1.269    0.212
       173 -10.4184     50.5176     61.4623   6.9506408163e+01   6.0108633516e+01    0.3010931    0.2294088  34.66  0.001637079    1.323    0.244
       174 -11.1354     46.0151     58.9998   7.0654443813e+01   6.1284592883e+01    0.3536783    0.3078156  80.15  0.001330395    1.536    0.349
       175  -9.6073    106.2412     63.4689   5.0441335023e+01   4.8915018390e+01    0.2966997    0.1335641  46.30  0.001147304    2.174    0.540
       176 -11.2548    235.2756     60.8934   2.8153636535e+01   2.0790198647e+01    0.3301298    0.2685542  81.95  0.002256294    1.332    0.249
       177 -10.7118    122.5077     59.6708   4.5034667604e+01   4.5824829891e+01    0.6501821    0.4157722  11.43  0.002441535    3.261    0.693
       178 -10.6498    117.5681     55.6083   4.4919832672e+01   4.7647326553e+01    0.5926706    0.3535834 -58.49  0.002248107    2.099    0.524
       179 -11.2871    113.4571     49.7280   4.3984270472e+01   4.9538230877e+01    0.7597544    0.3057663  45.45  0.002830757    2.602    0.616
       180 -11.7293    117.6512     44.0288   4.1084225666e+01   4.9400996705e+01    0.5968748    0.4301041  81.43  0.002089362    1.555    0.357
       181 -10.6926    174.5454    247.1189   7.3684822216e+01  -5.8609400701e-01    0.2774544    0.2534083  22.56  0.002008325    1.298    0.229
       182 -12.8101     74.3067     51.7124   5.6445441107e+01   5.7771845885e+01    0.9002162     0.412754 -52.42  0.003424545    2.949    0.661
       183 -10.5689     82.2014     48.1973   5.2392314172e+01   5.6761048496e+01     0.531708    0.3599903   1.07  0.002235953    2.249    0.555
       184 -11.1955     25.0024     59.5020   8.0866180273e+01   6.3796197077e+01    0.6066996    0.1716172  33.47  0.002226107    3.465    0.711
       185 -11.1738     25.0078     56.1710   7.9826112869e+01   6.4512689676e+01    0.6033276    0.3443905 -28.45  0.002260921    1.900    0.474
       186 -10.9322    109.4872     41.5390   4.2158970917e+01   5.1683620994e+01    0.6088278    0.3706524 -19.46  0.002772233    2.185    0.542
       187 -10.2376    106.3112     58.5929   4.8808751310e+01   4.9747399344e+01    0.3142796    0.2066156 -65.78  0.001227049    2.081    0.519
       188 -11.2474     34.8152     51.5358   7.3316610911e+01   6.4330347622e+01     1.207548    0.6645096 -20.38  0.005208853    2.557    0.609
       189 -10.8332    157.6944     55.6189   3.6765200810e+01   3.8133291296e+01    0.4786976     0.348939 -68.00  0.001575357    1.418    0.295
       190 -10.6925     20.5012     55.4680   8.1928568103e+01   6.5113363423e+01     0.438503    0.3067961  87.37  0.002227945    2.283    0.562
       191  -9.6320      7.6538     54.2630   8.8415652165e+01   6.6424158453e+01    0.2281234    0.1563072 -83.27  0.001247504    1.871    0.465
       192  -9.9059    142.6459    249.6953   8.0457411142e+01   3.1189383306e+00    0.1263622   0.08551817  -0.32 0.0007040762    1.712    0.416
       193 -10.4394     68.0860     32.6014   5.1092407546e+01   6.2056216276e+01    0.5199313    0.3147285  47.00  0.002172766    1.529    0.346
       194 -10.9152     60.8188     36.2262   5.5414668418e+01   6.2923552833e+01    0.3992267    0.2962407 -23.36  0.001488442    1.430    0.300
       195 -11.7960     57.5854     30.8537   5.4397983234e+01   6.4340047147e+01    0.4659382    0.3533027 -27.53  0.001230649    1.373    0.272
       196 -11.5945     48.6976     30.4344   5.8033456889e+01   6.5994172473e+01    0.6936054     0.279898  35.95   0.00291054    2.492    0.599
       197 -10.7241     43.0272     28.0403   5.9573808471e+01   6.7310726399e+01      0.20568    0.1794015  24.84            0    1.103    0.093
       198 -10.3087     51.7521     48.3712   6.4186269777e+01   6.2459321939e+01    0.3732495    0.2338814  34.11 0.0007054851    1.555    0.357
       199 -11.3369     46.4076     48.8066   6.6759574632e+01   6.3226095534e+01    0.6338931    0.3597081 -29.75  0.002959728    2.005    0.501
       200 -11.9898     42.5094     43.9864   6.6701882440e+01   6.4709469916e+01    0.6290942     0.340122  34.71  0.003074304    1.808    0.447
       201 -10.4680    146.0116     48.1769   3.6668213014e+01   4.2013038421e+01    0.4809845    0.2539341 -24.20  0.002010413    2.544    0.607
       202 -10.4798    240.5418     50.4521   2.5561420693e+01   2.1249190235e+01    0.1790064     0.162664   6.45 0.0009259096    1.684    0.406
       203 -10.2139    171.4987     48.4557   3.2685847719e+01   3.5959180400e+01    0.2059063    0.1249077  82.47 0.0009900234    1.781    0.438
       204  -9.6975      1.6673     48.8131   9.0268224132e+01   6.7985557587e+01    0.2058037    0.1547088 -69.18   0.00110638    1.400    0.286
       205 -10.8272    200.6444     45.6901   2.8363857937e+01   2.9835805137e+01    0.4474807     0.260629 -66.52  0.002063498    1.735    0.423
       206  -9.9849     22.9765     37.4888   7.4250220682e+01   6.8482648931e+01    0.6743226    0.4231037  61.76  0.002953714    3.560    0.719
       207 -11.1360     20.6213     45.8714   7.8703924432e+01   6.7101731245e+01    0.3893036    0.2429341 -31.20 0.0005079435    1.539    0.350
       208 -10.8311     26.6777     42.8895   7.4319758345e+01   6.7029476766e+01    0.3779286    0.2779042  42.55  0.001892606    1.624    0.384
       209 -10.0336     13.2347     47.1630   8.3238660923e+01   6.7520861552e+01    0.3275341    0.1467451 -39.32  0.001533546    2.061    0.515
       210 -10.7663    136.8514     45.0437   3.7413413292e+01   4.4660638039e+01    0.6792726    0.2360252  48.95  0.002410106    3.053    0.672
       211  -9.5697    161.0770     43.6700   3.2919406044e+01   3.9064292342e+01    0.2729414    0.1224148  74.22  0.001089198    2.524    0.604
       212 -10.4457    155.8278     42.2567   3.3327201241e+01   4.0502038063e+01    0.2722373     0.233691 -38.86 0.0009642559    1.257    0.204
       213  -9.2065    113.3215    249.3420   8.6605525151e+01   7.0649478500e+00    0.1239389   0.09059173  -6.36 0.0007050306    1.724    0.420
       214 -10.2079     11.6010     30.5166   7.8193073305e+01   7.0952125628e+01    0.3333753    0.2063621 -13.60  0.001690237    1.667    0.400
       215 -10.2384      7.0259     30.4823   8.1075671550e+01   7.1354085248e+01    0.3380167    0.1535874  -4.43  0.001447527    3.118    0.679
       216 -10.2892     92.5603     41.7449   4.6747686827e+01   5.5529423865e+01    0.4033766    0.1887438  55.34   0.00169567    2.048    0.512
       217  -9.7494     17.1634     42.0953   7.9293558543e+01   6.8199832496e+01    0.2073659    0.1435364 -25.46 0.0009839052    1.354    0.262
       218 -10.4092     89.7212     29.3991   4.2831378734e+01   5.7872739168e+01    0.2377225    0.2095165  80.38  0.001421396    1.230    0.187
       219 -10.3119     80.2690     39.3041   4.9613304243e+01   5.8563807620e+01    0.4192911    0.2716419  73.62  0.001898488    2.292    0.564
       220 -11.3419     79.6893     33.3298   4.7414980101e+01   5.9549719074e+01     0.720825    0.3319441  39.62  0.003028206    2.279    0.561
       221  -9.8143    231.5162     38.5347   2.3890296838e+01   2.4500843110e+01    0.2533556   0.09871466 -37.05  0.001227317    2.224    0.550
       222  -9.8831    194.8474     37.8826   2.7151474265e+01   3.2128300626e+01     0.172044    0.1607049 -83.74 0.0002909388    1.201    0.167
       223  -8.6585    206.3239     37.3043   2.5851819672e+01   2.9737000522e+01    0.1118599    0.0969575  37.50 0.0007032162    1.640    0.390
       224 -10.2095    176.7506     35.7132   2.8677011208e+01   3.6467897235e+01    0.3584582    0.1772284 -51.37   0.00107654    1.923    0.480
       225 -10.7787    176.4929     30.8310   2.7453609005e+01   3.7140890536e+01    0.2481967    0.1660499  57.40   0.00106179    1.590    0.371
       226  -9.7770    132.9567     36.9951   3.5645030769e+01   4.6701660204e+01    0.3267872    0.1811448 -87.94  0.001314323    2.661    0.624
       227  -9.5119     94.2023     35.9227   4.4095841335e+01   5.5994669377e+01    0.2040971    0.1786353 -83.72 0.0006906607    1.299    0.230
       228 -12.2473    160.0128     29.9267   2.9270688352e+01   4.1100074403e+01    0.4253949    0.3568076 -57.42  0.000473348    1.151    0.131
       229 -12.4071    164.5002     27.7595   2.8094253166e+01   4.0302544297e+01    0.3027382    0.2405196  89.50 0.0005303269    1.120    0.107
       230 -11.3729    106.7857     32.0749   3.9458350768e+01   5.3599266240e+01    0.5216804    0.3181739  19.91  0.002191226    2.685    0.628
       231 -11.9640    114.2224     25.0446   3.5331059137e+01   5.2691418617e+01    0.7296205    0.2705305  51.49  0.002455127    2.444    0.591
       232 -10.4963    240.0815     32.3478   2.1992827436e+01   2.3656201191e+01    0.2227549    0.2154338   3.02  0.001705702    1.571    0.363
       233 -10.5324     32.4704     31.1755   6.6352024165e+01   6.8407802577e+01    0.2236137    0.1999562 -32.74 0.0002751769    1.226    0.185
       234  -9.8674    213.5089    248.4773   6.6650147569e+01  -5.3856382220e+00    0.1140647   0.08596574  -0.71 0.0008101368    1.016    0.016
       235 -10.3735    242.5986    247.1977   6.1579743088e+01  -8.2541782521e+00    0.1522945   0.07706238 -24.29 0.0008019507    1.708    0.415
       236 -11.9760    126.6395    241.5577   8.2813724514e+01   6.6573684532e+00    0.3585538    0.3038045  65.78  0.001874261    1.451    0.311
       237 -10.5632     38.8548     22.2510   5.8850024011e+01   6.8850389566e+01    0.1994438    0.1692366 -20.52  0.001294825    1.186    0.157
       238 -11.3961     12.3146    136.2346   1.0042526335e+02   4.5774748673e+01    0.5464996    0.3357343 -53.32  0.002783297    1.574    0.365
       239  -9.4933    230.4424     30.5467   2.2336636877e+01   2.5705723025e+01    0.1176113   0.09242919 -62.67 8.228873e-05    1.036    0.034
       240 -11.0609    188.9936     28.0852   2.5408976374e+01   3.4648200913e+01    0.3077091    0.2746191 -28.02  0.001486782    1.397    0.284
       241  -9.2284    163.4697    243.4873   7.5373193607e+01   1.3945132921e+00    0.1230864    0.1013617  11.78 0.0008097579    1.009    0.009
       242 -12.0813    126.2330     28.6428   3.4211459950e+01   4.9378455221e+01    0.5400777    0.3745362  77.91  0.002872193    1.410    0.291
       243  -9.9075     98.3640     29.2249   4.0463663374e+01   5.5924136568e+01    0.4158591     0.215342 -58.01  0.001654438    3.058    0.673
       244 -10.5164    198.1028     28.7743   2.4678909701e+01   3.2563486203e+01    0.3560534    0.1569971  57.56  0.001691448    2.467    0.595
       245 -11.3205    183.1470     25.5130   2.5378780509e+01   3.6266622960e+01    0.3119802    0.2528021  83.58  0.001118241    1.147    0.128
       246  -9.6492    187.5377     22.9285   2.4303063847e+01   3.5583243644e+01    0.1738116    0.1616925  -7.33 0.0005512994    1.473    0.321
       247 -11.1818     67.4190    240.9130   9.5820227557e+01   1.4619716663e+01    0.3993506    0.2300243  35.07  0.002187439    1.463    0.317
       248 -10.8379     72.8766    238.0868   9.4346230126e+01   1.4499384311e+01    0.5434946     0.217148  34.20  0.002473971    2.057    0.514
       249  -9.8646    234.7522    239.9783   6.1766218759e+01  -6.5490278902e+00    0.1388487   0.07779675 -31.68 0.0008827277    1.578    0.366
       250 -11.9439    146.9083    237.8159   7.7998963985e+01   4.5431691471e+00    0.4898174    0.3315187  43.17   0.00224792    1.521    0.342
       251 -10.3012    127.5112     16.3588   2.9972337664e+01   5.0441903590e+01    0.2936014    0.1881484  66.29   0.00100445    1.366    0.268
       252  -9.2304    221.6854    239.3294   6.3862699030e+01  -5.0593113240e+00   0.09351696   0.09006184  20.66 0.0007044827    1.676    0.403
       253 -10.4790    156.4138     20.5381   2.7119594571e+01   4.3047042327e+01    0.2913114    0.1404095  64.40  0.001392151    1.860    0.462
       254 -11.0912    167.6660    238.2843   7.3792110999e+01   1.6777926550e+00    0.1990397    0.1783275  25.63 0.0007439234    1.226    0.184
       255  -9.9822    232.8229    235.7406   6.1435372116e+01  -5.7897650577e+00    0.1901434    0.0937982  -8.32 0.0009420056    2.709    0.631
       256  -9.6676    243.8590    235.1797   5.9559153527e+01  -6.8694428764e+00    0.1558857   0.09935433  -9.04 0.0006111857    1.318    0.241
       257  -9.8139     89.5106     16.5019   3.7734448910e+01   5.9427052819e+01    0.2243603    0.1532801  52.54  0.001052426    1.279    0.218
       258  -9.9851     59.7639     23.5653   5.0238230239e+01   6.4941960606e+01    0.2110747     0.169985 -24.97 0.0005117757    1.316    0.240
       259 -10.2920    223.1842     22.0890   2.1125014387e+01   2.8141415527e+01    0.2087881    0.1403523 -80.31 0.0004464838    1.312    0.238
       260 -11.1094    196.9933    232.0179   6.7162889245e+01  -1.1123858479e+00    0.2700311    0.1535058  22.63  0.001208518    1.634    0.388
       261  -9.0477      5.6915     22.0084   7.8461346100e+01   7.3025085909e+01    0.3673348     0.187383 -15.71  0.001453231    2.304    0.566
       262 -10.7224    122.8754    232.6264   8.2500711344e+01   8.8098120734e+00    0.2185373    0.1769106 -33.86  0.001331612    1.389    0.280
       263  -9.3217     15.3750    233.7965   1.0675971569e+02   2.1913318615e+01    0.1587985   0.09890752 -70.47 0.0009482811    1.713    0.416
       264  -9.1138    166.6629    225.6754   7.2127448275e+01   3.9019891450e+00    0.1335671   0.08924632  -4.92 0.0007051237    1.719    0.418
       265  -9.7494     75.2374    224.2106   9.2439687268e+01   1.7062299940e+01    0.1886524    0.1367476  58.99 0.0008096032    1.338    0.253
       266 -10.0917     74.6668     19.5241   4.3201661347e+01   6.2385958541e+01    0.2421952    0.1801482  36.16  0.000519073    1.268    0.211
       267 -11.0180    245.9858     19.4974   1.9115707593e+01   2.4094868305e+01    0.1799046    0.1181511 -48.98 0.0007140401    1.210    0.174
       268  -9.7013    234.0539    223.5082   5.9310555232e+01  -4.2668634011e+00    0.1572868   0.09954731  24.19 0.0006365658    1.557    0.358
       269 -10.0994     47.0547     19.1968   5.3458113236e+01   6.7884646593e+01    0.2538139    0.2128576 -12.61  0.001634358    1.196    0.164
       270  -9.0969      1.5312     20.4700   8.0677597251e+01   7.3634991861e+01    0.1200838   0.09325641 -21.14 6.386483e-05    1.048    0.046
       271 -10.3016    247.0010    231.0306   5.8419975231e+01  -6.6553847010e+00    0.1413479     0.131462 -19.74 0.0008321992    1.651    0.394
       272  -9.7534     49.6836    222.6635   9.8302547831e+01   2.0599575878e+01    0.1220668   0.09803192 -29.82  0.000704807    1.698    0.411
       273 -11.3028    239.1635     16.1032   1.8869501348e+01   2.5741160051e+01    0.2158327     0.136855 -71.84  0.001442915    1.305    0.234
       274 -10.3714    186.9774     15.0184   2.2440988563e+01   3.6595936484e+01    0.1867091    0.1533681 -75.83 0.0003556076    1.020    0.019
       275  -9.5485    152.9906    219.4964   7.4051977884e+01   6.9295041156e+00    0.2002288    0.1175153  30.92  0.000505209    1.553    0.356
       276  -9.9742    164.7555    211.9888   7.0372535687e+01   6.5765250134e+00    0.2202749    0.1751581  25.55 0.0005557399    1.167    0.143
       277  -9.4871     74.7631     13.5984   4.0560931406e+01   6.3018195687e+01    0.1796235    0.1153726  67.40 0.0009437675    1.652    0.395
       278 -10.2120    152.9480    207.1541   7.2116343057e+01   9.2375369787e+00    0.3013499    0.1964855 -70.03  0.001398567    2.492    0.599
       279  -9.1077     61.5132    206.5000   9.3917044531e+01   2.2777042992e+01    0.1356926    0.1205333  57.71 -5.890329e-05    1.008    0.008
       280  -9.3046     78.4949    203.5798   8.9320957819e+01   2.1180570119e+01    0.1388354    0.1234407  51.25    0.0001284    1.019    0.019
       281 -10.1339    139.3401    198.6671   7.3778184242e+01   1.3027547246e+01    0.2166444    0.1686149  68.21  0.001122041    1.715    0.417
       282 -10.6548      6.1552    198.6743   1.0700501349e+02   3.0579389310e+01    0.2465245    0.1253013 -69.52  0.001265251    1.881    0.468
       283  -9.9222    233.9430    196.7927   5.4881965332e+01  -3.8760058173e-01    0.2170815    0.1438736 -33.01  0.001061596    1.286    0.222
       284 -11.5441      5.1163    185.8516   1.0652016120e+02   3.3725470952e+01    0.4277846     0.360551  36.57  0.001987528    1.272    0.214
       285 -10.9846      2.9799    181.7156   1.0681849170e+02   3.4903324271e+01     0.330519    0.2670524 -34.25  0.002037013    1.604    0.376
       286  -9.0939     86.5139    185.4706   8.4824361827e+01   2.4271033534e+01    0.1436159    0.1348066  55.62 0.0002108637    1.002    0.002
       287  -9.3746    113.4884    175.9911   7.6219762308e+01   2.2222131579e+01    0.2055642    0.1186411 -32.41 0.0007529177    2.362    0.577
       288  -9.4372     28.1696    175.8135   9.9621887537e+01   3.4112176735e+01    0.1813996     0.153087 -54.16 0.0005834404    1.309    0.236
       289  -9.9530     51.5129    172.7610   9.2730336759e+01   3.2260148740e+01    0.4293676    0.1803995 -81.70  0.001489745    3.167    0.684
       290  -9.2278     35.6653    169.3162   9.6854867333e+01   3.4983061716e+01    0.1519859   0.09196004  61.55 0.0007047568    1.693    0.409
       291 -11.6586      9.2062    166.8514   1.0413756122e+02   3.8106318500e+01    0.3562536    0.2881814  23.28  0.001484848    1.408    0.290
       292 -11.6262     11.6968    162.8271   1.0311355963e+02   3.8927654305e+01    0.3382094    0.2698999 -65.99  0.001576367    1.232    0.189
       293 -10.2807     18.9651    164.9074   1.0120964047e+02   3.7770174468e+01    0.3015462     0.200266   1.52  0.001522156    2.034    0.508
       294  -9.8543    204.9787    163.2095   5.3620869542e+01   9.2355692376e+00    0.2300772    0.1705981 -34.88 0.0006326768    1.197    0.164
       295 -10.2785     27.9337    161.6877   9.8285343880e+01   3.7752203588e+01     0.342309    0.1922152 -56.55  0.001620692    1.756    0.430
       296  -9.5547     38.0163    160.7282   9.5188274222e+01   3.6946044518e+01    0.1961366    0.1811181  59.31 0.0007466336    1.082    0.075
       297  -9.1772    215.4796    157.4344   5.0679906407e+01   8.5904095352e+00    0.1304534    0.1113174 -25.01 7.946837e-05    1.034    0.033
       298 -10.9442      9.1049    155.5396   1.0325940230e+02   4.1002948618e+01    0.2789094    0.1796921 -80.78  0.001021606    1.370    0.270
       299 -10.4384    104.4930    154.5494   7.4667697416e+01   2.8881590929e+01    0.3254564    0.2803445 -22.96   0.00165756    1.320    0.242
       300 -12.2851     23.1048    148.7754   9.8350019619e+01   4.1580817411e+01    0.6730745    0.3507986 -38.18  0.001930802    2.477    0.596
       301 -11.2097     16.1336    147.9721   1.0043147724e+02   4.2401150216e+01    0.3010626    0.2589223  62.00  0.000724814    1.138    0.122
       302 -10.3508      3.7853    153.2559   1.0464394275e+02   4.1983528271e+01    0.3619217    0.1531315  50.43  0.001576507    2.352    0.575
       303  -9.7130    142.0738    152.5100   6.4503953450e+01   2.2478069161e+01    0.3354009    0.1391289  45.90  0.001198905    2.551    0.608
       304 -11.1006     46.5188    147.4197   9.0806175790e+01   3.9456075966e+01    0.6757812    0.3146654 -51.48  0.002542448    2.141    0.533
       305 -10.0375     66.0232    149.5008   8.5039984822e+01   3.6337824243e+01    0.4137499    0.2270504   7.81  0.001436618    3.219    0.689
       306 -11.0671      5.9260    142.0378   1.0304634175e+02   4.4727614518e+01    0.4537219    0.2275167  80.78 0.0003007117    2.089    0.521
       307 -11.1377      2.0932    140.4474   1.0410934450e+02   4.5397508084e+01    0.5081296    0.2613935  86.54  0.001225681    1.886    0.470
       308 -10.4448      3.2632    147.5215   1.0434104213e+02   4.3493813048e+01    0.2400283    0.1616095 -80.71  0.000816814    1.288    0.223
       309  -9.5691     74.0336    146.0374   8.1967708936e+01   3.6051291393e+01    0.2290622    0.1772583 -27.87 0.0005324587    1.565    0.361
       310 -11.2208     33.1745    144.4490   9.4642275835e+01   4.1736037484e+01    0.3064279    0.2689378  78.62 0.0006973894    1.086    0.079
