#   1 NUMBER                 Running object number                                     
#   2 MAG_AUTO               Kron-like elliptical aperture magnitude                    [mag]
#   3 X_IMAGE                Object position along x                                    [pixel]
#   4 Y_IMAGE                Object position along y                                    [pixel]
#   5 X_WORLD                Barycenter position along world x axis                     [deg]
#   6 Y_WORLD                Barycenter position along world y axis                     [deg]
#   7 A_WORLD                Profile RMS along major axis (world units)                 [deg]
#   8 B_WORLD                Profile RMS along minor axis (world units)                 [deg]
#   9 THETA_WORLD            Position angle (CCW/world-x)                               [deg]
#  10 FWHM_WORLD             FWHM assuming a gaussian core                              [deg]
#  11 ELONGATION             A_IMAGE/B_IMAGE                                           
#  12 ELLIPTICITY            1 - B_IMAGE/A_IMAGE                                       
         1 -14.0985     68.2662    144.4681   1.0474485923e+02   3.7344841535e+01     3.449068     1.558421  87.59  0.003094531    4.765    0.790
         2 -13.9680    226.6962     15.9211   3.7760489511e+01   2.6852301493e+01     1.734915     1.134567  25.15  0.006172844    2.292    0.564
         3 -13.5143    208.9969     34.1625   4.4151319315e+01   2.8835924450e+01     1.139343    0.7848096 -36.46  0.004179322    1.290    0.225
         4 -12.5816    216.5813     26.2907   4.1283257495e+01   2.8001861042e+01    0.5609344     0.426912  32.03  0.001113715    1.682    0.406
         5 -10.7863      2.4755      4.2081   1.0181803948e+02   7.7657607545e+01    0.4629725   0.07486332 -56.52  0.001703732    3.569    0.720
         6 -13.7707    200.4914     39.5377   4.6598040991e+01   3.0177108647e+01     1.424195     1.144964 -11.58  0.004664686    1.376    0.273
         7  -9.5088     62.1436    200.7249   1.1228952504e+02   2.5937185831e+01    0.1924493    0.1387457  71.70 0.0004441589    1.323    0.244
         8  -9.7909    174.3727    249.3349   9.4830534506e+01   3.6765502280e+00    0.1902451    0.1316438  51.44 0.0008914875    1.984    0.496
         9 -13.4262     48.7340    220.6089   1.1654160730e+02   2.3741043330e+01     1.180565    0.7366167  88.36  0.007778999    1.689    0.408
        10 -13.2778     40.4361    235.0883   1.1895693872e+02   2.2094556463e+01    0.8135759    0.3419492  65.09  0.003392766    2.317    0.569
        11 -15.3001     76.9256    247.7423   1.1269729595e+02   1.6036307069e+01     9.079337     2.732697  24.88   0.02693239    7.789    0.872
        12 -13.3196     31.5572    247.9572   1.2116332220e+02   2.0870885761e+01    0.8887057    0.5882304  27.71  0.006586104    1.568    0.362
        13 -13.5769     22.5701    223.8987   1.2196888120e+02   2.5803402982e+01     1.089134    0.3694664  60.62  0.003658067    2.486    0.598
        14 -15.9647     33.3781    184.7747   1.1774251229e+02   3.2341651845e+01     8.265461     2.619864  74.03   0.02725463    5.278    0.811
        15 -10.8079    194.6703    198.0116   8.4060931355e+01   7.3837079815e+00    0.2628745    0.1638736 -52.17  0.001424909    2.552    0.608
        16 -10.6123    192.4532    192.4036   8.3551962609e+01   8.4835844835e+00    0.4155884    0.3586175 -61.54  0.002715864    1.819    0.450
        17 -13.8371     85.4971    226.8585   1.0945675127e+02   1.8346220603e+01     2.262852     0.806074  44.53  0.006570438    2.166    0.538
        18  -9.4093     66.2236    194.8003   1.1086593724e+02   2.6608450547e+01    0.1519706    0.1448851   7.62  0.001065765    1.335    0.251
        19  -9.3062     72.2083    188.2318   1.0886250279e+02   2.7177046818e+01    0.1741588    0.1202882  58.90 0.0004726035    1.320    0.242
        20  -9.5429    146.5906    183.7857   9.1304389710e+01   1.7021847062e+01    0.1630238    0.1278642 -62.59 0.0009465304    1.635    0.388
        21 -12.0048     61.1680    179.9858   1.1070824121e+02   3.0269693588e+01     0.393309    0.2802392 -29.71  0.002166057    2.156    0.536
        22 -11.9047     66.4715    174.4298   1.0884846761e+02   3.0797281694e+01    0.2910257    0.2619434 -29.20  0.001107105    1.441    0.306
        23  -9.2078     99.3632    180.9900   1.0160486659e+02   2.4898296771e+01    0.1705627    0.1602122  67.34 0.0004796049    1.100    0.091
        24 -13.2238     33.5097    207.8426   1.1901941187e+02   2.7705174543e+01    0.5304074    0.4105693 -25.91  0.001396956    2.098    0.523
        25 -15.2209      8.2195    239.6459   1.2516065208e+02   2.4390206753e+01     1.895267     1.315769 -85.22   0.01518606    1.588    0.370
        26 -10.3928    139.9656    172.6492   9.0949751139e+01   2.0093307162e+01    0.5106083    0.2596312  57.72  0.001978323    3.167    0.684
        27 -13.4871     63.4776    160.6901   1.0811290048e+02   3.4214758224e+01    0.5139989    0.3310123 -45.41  0.001826229    1.942    0.485
        28 -11.6884     76.2576    164.5340   1.0522800621e+02   3.1664927733e+01    0.3256636    0.2822978  48.92 0.0003316169    1.067    0.062
        29 -13.7337     80.6913    157.5270   1.0314779647e+02   3.2603786880e+01     2.790992     1.043818  53.70  0.002934549    3.450    0.710
        30  -9.1196    159.2975    162.7035   8.4945116541e+01   1.8584825454e+01    0.1269476    0.1070017  71.45 0.0001886089    1.570    0.363
        31  -9.4212    174.6985    149.0304   7.9032404662e+01   1.8217693959e+01    0.1934785    0.1753435 -17.17 0.0006160612    1.093    0.085
        32 -10.5266    133.9953    145.3405   8.7388716049e+01   2.6436518638e+01    0.8180655    0.1994347 -53.98  0.002035835    6.349    0.843
        33 -14.5506      9.5255    207.4260   1.2402870096e+02   3.0015216885e+01     1.135826    0.9308428  -1.01  0.003887197    1.841    0.457
        34 -10.8718     97.9543    143.5031   9.6322763396e+01   3.3126187144e+01    0.3322997    0.3069078   6.46 0.0009542631    1.239    0.193
        35  -9.8702    100.7673    140.0201   9.4937210979e+01   3.3448392381e+01     0.370969    0.2533901 -13.10  0.001589673    2.490    0.598
        36 -11.5309     31.7403    144.3232   1.1516985204e+02   4.1597062109e+01    0.4076768    0.3011391  42.90  0.002445509    1.296    0.228
        37 -12.2384     85.9037    142.1326   9.9412100491e+01   3.5348416812e+01     0.284431     0.256524 -50.93 0.0004295616    1.210    0.174
        38  -8.8229    158.9904    135.0312   7.9416464774e+01   2.3715580916e+01    0.1703973     0.159971 -18.92 0.0002985608    1.064    0.060
        39 -10.8774     25.6174    134.6313   1.1610076378e+02   4.4495968662e+01    0.2663769    0.1582189  47.99 0.0008752333    1.562    0.360
        40 -10.7753    107.5023    131.5791   9.1475356823e+01   3.4195460218e+01    0.5340065     0.327624  41.93  0.002157349    1.568    0.362
        41 -11.3460     46.0471    129.4171   1.0931912379e+02   4.3745214252e+01    0.3327319     0.239484   5.55  0.001740329    1.875    0.467
        42 -10.1232    135.5350    124.0232   8.2465080242e+01   3.0538403356e+01    0.4002605    0.1423022 -41.54  0.001323968    3.062    0.673
        43  -9.8046    116.0837    125.7910   8.7923573789e+01   3.3925454360e+01    0.2287273    0.2037631  69.34   0.00122622    1.177    0.150
        44 -10.4314     96.4248    128.0873   9.3890187719e+01   3.6920728897e+01    0.3060265    0.2433537 -32.07  0.001001236    1.498    0.333
        45  -9.8068    106.4079    120.0994   8.9361553712e+01   3.7003704609e+01    0.2191689    0.1984013  27.71 0.0003519153    1.164    0.141
        46  -9.4579    168.2826    113.3224   7.2331200993e+01   2.5876979746e+01    0.2844029    0.2120555 -80.28  0.001282782    2.068    0.516
        47  -9.2793    135.0000    113.0019   7.9972833980e+01   3.2948149978e+01    0.2498704   0.08562024 -45.26  0.000802592    2.944    0.660
        48 -10.1295    205.2256    110.6325   6.4677381958e+01   1.8721193504e+01    0.3048041    0.2303751  27.44 0.0009950992    1.424    0.298
        49 -11.7247    183.4470    215.1309   8.8734855388e+01   6.7041182345e+00    0.3243949    0.2374662   5.78  0.002173129    1.295    0.228
        50  -9.9200    134.4481    103.6708   7.7732492088e+01   3.5011070192e+01    0.4035237    0.1488501 -43.20  0.001102641    2.722    0.633
        51 -11.9545    243.3177    101.1423   5.6809396431e+01   1.2900496419e+01    0.4235736    0.1535777 -26.33  0.001691733    2.679    0.627
        52 -10.0757    250.2225     88.0214   5.2994869694e+01   1.3395615667e+01    0.1762425   0.08802719 -29.40 0.0003925312    1.662    0.398
        53  -8.7216    150.7732     83.0228   6.8004306606e+01   3.5429040444e+01    0.1937704      0.12437 -38.61            0    1.527    0.345
        54  -9.0498     72.0221     83.4766   9.1548574900e+01   5.1721728000e+01    0.2137834    0.1167947  57.92 0.0008081259    2.533    0.605
        55  -9.5335     61.8088     71.8232   9.2228441807e+01   5.6126366325e+01     0.214167    0.1890119 -31.86 0.0004073025    1.178    0.151
        56 -10.7258     13.3924     60.2461   1.1137416689e+02   6.4113406585e+01    0.2313421    0.1954031 -88.38 0.0004230339    1.160    0.138
        57 -10.9591    169.7847    233.4966   9.3725077449e+01   6.1905948948e+00    0.1788173    0.1545066 -11.28 0.0008567631    1.307    0.235
        58 -10.5087     72.9366    231.0479   1.1231580862e+02   1.9172638641e+01    0.4091954    0.1491994  33.54  0.002060615    2.175    0.540
        59 -13.8166      3.3934    179.3725   1.2445864465e+02   3.6129474459e+01     2.223295    0.5057763 -85.78  0.002529077    4.146    0.759
        60  -9.4084    156.0302     46.4828   5.5360394807e+01   4.0314166092e+01     0.225666    0.1483821  64.67 0.0007366916    1.555    0.357
        61  -9.7868    136.9343     43.4775   5.8140520217e+01   4.5668784640e+01    0.2263043    0.1492771  62.54  0.000647032    1.534    0.348
        62  -8.9878    143.2572     40.6443   5.5799132114e+01   4.4466160710e+01    0.1572538    0.1093474 -58.49 0.0003900881    1.613    0.380
        63 -10.0816      2.1521     19.1812   1.0817966586e+02   7.4446872101e+01    0.1597139    0.1371118 -89.09 0.0008759406    1.330    0.248
        64 -10.2536    189.5314     15.4533   4.0757477401e+01   3.5653154620e+01    0.2478008     0.223258 -69.58 0.0007626793    1.032    0.031
        65  -9.0036    132.0320     10.5119   4.6390985256e+01   5.1199226156e+01    0.2035994    0.1148102 -75.67 0.0005894976    2.353    0.575
        66 -10.0652     37.9322    215.9718   1.1851233676e+02   2.5728830832e+01    0.1823895    0.1213133  55.54 0.0007450014    1.158    0.136
