#   1 NUMBER                 Running object number                                     
#   2 MAG_AUTO               Kron-like elliptical aperture magnitude                    [mag]
#   3 X_IMAGE                Object position along x                                    [pixel]
#   4 Y_IMAGE                Object position along y                                    [pixel]
#   5 X_WORLD                Barycenter position along world x axis                     [deg]
#   6 Y_WORLD                Barycenter position along world y axis                     [deg]
#   7 A_WORLD                Profile RMS along major axis (world units)                 [deg]
#   8 B_WORLD                Profile RMS along minor axis (world units)                 [deg]
#   9 THETA_WORLD            Position angle (CCW/world-x)                               [deg]
#  10 FWHM_WORLD             FWHM assuming a gaussian core                              [deg]
#  11 ELONGATION             A_IMAGE/B_IMAGE                                           
#  12 ELLIPTICITY            1 - B_IMAGE/A_IMAGE                                       
         1 -12.7099    213.4070      3.8701   5.0951959419e+01   3.0572789890e+01     1.064052     0.848612  -2.64  0.004730964    1.508    0.337
         2 -12.8006    200.1737      2.9033   5.1981672523e+01   3.4010261661e+01     1.450763    0.6728556  74.46  0.006267718    2.068    0.516
         3 -13.2557    186.5829     33.0886   6.2644083698e+01   3.4235754922e+01     1.113765    0.9852607 -32.14   0.00328272    1.147    0.128
         4 -13.7557    193.7868     22.9523   5.8568184692e+01   3.3577367562e+01      1.43275     1.171946  12.30  0.001275645    1.433    0.302
         5 -10.1058     67.0061      2.9860   7.8137316432e+01   6.5567190023e+01     0.235504    0.1215843  -0.44  0.001037408    2.613    0.617
         6 -10.5172    240.4637      1.5873   4.8094376409e+01   2.4250189508e+01    0.7811934    0.1742755  77.54  0.002311757    5.390    0.814
         7 -10.3226    177.8864    238.1300   1.1082974737e+02   3.1196193990e+00    0.1729351    0.1344709  49.66 0.0004688402    1.243    0.196
         8 -19.4829     15.1246    137.0911   1.3173580535e+02   4.4726238336e+01     17.23851     2.836801 -74.49   0.05415141    5.479    0.817
         9 -10.5422    105.2407    201.5853   1.1952674692e+02   2.0420906472e+01    0.3671049     0.172628  36.53  0.001782649    2.188    0.543
        10 -11.8691    194.4344    193.9356   1.0113525208e+02   6.3658381918e+00    0.6938761    0.5847355  75.14  0.004139335    1.656    0.396
        11  -9.9833    139.5742    216.9586   1.1491172481e+02   1.2332842740e+01    0.3108899    0.1901579 -87.71   0.00149979    3.046    0.672
        12  -9.9029    113.6425    195.7766   1.1714170041e+02   2.0161867045e+01    0.2444742    0.1893385 -14.41  0.001372316    2.213    0.548
        13 -10.6398     80.7047    196.2950   1.2372835630e+02   2.5006805109e+01    0.5103933    0.3325376 -40.25  0.002825864    2.500    0.600
        14 -10.7901    183.3534    215.3812   1.0665029039e+02   5.2396893209e+00    0.3016109    0.1911472  67.69  0.001477766    2.762    0.638
        15 -10.6488    207.6218    183.7809   9.6877470957e+01   5.4559225519e+00    0.3636067    0.2382146 -47.65  0.001377108    1.949    0.487
        16 -10.9093    210.1906    181.0140   9.5889391198e+01   5.3866330291e+00    0.3906877    0.2935116   8.92  0.002244639    1.379    0.275
        17  -9.9100     99.4894    180.5211   1.1800850815e+02   2.5305991236e+01    0.2219167    0.1885344  64.33 0.0006754317    1.030    0.029
        18 -11.0626    197.5760    174.4788   9.6985198219e+01   8.7255514942e+00    0.5705411    0.3136472 -43.87  0.002724983    2.076    0.518
        19 -11.2002    125.6727    173.3135   1.1138286182e+02   2.2392214568e+01    0.4353272    0.2446391  57.16  0.002052069    1.896    0.473
        20  -8.9792     77.3380    173.6806   1.2182210160e+02   2.9958877504e+01    0.1338872    0.0821951  70.30 0.0007049654    1.709    0.415
        21  -9.8573    146.0282    168.4935   1.0622771500e+02   1.9621215653e+01    0.2110395    0.1258567  44.34 0.0005879351    1.542    0.351
        22 -10.5720    137.5921    171.4145   1.0852830526e+02   2.0628108692e+01    0.2880409    0.2283513  87.05  0.001518998    1.492    0.330
        23 -10.2162    116.1770    212.0562   1.1868210483e+02   1.6882761810e+01    0.2831914    0.1915328  77.95  0.001045124    1.717    0.418
        24 -10.9422    182.7396    233.5707   1.0937948401e+02   2.9242714043e+00    0.3383912    0.1960922  59.12    0.0018066    2.354    0.575
        25 -11.4573     96.9978    157.1501   1.1513784033e+02   3.0494527975e+01    0.5450205    0.4192129 -28.58  0.002965566    1.870    0.465
        26  -9.8258    141.2910    158.0453   1.0532653529e+02   2.2521421828e+01    0.2399761    0.1877035  55.87 0.0003587496    1.250    0.200
        27  -8.4024    151.6644    151.3207   1.0174255730e+02   2.1812822440e+01    0.1458889    0.1117604  81.45 0.0007049888    1.706    0.414
        28 -10.5681    133.7368    144.5786   1.0439265872e+02   2.6667819004e+01    0.9954392    0.2423964 -53.96  0.002529551    5.889    0.830
        29  -8.8826    174.6835    149.2919   9.6421321202e+01   1.7521747913e+01    0.1395454    0.1145215  83.93            0    1.598    0.374
        30  -9.6547    143.4966    145.4773   1.0235905603e+02   2.4582072728e+01    0.1423099    0.1363601  52.89 8.343909e-05    1.011    0.011
        31 -10.7154    107.9981    141.3476   1.0981662857e+02   3.2060631708e+01     0.482544    0.2910931 -36.68  0.002168713    2.193    0.544
        32 -11.5756     96.2118    141.9023   1.1276565337e+02   3.3909711285e+01    0.2548378    0.2529199 -51.83 0.0003922582    1.179    0.152
        33 -10.7327     78.1684    133.2860   1.1572609647e+02   3.8580976736e+01    0.3804812    0.2130011 -70.17  0.001811956    1.835    0.455
        34 -10.9644    115.1845    131.5098   1.0611804849e+02   3.2910079408e+01    0.3397768    0.2923419 -10.54 0.0008926658    1.483    0.326
        35  -9.9741    106.2394    131.0129   1.0823049307e+02   3.4615039920e+01    0.3091385     0.249054 -61.44  0.001142308    1.209    0.173
        36 -10.4360    102.9870    127.9158   1.0841800671e+02   3.5858701049e+01    0.2946274    0.2791983 -59.36 0.0006122098    1.086    0.079
        37  -9.1430    161.0058    127.7672   9.4531575170e+01   2.4461369276e+01    0.2726156    0.1674035 -76.70 0.0009009202    3.697    0.729
        38 -10.3754    136.2446    124.0374   9.9353831356e+01   3.0421940395e+01    0.6128653    0.3309959 -48.60  0.002586929    1.874    0.466
        39  -9.4743    125.1951    127.1708   1.0273377027e+02   3.1957679550e+01    0.2062951       0.1719  88.59 0.0009292887    1.360    0.265
        40 -10.8984    119.4691    125.7433   1.0382554694e+02   3.3357650503e+01    0.3915066    0.2739252  -8.19  0.001656424    2.524    0.604
        41  -9.1047    110.3477    119.9857   1.0484731485e+02   3.6299744213e+01    0.1981343     0.172369 -55.21 0.0003224981    1.118    0.105
        42 -11.4138     66.4979    115.3329   1.1557165722e+02   4.4260771259e+01    0.4006582    0.2206528 -75.31  0.001560216    2.077    0.519
        43  -9.4653    167.7356    112.7244   8.9363551560e+01   2.5870142004e+01    0.3071336    0.2234832 -82.05  0.001218806    2.089    0.521
        44  -9.3290    205.5634    110.2075   8.1130097225e+01   1.7672667332e+01    0.2669885    0.2060751  49.46  0.000639831    1.323    0.244
        45  -8.7232    134.4177    103.2178   9.4641453759e+01   3.5119075297e+01    0.2167628     0.141204 -53.93 0.0009503958    1.638    0.390
        46 -16.4413     53.1370    232.9245   1.3182451892e+02   2.2009369533e+01     4.118123      2.64456  49.63   0.01558262    1.303    0.233
        47  -9.4317    187.3175    210.3103   1.0515018738e+02   5.2706280415e+00    0.1253438   0.08679261  16.31 0.0003236056    1.639    0.390
        48  -8.6169    164.6460    204.3291   1.0842632459e+02   1.0080936262e+01    0.1280805    0.0929006  68.99  0.000704619    1.776    0.437
        49  -9.7116     78.3299    232.2507   1.2752890177e+02   1.8950535306e+01    0.1966894    0.1667329  42.88 0.0007254682    1.410    0.291
        50 -11.1427    169.8681     69.4390   7.6791688096e+01   3.3198334547e+01    0.4956391    0.3437599 -82.16  0.001323519    2.157    0.536
        51 -13.0053    175.9500     42.5753   6.7313077990e+01   3.5750121857e+01    0.8674632    0.7937089 -17.81  0.001065517    1.125    0.111
        52 -11.0823    200.8463    247.2896   1.0817540385e+02  -1.5336129661e+00    0.5177521    0.2411307  34.41  0.002859848    1.738    0.424
        53  -9.2830    168.2464    248.0052   1.1371684852e+02   3.3871720531e+00    0.1481556    0.1237098  40.10 0.0003739238    1.106    0.096
        54  -9.4215    173.5233    246.4709   1.1263915234e+02   2.7621093792e+00    0.1145328   0.08665482  38.14 0.0001150262    1.017    0.017
        55  -9.9884    169.9100    239.8543   1.1242483352e+02   4.1602773386e+00    0.1727373     0.129818  29.34 0.0004070318    1.232    0.188
        56 -10.9031    230.9715     44.1752   5.9815588832e+01   2.1641894583e+01    0.4772792    0.3202202 -54.51  0.001940792    1.521    0.343
        57  -9.1201    158.4535     28.1423   6.5684986632e+01   4.2155729869e+01    0.2758386     0.174301 -85.28  0.001085582    2.259    0.557
        58 -11.5091    235.0095     45.9850   5.9805328901e+01   2.0446827127e+01    0.6386093    0.3548875 -39.06  0.002861677    1.634    0.388
        59  -9.7948    117.0324     11.5032   6.7868784435e+01   5.4293008578e+01    0.2164624    0.1288763  57.04  0.001037674    1.604    0.377
        60  -9.6748    163.4991    240.5135   1.1361084073e+02   5.0835958359e+00    0.1163038   0.08971126  41.70 -2.46488e-05    1.003    0.003
