#   1 NUMBER                 Running object number                                     
#   2 MAG_AUTO               Kron-like elliptical aperture magnitude                    [mag]
#   3 X_IMAGE                Object position along x                                    [pixel]
#   4 Y_IMAGE                Object position along y                                    [pixel]
#   5 X_WORLD                Barycenter position along world x axis                     [deg]
#   6 Y_WORLD                Barycenter position along world y axis                     [deg]
#   7 A_WORLD                Profile RMS along major axis (world units)                 [deg]
#   8 B_WORLD                Profile RMS along minor axis (world units)                 [deg]
#   9 THETA_WORLD            Position angle (CCW/world-x)                               [deg]
#  10 FWHM_WORLD             FWHM assuming a gaussian core                              [deg]
#  11 ELONGATION             A_IMAGE/B_IMAGE                                           
#  12 ELLIPTICITY            1 - B_IMAGE/A_IMAGE                                       
         1 -12.1083    149.2276     28.2132   8.5483065275e+00   4.3474457673e+01    0.5960821    0.3495111  60.04  0.002718227    1.622    0.383
         2 -11.1987     45.1583     12.2440   3.1234248807e+01   7.1374677719e+01    0.5495366     0.223285  46.57  0.002276184    2.368    0.578
         3 -11.7525     49.8077     14.4548   3.0151791678e+01   7.0142518860e+01    0.5541224    0.3419655  46.26  0.001740395    1.560    0.359
         4 -11.7890     56.0407     20.0165   3.0364884820e+01   6.8050814709e+01     0.602934    0.3308164  52.31  0.002161347    1.893    0.472
         5 -12.2126    152.0853     15.2585   3.7593032100e+00   4.4175199892e+01    0.5581061    0.4544937 -13.69  0.002401094    1.427    0.299
         6 -11.3889     17.5148     11.2440   4.9736399396e+01   7.5876050828e+01     0.441818    0.1817605 -39.63  0.001961236    2.315    0.568
         7 -10.8643    120.8933     13.2943   7.6244671952e+00   5.2784128066e+01    0.4305313     0.290518 -19.39  0.002101917    1.667    0.400
         8 -11.4448    182.4864     13.9135   1.4572709918e-01   3.6476217278e+01    0.3715754    0.1858605 -50.61  0.001717082    1.838    0.456
         9 -10.1597     35.2081     13.5927   3.8083830213e+01   7.2948878737e+01    0.2731605    0.1967263 -15.71   0.00112482    1.442    0.307
        10 -11.9130    241.5341     10.9972   3.5542323629e+02   2.3581052960e+01    0.4363359    0.1103384 -31.58  0.001850788    2.837    0.648
        11  -9.9983     79.1842     11.8863   1.6740799849e+01   6.3851900857e+01    0.2055831    0.1895731 -85.61 0.0005857864    1.210    0.174
        12  -9.9016     27.7579     11.4783   4.1835493002e+01   7.4474341369e+01    0.2332087    0.1717561 -34.59  0.001158647    1.310    0.237
        13 -11.4850    129.1491      8.7888   4.5167557480e+00   5.0989111297e+01    0.2626791    0.2415586 -70.36 0.0003134777    1.083    0.077
        14 -10.9381    123.9620      6.6290   4.4413066856e+00   5.2594945641e+01    0.4226193    0.2484538 -81.09  0.001408478    1.906    0.475
        15 -10.1921     69.2475      9.6110   1.8797871364e+01   6.6511070583e+01    0.2463535    0.1883371 -22.35 0.0006860027    1.388    0.279
        16 -10.3692     69.2202      5.5869   1.6454495800e+01   6.6955862905e+01    0.2273153    0.1967624 -31.31  0.001107244    1.269    0.212
        17  -9.6938    115.0546      8.9714   6.8612473693e+00   5.4788846137e+01    0.2205666     0.191657  70.47 0.0006178088    1.043    0.041
        18 -10.0866     97.9439      7.1349   9.4044895422e+00   5.9535902898e+01    0.5265753     0.213848 -52.75   0.00175681    3.705    0.730
        19 -11.5009     86.0110      7.0469   1.2226604057e+01   6.2645825537e+01    0.3850842     0.260262  49.78  0.001071275    1.338    0.253
        20  -9.9805      3.1612      8.0766   6.1092909594e+01   7.7832749353e+01    0.2412724     0.133425 -40.66 0.0008237396    1.536    0.349
        21  -9.7728      4.1826      3.8567   5.7563981128e+01   7.8594598242e+01      0.19638    0.1529796 -25.15 0.0007623903    1.081    0.075
        22 -12.1880    154.6534      9.1534   1.4152216060e+00   4.4103045680e+01    0.4767897    0.2477762  50.94  0.001613412    2.056    0.514
        23 -12.0925    174.2830      3.7645   3.5787066201e+02   3.9519090569e+01     0.402399    0.2853187 -68.30  0.001348687    1.278    0.217
        24 -11.0457     15.5459      4.5072   4.6909481066e+01   7.7326946179e+01    0.2596942    0.2193427  23.38 0.0006693071    1.254    0.202
        25 -11.3263     11.4326      3.3375   4.9905053185e+01   7.8007508252e+01    0.3477609    0.2759547  54.54  0.001894283    1.896    0.473
        26 -10.6188    183.0114      2.9871   3.5697526155e+02   3.7408358003e+01    0.2009002    0.1518957  41.57 0.0005689639    1.657    0.397
        27 -10.3911    153.7818      1.7882   3.5905776438e+02   4.5002818892e+01    0.2049793    0.1424402 -62.18  0.001072894    1.366    0.268
        28 -11.0627    113.8658      1.8060   4.0141717139e+00   5.5744620711e+01    0.3243568    0.1891495  76.16 0.0008044248    1.579    0.367
        29 -10.2200    178.9039      1.4289   3.5682865309e+02   3.8569036956e+01    0.1902429    0.1183247  81.06 1.924853e-05    1.496    0.331
        30 -10.1690      1.8084    104.9414   8.2277416256e+01   5.4211215085e+01    0.2117683    0.1532664 -55.35  0.001203669    1.375    0.273
        31 -11.8122    249.5338     99.5143   1.4266648549e+01   1.1507140661e+01    0.3032535    0.2390152 -83.93  0.001932268    1.830    0.453
        32 -11.1651     64.9823     96.4083   5.5729223449e+01   4.9941910849e+01    0.4001245    0.2838814  49.01 0.0009000133    1.458    0.314
        33 -12.4727    235.7605     95.3249   1.4993287141e+01   1.4434243839e+01    0.3568067     0.269952  89.66  0.002100105    1.890    0.471
        34 -10.6541    104.9339     95.0622   4.1415045601e+01   4.2712815390e+01    0.4197106    0.2852032 -33.24  0.001799743    1.699    0.411
        35  -9.0960    143.4886     96.4808   3.1281021747e+01   3.3730628052e+01    0.1536535    0.1495025  10.37 0.0001250995    1.053    0.051
        36  -9.8293      4.5559     95.5809   8.0386671897e+01   5.6505738705e+01    0.2760108    0.1435029 -39.21  0.001074933    2.154    0.536
        37 -10.5508     15.9910     94.7167   7.5515692139e+01   5.6034297777e+01    0.1890969    0.1821551 -88.62  0.001177299    1.076    0.071
        38 -10.0191     32.4546     94.5270   6.8525991584e+01   5.4675474446e+01    0.1414454    0.1312101 -77.63 0.0001658472    1.003    0.003
        39  -9.5440     89.8108     94.1805   4.6099946605e+01   4.6036420323e+01    0.2120765    0.1865924   0.33 0.0006505148    1.320    0.243
        40 -10.0805    133.0083     92.5479   3.2751225380e+01   3.6944075975e+01    0.2370704     0.213267 -43.04 0.0004325737    1.121    0.108
        41 -10.2406     70.7738     91.8181   5.2337342982e+01   5.0136013100e+01    0.2685359    0.2003425 -43.48    0.0012694    1.386    0.278
        42 -12.4863    111.2960     88.0686   3.7427189712e+01   4.2864252870e+01    0.8118122    0.6988064  41.07  0.004033312    1.159    0.137
        43 -10.4729    164.1610     85.7327   2.3776578400e+01   3.0900640903e+01    0.2591679    0.2179629 -35.94 0.0005928461    1.164    0.141
        44 -10.5011     11.9596     85.8081   7.6085825430e+01   5.8641667427e+01    0.2215085    0.1743747 -72.35 0.0003146408    1.130    0.115
        45 -11.2464    101.7730     83.4297   3.8950024910e+01   4.5993579456e+01    0.3200289     0.271747  20.99  0.001251479    1.324    0.245
        46 -11.0452     97.5574     82.8155   4.0128267807e+01   4.7047287675e+01    0.3549266    0.2590972  46.14  0.001623005    1.352    0.261
        47 -11.9563    238.3347     81.2042   1.1539005527e+01   1.5879914953e+01    0.6202179    0.1913984 -49.81  0.001939661    5.081    0.803
        48 -11.8488    133.8327     80.1971   2.8869724622e+01   3.9189831052e+01    0.6756812    0.3912915 -23.88  0.002544915    2.356    0.576
        49 -10.0984     71.4681     79.9424   4.8690799558e+01   5.2910338387e+01    0.3286491    0.2597955 -29.68  0.001587625    1.416    0.294
        50 -11.0536     54.5331     78.6031   5.5333870798e+01   5.6036096673e+01    0.3288968    0.2568402  70.20 0.0004874198    1.528    0.345
        51 -10.2103     45.1221     77.7176   5.9280397545e+01   5.7577175972e+01     0.330424    0.2090466 -80.41  0.001444873    1.945    0.486
        52  -9.3111     77.9852     77.9753   4.5551911361e+01   5.2159133368e+01    0.1808431     0.174329  40.55 -0.003769674    1.037    0.036
        53 -10.4836    154.8737     75.2200   2.2617446292e+01   3.4965556883e+01    0.2197283    0.2008328 -78.03 0.0003158881    1.129    0.115
        54 -11.6905     35.9642     73.1348   6.2386072693e+01   5.9855007757e+01    0.5568761    0.3957356  -9.16  0.002050897    1.723    0.420
        55 -10.3450     32.4919     68.1684   6.2822955368e+01   6.1492435383e+01    0.4105166    0.2409838 -33.80  0.001845589    1.933    0.483
        56 -11.4125     64.0836     69.5254   4.8430987064e+01   5.6685890873e+01    0.2600685    0.2318236 -47.35 0.0002035058    1.105    0.095
        57 -10.1484      7.6936     68.7925   7.5650266973e+01   6.3299433395e+01    0.1904533    0.1896813 -56.81 0.0004052916    1.121    0.108
        58  -9.8913     83.1833     68.1255   4.0310508531e+01   5.3337369532e+01    0.2209658    0.2050015  -1.44 0.0002985563    1.152    0.132
        59 -11.8011    250.0090     60.1059   5.6981326649e+00   1.6452030275e+01    0.6545804    0.1145717 -36.14  0.002366549    3.495    0.714
        60  -9.9758     95.1623     64.0004   3.4601005499e+01   5.1590401087e+01    0.2767202    0.2219313  47.54 0.0007485814    1.223    0.182
        61  -8.9277     75.2926     64.6742   4.2123449615e+01   5.5696510961e+01    0.1518026    0.1220917  87.48 0.0005951314    1.619    0.382
        62 -11.5525     46.9456     62.0327   5.3803155117e+01   6.1186608695e+01    0.5886031    0.3900173  -2.15  0.002603037    2.097    0.523
        63 -11.0315     46.9010     56.9572   5.2093939132e+01   6.2385803090e+01    0.3876471    0.1932513  40.85  0.001131478    2.105    0.525
        64 -10.6093      4.5952     63.5788   7.6449917312e+01   6.4782096699e+01    0.2580525    0.1851732 -53.63 0.0006215552    1.238    0.192
        65 -10.8190      3.4604     58.8782   7.6310060531e+01   6.6021791748e+01    0.3358225    0.2442555 -32.31  0.001871517    1.386    0.278
        66 -10.1359     99.4513     61.8614   3.2415459593e+01   5.1027200862e+01    0.3736784    0.2468615 -65.05  0.001523988    2.059    0.514
        67  -9.7903    204.8598     65.9083   1.1869963882e+01   2.4710557142e+01    0.2262878    0.1458891 -60.39  0.001067603    1.715    0.417
        68 -10.9066     21.8646     61.8605   6.6773490854e+01   6.4099569068e+01    0.3340085    0.2286289 -36.00  0.001504345    1.472    0.321
        69 -10.6883     22.1412     57.9032   6.5619584753e+01   6.5062826176e+01    0.2361581    0.1974048  88.51 0.0005030949    1.321    0.243
        70  -9.5957    125.1027     59.8285   2.4397654748e+01   4.5118060724e+01    0.2121183    0.1822063  26.95 0.0004050728    1.307    0.235
        71 -10.6726    146.0427     71.8882   2.3468284899e+01   3.7725532413e+01    0.3279324    0.2078038  61.16  0.001153023    1.634    0.388
        72  -9.9843     15.0282     61.0000   7.0302729497e+01   6.4841533431e+01     0.343542   0.07736246  16.55  0.001045637    4.883    0.795
        73  -9.9391     29.0000     56.9841   6.1558805900e+01   6.4633854060e+01    0.2365396   0.07432638 -62.42 0.0008080326    2.981    0.665
        74 -10.4657    228.3120     57.9257   7.2344090959e+00   2.0859360285e+01    0.1912886    0.1479641 -36.55 0.0009553336    1.112    0.101
        75 -10.2284    136.5025     56.0086   2.0418151073e+01   4.2851793388e+01    0.2346463    0.1507183 -35.98  0.001027312    1.575    0.365
        76  -9.8834     99.4180     55.3512   2.9994744250e+01   5.2282000637e+01    0.2549912    0.1527545 -35.02 0.0004467366    1.767    0.434
        77 -10.2701    148.8170     54.7550   1.7467874001e+01   3.9878860577e+01    0.2528418    0.1569637  21.24 0.0009175768    2.744    0.636
        78 -10.6021     70.0116     55.3112   4.0776922279e+01   5.8753363826e+01    0.2142605    0.1977824  35.74 0.0006856749    1.075    0.070
        79 -11.1525     87.3270     52.7468   3.3037554343e+01   5.5591274204e+01    0.2772078    0.2585439  52.24 0.0003125875    1.064    0.060
        80 -10.8691    128.6558     49.8554   2.0037606552e+01   4.5880087364e+01     0.468491    0.3458416  31.06  0.002161362    1.620    0.383
        81  -9.8678    233.2434     48.9895   4.6680420790e+00   2.0994130586e+01    0.1739412   0.09118329 -32.28 0.0008887124    1.617    0.381
        82 -11.3032     94.0245     47.9762   2.8827282665e+01   5.4915754520e+01    0.4635222    0.2299572 -37.92  0.001814349    2.076    0.518
        83 -11.2370    249.0622     44.8678   2.4320535251e+00   1.8445930330e+01    0.3825305    0.2176397 -30.31  0.002193108    1.498    0.332
        84  -9.4692    178.5246     48.4836   1.0646365995e+01   3.3290059249e+01    0.1430418    0.1318515 -62.52 0.0006685979    1.002    0.002
        85 -11.1473     51.1045     46.2045   4.5823973671e+01   6.4123114937e+01    0.3499326    0.2533244  35.72  0.001774676    1.393    0.282
        86 -10.8239    119.3223     43.3400   1.9836050413e+01   4.9334319816e+01    0.4720542    0.2670915 -53.31 0.0001321729    2.097    0.523
        87 -10.6696     38.8687     43.8114   5.1404671540e+01   6.6510500524e+01    0.3427211    0.2666523  35.86  0.001391383    1.347    0.258
        88 -11.0642     22.8479     43.9433   6.1020566791e+01   6.8366507384e+01    0.4785135    0.2048561  19.84  0.002000401    2.548    0.607
        89 -11.1205    225.1493     40.2957   3.3216173642e+00   2.3698116890e+01    0.3076453   0.07453112 -45.08  0.001091098    3.363    0.703
        90 -10.5628    158.9701     39.4700   1.0769921684e+01   3.9469640827e+01    0.2622368    0.2107239 -38.15   0.00032963    1.235    0.190
        91  -9.8745     90.0667     39.1587   2.6419276533e+01   5.7378530870e+01    0.2197791    0.1921033  21.89 0.0002900845    1.211    0.174
        92 -11.9421     26.3017     35.3045   5.5538296280e+01   6.9967107622e+01    0.7189475    0.2879708 -51.73  0.003016114    2.226    0.551
        93  -9.6445     96.0348     38.2125   2.4109678596e+01   5.6075373287e+01    0.2074075    0.1849902  57.79 0.0003286732    1.084    0.077
        94 -10.6385    119.1422     35.1445   1.6718267788e+01   5.0593717595e+01    0.2400323    0.2260528  58.21 0.0003610236    1.043    0.041
        95  -9.9432    102.0346     36.5148   2.1622478208e+01   5.4834993140e+01    0.2367317    0.1440374  58.77  0.001027478    1.579    0.367
        96 -10.0359     46.9216     35.7640   4.3370068251e+01   6.6968114695e+01    0.1915131    0.1777848  19.32 0.0003767442    1.077    0.072
        97 -10.9434     39.6577     35.5700   4.7374475053e+01   6.8156183240e+01    0.5061498    0.2131173  42.95  0.001995208    2.660    0.624
        98 -10.8171    131.6539     34.2389   1.3726347008e+01   4.7393179700e+01    0.3565705    0.1523323  57.19   0.00118333    2.139    0.532
        99 -11.4442     92.3957     31.0763   2.2082982386e+01   5.8071498907e+01     0.260624    0.2372398  48.68 0.0001963488    1.037    0.036
       100 -10.1865     48.5796     32.2420   4.0758363224e+01   6.7368351778e+01    0.1958439    0.1264783 -30.43 0.0005059849    1.631    0.387
       101 -10.8092      4.0143     31.4036   6.9813170009e+01   7.2678141658e+01     0.282359    0.2000399  37.68  0.001332538    1.657    0.397
       102 -10.4881    104.0339     29.3925   1.8042569676e+01   5.5353042565e+01    0.3748558    0.2167729 -27.62  0.001623424    1.869    0.465
       103 -10.1246     17.3297     31.0032   5.9901073094e+01   7.1831697207e+01    0.2670346    0.1682152  39.22  0.001250779    1.836    0.455
       104  -9.9098    238.7442    194.7237   3.4192695753e+01   7.9324732288e-01    0.1619385   0.08083976 -39.94 0.0008876974    2.389    0.581
       105  -9.6038     42.7548     28.3951   4.2037552724e+01   6.9086157375e+01    0.1858895    0.1254227  24.29 0.0005284417    1.547    0.354
       106  -9.9083    161.1433     26.9993   6.4600411293e+00   4.0479726561e+01    0.2546735    0.1919297  75.83 0.0009038757    1.271    0.213
       107 -10.8154     47.3507     26.4059   3.8395705553e+01   6.8660339985e+01    0.3520093    0.2401739  -1.94  0.001368201    1.915    0.478
       108  -9.8001    120.4254     26.1458   1.2885198529e+01   5.1449696297e+01    0.4488796    0.1409582  47.54  0.001387293    3.418    0.707
       109 -10.2404     88.3747     25.2202   2.0605617044e+01   5.9904406204e+01    0.2672415    0.1802917 -40.76  0.001272087    1.585    0.369
       110 -10.3792     83.3848     25.8675   2.2521328064e+01   6.1037352772e+01    0.2500955     0.199059  66.90  0.001010948    1.315    0.239
       111  -9.1503     60.3642     26.2969   3.1795507490e+01   6.6166664373e+01    0.1500158    0.1051722  15.95 0.0007032137    1.718    0.418
       112 -10.0468    129.0218     24.1854   1.0454836137e+01   4.9379158956e+01    0.2540382    0.2062138 -54.69 0.0003939677    1.261    0.207
       113 -10.4427      4.1289     24.6706   6.7528998509e+01   7.4211598411e+01    0.3296795    0.1637503   3.81   0.00160293    2.208    0.547
       114  -9.4387    239.2848     24.3301   3.5853622806e+02   2.2636932258e+01    0.1077889   0.09172541  11.81 0.0003614311    1.613    0.380
       115  -9.8461     58.8033     29.6572   3.4279588944e+01   6.5918557634e+01    0.2537144    0.1841612  50.76  0.001287025    1.445    0.308
       116 -10.5694     98.5421     22.7703   1.6553801621e+01   5.7649691033e+01    0.2675757    0.2433923  52.31 0.0005926666    1.032    0.031
       117 -10.0484     38.1983     22.8017   4.1731886631e+01   7.0865002763e+01    0.1878385    0.1791541  12.55 0.0004843751    1.141    0.123
       118  -9.0473      1.2913    181.2828   8.6268705482e+01   3.5605128282e+01     0.104814   0.08887498 -50.45 0.0001972749    1.532    0.347
       119 -10.6884    244.0095    180.0206   3.0840083861e+01   1.8953261636e+00      0.15649     0.136008 -39.08  0.001128277    1.704    0.413
       120  -9.5017     25.4847    175.4924   7.9711700199e+01   3.4833394532e+01    0.1301753    0.1068774  60.40 0.0002711531    1.007    0.007
       121 -10.5406    108.8176     18.8790   1.2343194942e+01   5.5422319046e+01    0.4345421    0.2456537 -74.48  0.001664258    2.661    0.624
       122 -11.0286     50.1262     19.3507   3.2937197062e+01   6.9333481918e+01    0.4176072    0.2227973  32.79  0.001515814    2.014    0.503
       123 -11.1145    224.1950    172.5353   3.2586468138e+01   5.5437029419e+00    0.2321404    0.1471541 -28.23  0.001298034    1.423    0.297
       124 -10.1226     19.7215     15.9482   5.0767467927e+01   7.4725227377e+01    0.2016666    0.1557929 -14.59  0.000398533    1.221    0.181
       125 -10.1510     21.5086    170.0631   8.0442000325e+01   3.6468685448e+01    0.1953348    0.1533448  40.63 0.0006193299    1.189    0.159
       126  -9.6564     23.6180     16.7742   4.8229547316e+01   7.4091865065e+01    0.1710512    0.1204146 -55.31 0.0003352614    1.628    0.386
       127  -9.9845      6.0000    160.9050   8.4225840443e+01   3.9923779934e+01    0.2423257    0.1312311 -55.39  0.001234055    2.139    0.532
       128 -10.0519     85.5831     15.7644   1.6813695206e+01   6.1811472781e+01    0.3532981    0.1454813  57.33  0.001376285    2.145    0.534
       129 -10.6050     30.9025    150.8214   7.6270010414e+01   4.0213569982e+01    0.2967082    0.2663082 -87.87  0.001088754    1.113    0.102
       130 -12.1517     38.2161    144.3740   7.3361023173e+01   4.1067495961e+01    0.7419669    0.6103356  19.22  0.004225906    1.358    0.264
       131 -10.8641     24.3948    146.8321   7.7917267277e+01   4.1830760433e+01    0.3536163    0.2591213 -12.22  0.001717334    1.857    0.461
       132  -8.9976     74.9969    144.0082   6.1805518251e+01   3.6351462204e+01    0.1741887    0.1577379  50.34 0.0003213934    1.034    0.033
       133  -9.8402      6.6222    143.1973   8.3137122531e+01   4.4173826892e+01    0.1896339    0.1011425 -69.40 0.0009479373    1.775    0.437
       134 -11.7563    245.7364    139.2604   2.2928182860e+01   6.8440625943e+00    0.2475623    0.1350642 -22.35   0.00135758    1.654    0.395
       135  -9.1457     51.6576    136.6978   6.8081727297e+01   4.1444533895e+01     0.143509    0.1089521 -29.48 0.0007038803    1.678    0.404
       136 -10.5219     18.3523    132.5046   7.8636043196e+01   4.5982945117e+01    0.3662525    0.1434228  46.25  0.001142593    2.356    0.576
       137  -9.8554     74.7966    131.9069   5.9779529410e+01   3.9381164311e+01    0.2206412    0.2033218 -32.17 0.0005667656    1.222    0.181
       138 -10.3648     57.9706    129.9799   6.4977555522e+01   4.2337365509e+01    0.2152914    0.2026786  69.38            0    1.018    0.017
       139 -12.0913    236.0859    130.2812   2.2456654332e+01   9.5384407521e+00    0.3949333    0.2025769 -21.81  0.001956481    1.964    0.491
       140  -9.9353    250.5125    127.5189   1.9944436421e+01   7.6721046808e+00    0.1203284   0.09652448 -23.97 -2.016876e-05    1.058    0.054
       141 -11.5459    245.1514    119.8240   1.9064162068e+01   9.5187383495e+00    0.1874029      0.15016 -37.88  0.001238416    1.232    0.188
       142 -11.7905    240.1157    116.9117   1.9112645655e+01   1.0724253682e+01     0.344235    0.1831659 -55.67  0.001507141    3.216    0.689
       143  -9.4982     13.9614    117.1946   7.8789604041e+01   5.0278437546e+01    0.2160007    0.1398661 -32.14  0.001081545    1.918    0.479
       144  -9.9047    232.3042    116.6766   2.0117011174e+01   1.2060841346e+01    0.1232486    0.0911825 -53.74 0.0002862703    1.639    0.390
       145  -9.9608     91.6676    116.1561   5.1080226920e+01   4.0392072849e+01    0.2535248    0.2012758  48.24 0.0004156704    1.236    0.191
       146 -10.2333     21.7971    114.2280   7.5605437518e+01   5.0447786809e+01    0.2850397    0.1683235 -63.31  0.001392745    1.569    0.363
       147 -10.4195      2.3759    111.1955   8.2526807138e+01   5.2563171982e+01    0.3167366    0.2017153  73.66  0.001693794    1.460    0.315
       148 -12.3478     89.1461    107.8391   4.9915052850e+01   4.2882771048e+01    0.9210197    0.6663725 -24.55  0.003753901    1.824    0.452
       149  -9.6328     13.1019    105.9084   7.7998467429e+01   5.3290666731e+01    0.2033668    0.1611131  65.55 0.0003560605    1.221    0.181
