#   1 NUMBER                 Running object number                                     
#   2 MAG_AUTO               Kron-like elliptical aperture magnitude                    [mag]
#   3 X_IMAGE                Object position along x                                    [pixel]
#   4 Y_IMAGE                Object position along y                                    [pixel]
#   5 X_WORLD                Barycenter position along world x axis                     [deg]
#   6 Y_WORLD                Barycenter position along world y axis                     [deg]
#   7 A_WORLD                Profile RMS along major axis (world units)                 [deg]
#   8 B_WORLD                Profile RMS along minor axis (world units)                 [deg]
#   9 THETA_WORLD            Position angle (CCW/world-x)                               [deg]
#  10 FWHM_WORLD             FWHM assuming a gaussian core                              [deg]
#  11 ELONGATION             A_IMAGE/B_IMAGE                                           
#  12 ELLIPTICITY            1 - B_IMAGE/A_IMAGE                                       
         1 -12.4652    185.3578     32.1596   6.6657526904e+01   3.5183570806e+01    0.8645772    0.7831265 -85.21  0.003380189    1.073    0.068
         2 -12.3614    192.5182     21.8959   6.3206322139e+01   3.4700352731e+01    0.6812319    0.6468639 -32.61  0.001590998    1.318    0.242
         3 -11.4286    143.0212    229.1356   1.2049419623e+02   5.9366706304e+00    0.5547367      0.35216  15.81  0.002432581    2.562    0.610
         4 -19.3268     18.3200    133.4216   1.3596640282e+02   4.6159096276e+01     18.94379     2.363894 -68.54   0.04443944    7.918    0.874
         5  -9.6449    153.5108    228.5159   1.1820201163e+02   4.1885915094e+00    0.1375614    0.1221047  47.59 3.514007e-05    1.029    0.029
         6  -9.9388    107.4264    234.9968   1.2870496540e+02   1.0890920050e+01    0.2697833    0.1597737  55.99  0.001375943    1.564    0.361
         7  -8.8024     83.0569    229.2712   1.3298901215e+02   1.5942356271e+01    0.1830616    0.1457213  60.83 0.0003487557    1.081    0.075
         8  -8.4031    115.1419    210.8294   1.2372715189e+02   1.4642994211e+01    0.1769818    0.1675332 -28.91 0.0004208992    1.305    0.234
         9  -7.9593    108.6746    202.6641   1.2393110343e+02   1.7577053918e+01     0.137405     0.114506 -17.17 -0.0001908874    1.718    0.418
        10 -10.6624    196.9189    196.8161   1.0347510543e+02   2.2337681760e+00    0.5324286    0.3793691  37.21  0.001759444    1.368    0.269
        11  -9.5347     80.7180    194.5560   1.2910501905e+02   2.4030545951e+01    0.3724419    0.2292459  52.67  0.001847647    1.568    0.362
        12 -10.3424     59.1328    190.6496   1.3350084583e+02   2.8061683653e+01    0.5861868    0.2706974 -52.13   0.00258798    2.346    0.574
        13  -8.2752    101.4814    194.4506   1.2430549795e+02   2.0689007828e+01    0.1465035    0.1269836  75.57  3.95429e-05    1.066    0.062
        14  -8.1986    195.6937    246.6331   1.1257702529e+02  -6.1662141322e+00    0.1314976   0.09085033   3.14 0.0007036314    1.749    0.428
        15  -8.7574    208.4632    185.0277   9.8787315510e+01   2.3042345179e+00    0.2174333    0.1359722 -40.45 0.0006241326    1.568    0.362
        16 -10.8506     81.9847    180.1734   1.2668855822e+02   2.7249237636e+01    0.5752393    0.3346846 -35.39  0.002347751    2.770    0.639
        17 -10.6899     85.0156    175.0429   1.2513639954e+02   2.8011957141e+01    0.4073514    0.3795908 -22.56  0.001113821    1.347    0.258
        18 -11.8118    163.3481    238.9663   1.1780169263e+02   5.4930682334e-01    0.4734263    0.3388563  32.39  0.002650491    1.299    0.230
        19  -8.1375     99.4969    180.5056   1.2251318376e+02   2.4309506907e+01    0.1461501    0.1347469  86.86 -6.297645e-06    1.021    0.020
        20 -10.6306     91.6984    165.6095   1.2185759512e+02   2.9222915235e+01    0.3623879    0.2818998  46.54 0.0005101637    1.311    0.237
        21 -12.0725     80.7536    160.9219   1.2382332779e+02   3.2124038307e+01     0.537912    0.4546979 -61.20  0.001301999    1.128    0.114
        22 -12.8537     68.7160    144.7341   1.2410199385e+02   3.7875279154e+01     1.287512    0.7361413 -72.28  0.004684764    1.873    0.466
        23 -10.4855    160.0272    233.6970   1.1766313887e+02   2.0722144476e+00    0.2586714    0.1826644  39.55  0.001410597    1.255    0.203
        24  -8.8293    144.1722    144.8532   1.0427439152e+02   2.4159470542e+01    0.2371423    0.2112321  87.09 0.0004968941    1.199    0.166
        25 -10.6154     96.6660    142.4407   1.1604323167e+02   3.4035290368e+01    0.2881792     0.269821   9.32 0.0003923702    1.228    0.185
        26 -10.3300    108.7512    141.1507   1.1251588944e+02   3.2167766885e+01    0.5541569    0.3129643 -30.94  0.002018782    2.705    0.630
        27  -7.9470    135.5837    163.4316   1.1045289302e+02   2.1619832321e+01    0.1504641    0.1489643 -54.16 0.0001083718    1.071    0.066
        28  -9.5410    115.2113    131.9678   1.0869193845e+02   3.3117303556e+01     0.343135    0.2437655 -51.10 0.0007511398    1.364    0.267
        29 -10.6325    164.1938    232.1066   1.1655430680e+02   1.6265028225e+00    0.3532998    0.1588907 -48.02  0.001535577    2.497    0.599
        30  -9.8881    104.1370    128.9085   1.1098615414e+02   3.5942218342e+01    0.4995804    0.3466768  78.67  0.002118952    2.102    0.524
        31  -9.8629    119.3796    127.5732   1.0652663757e+02   3.3318737430e+01    0.4156698    0.2182798 -49.98  0.001640329    1.860    0.462
        32  -9.3659    110.4967    120.0049   1.0707902287e+02   3.6815338127e+01    0.2216199    0.2095291  38.56  0.000357374    1.099    0.090
        33 -10.8347     97.3235    157.9287   1.1899125554e+02   3.0147415509e+01    0.6200876    0.3937832 -34.56  0.002051746    2.090    0.521
        34  -8.6895    167.8009    112.5585   9.0822818490e+01   2.5969411767e+01    0.2195752    0.1495884  65.03 0.0007569147    1.669    0.401
        35  -8.5527    205.2383    110.5666   8.2804892531e+01   1.7691942951e+01    0.2081843     0.141294  42.55 0.0009486385    1.664    0.399
        36 -10.0690    174.1906     72.9151   7.9105820968e+01   3.1937361570e+01    0.3835893    0.2653047 -85.27 0.0006153553    1.845    0.458
        37  -9.3972    164.0000     57.9922   7.7001995743e+01   3.6806659485e+01    0.2302819   0.08245108 -35.01 0.0008062596    2.969    0.663
        38 -11.6710    174.9397     41.4605   7.0612627916e+01   3.6504917976e+01    0.4216309    0.4039906  22.82  0.001202243    1.247    0.198
        39  -8.8654    168.2638    248.0057   1.1818578740e+02  -1.8375207241e+00    0.1692689    0.1621423  26.66 0.0003408979    1.127    0.112
        40  -9.5218    148.6467    247.8803   1.2207794879e+02   1.5084693380e+00    0.2367348    0.1166025 -42.80  0.001098787    2.537    0.606
