#   1 NUMBER                 Running object number                                     
#   2 MAG_AUTO               Kron-like elliptical aperture magnitude                    [mag]
#   3 X_IMAGE                Object position along x                                    [pixel]
#   4 Y_IMAGE                Object position along y                                    [pixel]
#   5 X_WORLD                Barycenter position along world x axis                     [deg]
#   6 Y_WORLD                Barycenter position along world y axis                     [deg]
#   7 A_WORLD                Profile RMS along major axis (world units)                 [deg]
#   8 B_WORLD                Profile RMS along minor axis (world units)                 [deg]
#   9 THETA_WORLD            Position angle (CCW/world-x)                               [deg]
#  10 FWHM_WORLD             FWHM assuming a gaussian core                              [deg]
#  11 ELONGATION             A_IMAGE/B_IMAGE                                           
#  12 ELLIPTICITY            1 - B_IMAGE/A_IMAGE                                       
         1 -10.5115    163.8662     22.0451   5.0085447703e+01   4.1517689860e+01    0.4244859    0.3144071  42.67   0.00139353    1.388    0.280
         2  -9.8599     87.0162     17.1020   6.5446166848e+01   6.0394612502e+01    0.3019006    0.2153637 -34.08 0.0009914102    1.529    0.346
         3 -10.4255    110.9142     19.0754   5.9629902409e+01   5.4994696547e+01    0.3345961    0.2743877  35.34  0.000724323    1.104    0.094
         4 -10.5998    155.3023     16.3071   4.9608042841e+01   4.4354917013e+01    0.3837519    0.2554066   2.32   0.00152872    1.945    0.486
         5 -10.8168     21.5131     15.5695   9.1797822560e+01   7.0512231963e+01     0.882533     0.363314 -29.62  0.004298619    2.379    0.580
         6  -9.9613     17.0336      4.2735   8.8664038546e+01   7.2660651377e+01    0.3353263    0.3140313 -24.22  0.002507342    1.602    0.376
         7 -10.7660     11.3408      6.7576   9.3102130417e+01   7.2793212892e+01    0.4007238    0.3131635 -34.16  0.002122106    1.280    0.219
         8 -10.1954      7.1397      3.6174   9.3960284062e+01   7.3609083425e+01    0.2118658    0.1764609 -14.60  0.001041748    1.251    0.201
         9 -10.2752     10.2706     15.0441   9.7504714526e+01   7.1538343923e+01    0.3403424    0.2076371 -33.06  0.001252553    1.241    0.194
        10 -10.6841     19.1967     10.8366   9.0783231521e+01   7.1474143163e+01    0.2763802    0.1728173   8.12 0.0003211649    1.602    0.376
        11 -10.4515     16.2621      8.6226   9.1286925793e+01   7.2083628523e+01    0.1859138    0.1612544  -8.61   0.00057187    1.305    0.234
        12  -9.7700      8.0000     12.0363   9.7433005268e+01   7.2203925923e+01    0.2938969    0.1121909 -48.57  0.001541112    2.161    0.537
        13 -10.3470    180.8542     13.5173   4.5046251640e+01   3.8039082650e+01     0.483238    0.3635371  38.06   0.00124298    1.509    0.337
        14 -10.6287    184.7755     11.9401   4.4099544230e+01   3.7193260011e+01    0.5377262     0.375876  20.13  0.002698848    1.942    0.485
        15 -10.2665     57.5642     14.1690   7.4481904131e+01   6.6110183701e+01    0.3973748    0.2428777  39.77   0.00224611    1.655    0.396
        16 -10.5245    121.4421     12.1117   5.4446717761e+01   5.3248708765e+01    0.5434415    0.2669897  49.80  0.002461535    1.767    0.434
        17  -9.6831    210.0385      9.9696   4.0805162382e+01   3.1019388671e+01    0.3424656    0.2464367 -63.80  0.001018878    1.309    0.236
        18  -9.2149     93.2660     10.5534   6.0715783394e+01   5.9810660246e+01    0.2231898     0.189381 -47.50  0.001336947    1.499    0.333
        19  -8.5846     46.6966     10.0309   7.6977033609e+01   6.8299880606e+01    0.2578708     0.177449  46.02  0.001546425    1.883    0.469
        20  -9.5387     41.3512      9.1226   7.8906329886e+01   6.9169430522e+01    0.3501762    0.2674853 -64.73 0.0008658353    3.064    0.674
        21  -9.4443     37.8951      4.6654   7.8175000615e+01   7.0210226980e+01    0.3033983    0.1654078  52.03  0.001399571    3.549    0.718
        22  -9.4372     78.9541      6.4990   6.3118715503e+01   6.3152460356e+01    0.2794613    0.1718656  -0.81  0.001477201    1.726    0.421
        23  -9.6162     34.6107     14.3474   8.4687416394e+01   6.9301839888e+01    0.2577596    0.1776104 -10.71 0.0005648216    1.268    0.211
        24 -10.5799    102.4181     15.3094   6.0268312146e+01   5.7324585016e+01    0.5007683    0.3136697 -22.22  0.002577705    1.650    0.394
        25  -8.7844    127.0913      5.5148   5.0793732574e+01   5.2489309468e+01    0.2043023    0.1211776  61.79 0.0003974729    1.506    0.336
        26  -8.1622    175.2838      4.6507   4.3129958443e+01   4.0346377198e+01    0.1426573   0.09308744 -61.86 0.0007017937    1.652    0.395
        27  -9.1571     90.5039      3.7556   5.8455909488e+01   6.1048790078e+01    0.3132965    0.1498672  60.02  0.001441185    2.153    0.535
        28 -10.0838    190.3721      2.3310   4.0763292406e+01   3.6710812185e+01    0.3566188    0.2052042 -74.30  0.001692359    1.891    0.471
        29  -8.6004     51.6963      2.6586   7.1020980659e+01   6.8420296218e+01    0.2762454    0.1236451  30.82   0.00134276    2.241    0.554
        30  -8.8756     30.5477      3.0602   8.0879733066e+01   7.1356288471e+01    0.1727115   0.09522206 -30.22 0.0004241796    1.578    0.366
        31  -8.8561     22.1133      3.3895   8.5432390576e+01   7.2274573147e+01    0.1486644    0.1145769  -1.08 0.0004484807    1.131    0.116
        32  -9.1919    241.9505      1.5879   3.6144488614e+01   2.4352908044e+01    0.1759638    0.1344026 -86.24 0.0004470025    1.160    0.138
        33  -9.4142    104.2629      2.1206   5.4264573261e+01   5.8167210087e+01    0.2508804    0.1731337 -78.92  0.001248248    2.262    0.558
        34  -8.3905     42.3935      2.0151   7.4674288438e+01   6.9905242641e+01    0.1642961   0.09796598 -23.20 0.0004041783    1.497    0.332
        35  -8.9236    137.4742      1.4356   4.7458883392e+01   5.0265212690e+01    0.2144065     0.123248  81.25 0.0001855188    1.930    0.482
        36 -10.2141     98.0436    117.4921   9.5781320774e+01   3.9182381310e+01    0.3839712    0.2544663  47.92   0.00177878    1.597    0.374
        37 -10.2123     58.2810    116.3970   1.0715841951e+02   4.5448451296e+01    0.5324799    0.1572821 -54.15  0.001779296    2.793    0.642
        38  -9.5073     27.3519    108.8167   1.1507759934e+02   5.0485599267e+01     0.385704    0.1575601 -72.07  0.001700877    2.197    0.545
        39  -9.0408     28.5896    138.1209   1.1874876132e+02   4.3417929646e+01    0.1832356    0.1613835 -43.68 0.0007098737    1.384    0.277
        40  -9.8617     38.9899    114.6993   1.1256486172e+02   4.8014605422e+01      0.28385    0.1854409  23.49  0.001557777    1.897    0.473
        41  -9.5168      2.1937    113.5949   1.2297135903e+02   5.1143111861e+01    0.3216147    0.2089644  80.64  0.002006222    1.480    0.324
        42 -10.1132     11.5983    114.9350   1.2050807044e+02   5.0238878775e+01    0.2611699    0.1828392 -46.67 0.0008975872    1.496    0.331
        43  -9.4540     50.0845    112.0957   1.0879230202e+02   4.7460203945e+01    0.2219424    0.1919803  66.40 0.0006578924    1.257    0.204
        44  -9.6372     21.7055    110.1468   1.1695831893e+02   5.0627911667e+01    0.3148871    0.1870086  44.78  0.001348429    1.936    0.484
        45 -10.1297     14.3725    109.7716   1.1905450064e+02   5.1255924037e+01    0.3048491    0.1928236  77.41  0.001600728    1.711    0.415
        46 -10.4444     16.8822    106.3296   1.1783857571e+02   5.1885773649e+01    0.5639977    0.1874763 -74.90  0.002258566    2.845    0.648
        47 -10.6616     25.9798    116.3610   1.1661178822e+02   4.8810262853e+01     0.368396    0.3195322 -47.64  0.001437657    1.261    0.207
        48  -9.0654     90.4982    111.5827   9.6562819365e+01   4.1883708395e+01    0.3106739    0.1782873  47.62  0.000934065    1.906    0.475
        49  -8.7609    127.8240    109.9042   8.5633253390e+01   3.5102009754e+01    0.2363859    0.2054002 -13.53 0.0003818173    1.311    0.237
        50 -10.3606     71.7860    107.1508   1.0114860118e+02   4.5861124893e+01    0.3752643    0.2570714 -54.57  0.001902449    1.310    0.236
        51  -8.8333     34.9861    107.2848   1.1251291172e+02   5.0172524579e+01    0.2384844    0.1290755 -53.75 0.0008222443    1.577    0.366
        52  -9.4322      7.2917    107.8959   1.2086713481e+02   5.2156446166e+01    0.2436697    0.1887009 -17.43 0.0009311364    1.707    0.414
        53 -10.0083      8.9036    102.7346   1.1972567966e+02   5.3254449158e+01     0.386065    0.2110401 -74.06  0.002181029    1.459    0.314
        54  -8.2968    118.7297    107.3303   8.7414317042e+01   3.7579040366e+01    0.1543422    0.1221843 -82.84 0.0003504722    1.585    0.369
        55  -9.1357     75.1169    122.6186   1.0347387905e+02   4.1662889638e+01    0.3299126    0.2057032  51.12  0.001083785    1.774    0.436
        56  -8.9807     41.3122    106.0180   1.1034033769e+02   4.9858622803e+01    0.1935886    0.1467231 -63.81 0.0006837364    1.108    0.097
        57 -10.5911     80.2631    103.4945   9.7683828962e+01   4.5455542731e+01     0.424729    0.3340829   7.91  0.001839074    1.612    0.380
        58 -10.5464     58.0866    101.6368   1.0418810629e+02   4.9010153887e+01    0.4595459    0.2261848 -43.83  0.002011169    2.033    0.508
        59  -9.2589    108.8761    103.1449   8.9066979152e+01   4.0495819494e+01    0.3534468     0.202677  34.68  0.001450022    1.957    0.489
        60  -8.4869     89.8574    102.2284   9.4438723700e+01   4.4184756002e+01    0.1901498     0.164504 -21.74 0.0002914373    1.274    0.215
        61  -8.5754     39.7421    102.4296   1.1015932632e+02   5.0869938292e+01    0.1489514    0.1270657 -10.22 0.0002228249    1.433    0.302
        62  -9.7357     52.8451     99.4825   1.0539013185e+02   5.0154151147e+01    0.4220392    0.1714538 -60.11  0.001744318    2.145    0.534
        63  -9.3906    102.0284     98.7313   8.9866496687e+01   4.2806502525e+01    0.3284233    0.1809911  45.19  0.001363542    1.923    0.480
        64  -9.2223     18.0833     98.4238   1.1628222445e+02   5.3649973520e+01    0.2063893    0.2021959  19.55 0.0004936006    1.283    0.221
        65  -9.1666     15.9939     95.4548   1.1647065095e+02   5.4486039684e+01     0.201608    0.1699389  82.34  0.001010628    1.266    0.210
        66 -10.3208     69.3859     96.3673   9.9349546593e+01   4.8747249671e+01    0.3000116    0.2459184  62.21  0.001129761    1.437    0.304
        67  -8.1644    147.7046     96.2802   7.6751305576e+01   3.3556086649e+01    0.1553747     0.126324 -82.78 0.0002036544    1.535    0.349
        68  -8.6229     97.2223     96.3398   9.0647553239e+01   4.4236798486e+01    0.2017695     0.138131  49.12 0.0005764755    1.600    0.375
        69 -10.0740     79.3531     95.4483   9.5937765497e+01   4.7472497655e+01    0.3477423    0.2571016 -46.03  0.001454258    1.246    0.198
        70  -9.2560     37.8477     93.9073   1.0909831314e+02   5.3065152102e+01    0.1954045    0.1462614 -46.91   0.00115285    1.217    0.179
        71  -8.8982    153.4944     93.0798   7.4430486213e+01   3.2829884999e+01    0.2277829    0.1559763 -39.27 0.0002890568    1.450    0.310
        72  -9.1104     89.0374     92.6502   9.2142632638e+01   4.6520199487e+01    0.2033661    0.1975002  20.98 0.0009732178    1.097    0.089
        73  -9.3940    139.5996     89.2158   7.6719214187e+01   3.6892624604e+01    0.2967418    0.1599324 -34.65 0.0007939486    1.962    0.490
        74  -9.7905     52.0808     91.2972   1.0380034195e+02   5.2164485695e+01    0.3374928    0.1591746 -52.52  0.001246114    1.778    0.437
        75  -9.3260     15.6038     90.0541   1.1571193605e+02   5.5761654793e+01    0.2441916     0.165816 -39.36  0.001258181    1.497    0.332
        76  -9.3925     43.4278     91.1677   1.0666544920e+02   5.3147985336e+01    0.2458929     0.193291  40.28  0.001283725    1.485    0.327
        77 -10.6481    120.5617     87.4107   8.1261056719e+01   4.1536636061e+01    0.5194884    0.3970342 -62.37  0.001685029    1.516    0.341
        78 -10.3842    124.7012     85.8091   7.9632387349e+01   4.0968012866e+01    0.4003177    0.3171687 -15.00  0.001246802    1.467    0.318
        79  -9.4446     56.7286     89.8381   1.0189726284e+02   5.1944646140e+01    0.2106433    0.1838468 -13.12 0.0005830243    1.277    0.217
        80  -9.0405     47.5603     89.4356   1.0488636381e+02   5.3108885077e+01    0.2798588    0.1132099 -58.27  0.000647546    2.087    0.521
        81  -8.4607     32.6825     90.6665   1.1015799414e+02   5.4298634294e+01    0.1366866   0.08111479 -39.99 0.0004199241    1.693    0.409
        82  -9.2045      2.9532     90.0627   1.1981062768e+02   5.6505351280e+01     0.201559    0.1055007 -47.41  0.001145339    1.718    0.418
        83  -8.7686     21.6426     89.1057   1.1354719056e+02   5.5557178510e+01    0.1748156    0.1249784 -62.51 0.0003875116    1.113    0.102
        84  -9.7616    131.7393     87.0098   7.8100245263e+01   3.9147628440e+01    0.2820899    0.2527131 -11.09 0.0005203885    1.191    0.160
        85 -10.7806    135.1238     83.0201   7.6001442191e+01   3.9176383783e+01    0.3237835     0.311668 -40.93            0    1.038    0.037
        86  -9.1776     66.3796     84.9624   9.7396664281e+01   5.1790808119e+01    0.2973727    0.2180388 -88.11  0.001183356    1.940    0.485
        87 -10.2333    110.8360     88.9432   8.4492533768e+01   4.3245884239e+01    0.4743594    0.2269434  46.73  0.001811087    2.203    0.546
        88  -9.3305     55.3663     80.6688   1.0003095323e+02   5.4204749672e+01    0.2630138    0.1851073 -24.47 0.0007950525    1.607    0.378
        89 -10.1181     46.0595     84.3785   1.0421046323e+02   5.4437868590e+01    0.2830025     0.208141 -45.52 0.0004156919    1.194    0.162
        90  -9.7923     50.6640     81.0383   1.0177484415e+02   5.4682688949e+01    0.2701443    0.1926435  28.55  0.000616015    1.606    0.377
        91  -8.9742     49.2865     77.0050   1.0121188224e+02   5.5746680012e+01    0.2419138     0.154586 -61.42 0.0007613382    1.502    0.334
        92  -9.7394     27.1683     84.8343   1.1085126117e+02   5.6114270556e+01    0.2081132    0.2011558 -51.23 0.0009858527    1.185    0.156
        93  -8.7669    108.6467     84.6888   8.3859860290e+01   4.4596730163e+01    0.1578968    0.1195684  -1.01  0.000704458    1.726    0.421
        94 -10.4804     75.8729     83.1248   9.3706295456e+01   5.0805753061e+01     0.310028    0.2920881  89.31  0.001017163    1.217    0.178
        95  -8.6052     81.5375     84.5136   9.2240783181e+01   4.9597306125e+01    0.1445067    0.1331461 -44.07 -9.244663e-06    1.031    0.030
        96  -9.3149     80.7746     81.1474   9.1510265588e+01   5.0462226199e+01    0.2956693    0.2053881 -32.77  0.000780161    1.468    0.319
        97  -8.2856     33.7141     84.3262   1.0848202202e+02   5.5672020029e+01    0.1236616   0.09375896  84.43 0.0004598071    1.606    0.378
        98  -8.6422    158.3299     83.3037   7.0436147832e+01   3.3558873244e+01    0.1624289    0.1245651  15.99 0.0002551576    1.652    0.395
        99 -10.2569     99.4969     74.5642   8.3468875960e+01   4.8514007970e+01    0.4143859    0.3179841 -75.63  0.001953402    1.838    0.456
       100  -9.3160    110.3394     71.8938   7.9322990847e+01   4.6863412218e+01    0.3023232      0.22955   7.63 0.0006617793    1.630    0.387
       101  -9.7939    100.9967     82.5516   8.5506382917e+01   4.6559082826e+01    0.2667649    0.2388778  21.01   0.00109153    1.171    0.146
       102 -11.4678    104.9217     78.5929   8.3089363658e+01   4.6619931076e+01    0.5580615    0.4109753 -17.74 0.0009871109    1.606    0.377
       103  -9.6043     40.5226     82.5245   1.0570008255e+02   5.5437935533e+01    0.3484584    0.1904735  87.07 0.0007597423    4.470    0.776
       104  -8.3669     70.6450     83.6902   9.5612284611e+01   5.1467211953e+01    0.1472241     0.103656 -20.52 0.0007043422    1.727    0.421
       105  -9.9346    143.7163     81.1850   7.3264249336e+01   3.7513809053e+01    0.3366447    0.2321572  68.30  0.001426063    1.792    0.442
       106  -9.1573     21.5962     80.4884   1.1191048646e+02   5.7535698972e+01    0.2321364     0.158947 -55.42 0.0008288611    1.158    0.136
       107 -10.4476     20.8258     75.3397   1.1112089073e+02   5.8754189791e+01    0.3388073    0.2179756 -68.45 0.0008362019    1.383    0.277
       108 -10.7792      6.4067     79.9729   1.1710008027e+02   5.8610864980e+01    0.3664919    0.2320774  83.47  0.001000708    1.862    0.463
       109  -9.0886    152.6613     79.7625   7.0680701007e+01   3.5619594057e+01     0.477536     0.121261  49.64   0.00130153    3.792    0.736
       110  -8.7903     96.5219     79.4286   8.5929247336e+01   4.8070417551e+01    0.1481782    0.1381549 -20.62 6.087498e-05    1.037    0.035
       111  -9.6500     28.2542     78.1270   1.0904715085e+02   5.7554440290e+01    0.2114285    0.1646119 -42.83 0.0003269098    1.160    0.138
       112  -8.5287     43.5438     78.5622   1.0366914431e+02   5.6026783271e+01     0.132867    0.1110378 -46.92 0.0001542345    1.022    0.022
       113 -11.0531     76.9190     75.4730   9.1094890045e+01   5.2310228562e+01    0.5772743    0.2885918  28.67  0.001584168    2.438    0.590
       114  -9.5917     84.8853     73.4441   8.7795327473e+01   5.1420096168e+01    0.4184865    0.2672924  44.24   0.00198818    1.719    0.418
       115 -10.4579     56.5366     72.4342   9.7333411957e+01   5.5880314858e+01    0.6851034    0.3491733 -22.51  0.002519593    3.541    0.718
       116  -9.8414     64.1953     70.7980   9.4094435960e+01   5.5211212346e+01    0.3887835    0.1839947  42.00  0.001107624    2.457    0.593
       117 -10.0677    158.0648     73.4137   6.7509456108e+01   3.5450298686e+01    0.4157541     0.249806 -27.66  0.001592802    1.841    0.457
       118 -10.6346    161.8276     68.2381   6.5098561241e+01   3.5415826907e+01    0.7570508    0.3969748  30.22  0.002499634    3.141    0.682
       119  -9.1545    132.4427     93.8739   7.9945686510e+01   3.7566261300e+01    0.2413974    0.2137146   7.97 0.0003665508    1.256    0.204
       120 -10.1674    152.0697     73.4845   6.8891279913e+01   3.6927200050e+01    0.3641588    0.2891663   1.09  0.001524924    1.548    0.354
       121  -8.9901     10.1035     73.5345   1.1463892503e+02   5.9849275310e+01    0.2559384    0.1572702  74.59  0.001383239    2.309    0.567
       122  -9.4329     45.8184     72.9909   1.0139509817e+02   5.7024616780e+01    0.2553759    0.1765701 -72.46  0.001355239    1.705    0.413
       123 -11.1547    142.3151     69.3702   6.9907085965e+01   4.0062779799e+01    0.5107751    0.4055343 -34.93  0.001864883    1.264    0.209
       124  -8.7152     75.2858     71.0232   9.0271012193e+01   5.3511718913e+01    0.1939551    0.1621091 -41.24 0.0001930242    1.097    0.089
       125 -10.3683     97.1545     69.3989   8.2515937261e+01   5.0007198472e+01    0.3097605    0.2513962 -38.19 0.0005639205    1.176    0.150
       126  -9.0732     27.5935     69.0989   1.0718932859e+02   5.9623113176e+01    0.2470257    0.1483453 -19.79  0.001310696    2.044    0.511
       127  -8.3851    197.4944     68.5057   5.8386556755e+01   2.6315875367e+01    0.1519719    0.1432916 -65.33 0.0003120328    1.029    0.029
       128  -9.9070    104.9804     67.1392   7.9342615300e+01   4.8896794472e+01    0.2568392     0.226249 -56.26  0.001364633    1.261    0.207
       129 -10.7338    152.3019     65.9881   6.6487748708e+01   3.8199862357e+01    0.3590974    0.3228732  78.94  0.001843665    1.193    0.161
       130  -8.8269     70.7480     67.1511   9.0621150476e+01   5.5021355027e+01    0.2668304    0.1767454  -1.06  0.001230429    2.115    0.527
       131  -9.6868     88.1042     65.8317   8.4241725750e+01   5.2402045398e+01    0.2453082    0.2042582  -8.79 0.0002450299    1.247    0.198
       132  -8.0056     22.6613     66.6686   1.0847797418e+02   6.0542143508e+01    0.1347845   0.07336786 -37.19 0.0007051856    1.741    0.426
       133  -8.7864    126.5264     64.9559   7.2478318250e+01   4.4603512920e+01    0.2351299     0.149412 -34.24  0.001025882    1.582    0.368
       134 -10.0603    109.6120     63.5320   7.6732731988e+01   4.8614753270e+01    0.4494623    0.3404762  44.84  0.002238493    1.344    0.256
       135  -9.7338    111.6113     56.4782   7.3688482500e+01   4.9455837318e+01    0.4927663    0.2977832  -9.00  0.001766633    2.594    0.614
       136 -10.5469     44.4818     63.5636   9.9229162157e+01   5.9209712177e+01    0.3617774    0.3026368  25.44  0.001829533    1.372    0.271
       137 -11.1116      2.2097     62.5857   1.1544193274e+02   6.2663314087e+01    0.2562249    0.1581845 -65.48 0.0003227133    1.282    0.220
       138 -10.3329      5.5175     58.9994   1.1340540893e+02   6.3275388367e+01     0.252675    0.1800666 -42.10 0.0008444965    1.205    0.170
       139  -9.7769    172.3344     62.7700   6.1284869046e+01   3.3657037508e+01    0.3801137    0.2727564 -17.48 0.0009641362    1.635    0.388
       140 -10.0136     32.4121     63.0922   1.0378019336e+02   6.0514849920e+01    0.3687314    0.2644382 -79.04  0.001402803    1.783    0.439
       141  -9.4367     66.5794     61.6540   9.0316675789e+01   5.6768377133e+01     0.505899    0.1551178 -50.67  0.001708095    3.342    0.701
       142  -9.6256     69.7875     55.7797   8.7126176555e+01   5.7441482911e+01    0.4283044    0.1826702 -36.84  0.001732123    2.310    0.567
       143  -8.9860    219.8409     61.8594   5.3146285673e+01   2.1850898224e+01    0.2102164    0.1627512 -66.29 0.0005960988    1.334    0.250
       144  -8.9364    131.5421     61.8157   7.0117028112e+01   4.3988927691e+01    0.3094784     0.109937  49.24  0.001020287    2.723    0.633
       145  -9.7235     89.1541     60.2869   8.1988903931e+01   5.3286414019e+01    0.3320432    0.2429581 -43.58  0.001283893    1.349    0.259
       146  -8.1050     54.2595     61.2758   9.4782673508e+01   5.8533447703e+01    0.1304325   0.09033831 -25.28 0.0006850878    1.467    0.319
       147  -9.1120    162.9702     60.0423   6.2318343239e+01   3.6499685267e+01    0.2485801    0.1861751  19.68 0.0007078534    1.678    0.404
       148  -8.7608    121.1772     60.2816   7.2334256267e+01   4.6662527345e+01    0.2218023    0.1896604 -21.86  0.001143713    1.175    0.149
       149  -9.4742     50.3167     59.8884   9.5850108578e+01   5.9306766487e+01    0.1831565    0.1748673  -2.02 0.0002589882    1.185    0.156
       150  -8.7368    183.6402     58.7616   5.7993864656e+01   3.1394431214e+01    0.3027313    0.1478787 -28.34  0.001146613    2.223    0.550
       151  -9.8077    159.5857     57.1663   6.2112290106e+01   3.7828085517e+01    0.4208404    0.2816017  -5.54  0.001251618    2.092    0.522
       152  -9.8484    162.7563     52.4466   5.9975844557e+01   3.7754991979e+01    0.4759242    0.2607372 -36.30  0.001979517    1.828    0.453
       153 -10.6829     96.3227     56.2064   7.8217663312e+01   5.2675398632e+01    0.5237431    0.3393336  -5.00   0.00191726    2.214    0.548
       154  -8.4752     59.5475     53.4819   9.0145456933e+01   5.9392533295e+01     0.134391    0.1163291 -27.26 0.0001692289    1.025    0.025
       155 -10.2853    200.9761     55.8405   5.4301851971e+01   2.7421395077e+01    0.4670875    0.3137729  14.70  0.001577351    2.366    0.577
       156 -10.8908    204.7946     51.9877   5.2667498285e+01   2.7031488709e+01     0.591926    0.5003134  86.95  0.002714572    1.188    0.158
       157 -10.2162    150.8596     57.8719   6.4208202890e+01   3.9926109319e+01    0.2798159    0.2592765  53.60 0.0002886072    1.059    0.056
       158  -9.9509    147.9647     54.7465   6.3829917216e+01   4.1157794422e+01    0.2523656    0.2386056  43.49 0.0003003082    1.032    0.031
       159  -9.2010    145.2677     52.7113   6.3760415508e+01   4.2155820769e+01      0.25058    0.2287012  47.16 0.0002085529    1.064    0.060
       160  -8.8681    125.9421     57.1321   6.9973713563e+01   4.6111497119e+01    0.2102547    0.1986094  81.95 0.0002668837    1.185    0.156
       161  -9.1526     78.3439     56.1587   8.4201401375e+01   5.5980573250e+01    0.3029698    0.1989824 -16.39 0.0009003543    1.821    0.451
       162 -10.6092     82.4257     48.3593   7.9907699363e+01   5.6688935338e+01    0.5898516    0.4109185   0.34  0.001478427    1.734    0.423
       163 -10.0625     35.4153     54.0328   9.9932897067e+01   6.2133523716e+01     0.513831    0.1643621 -47.71  0.002151722    2.425    0.588
       164  -8.2905    168.6659     56.3156   6.0026250496e+01   3.5633841912e+01    0.1602647    0.1165896 -70.90 0.0002377229    1.690    0.408
       165  -9.4420    105.2485     56.1136   7.5430148153e+01   5.0877814584e+01    0.2562493    0.2033865  46.52 0.0005878189    1.300    0.231
       166  -9.1220     25.4374     56.3952   1.0471448135e+02   6.2530662179e+01    0.2164116    0.1417783  26.40 0.0008526147    1.808    0.447
       167  -8.3360    222.2946     55.6620   5.1205623602e+01   2.2185902552e+01    0.1529938   0.09948492 -61.54   0.00058395    1.650    0.394
       168  -9.4608     86.5784     54.8156   8.0893213791e+01   5.4779998892e+01     0.241201    0.2185987  54.25 0.0006135504    1.317    0.241
       169  -9.1464    135.3507     54.2536   6.6605338855e+01   4.4351450747e+01    0.2995203      0.17622  41.59   0.00126541    1.738    0.425
       170  -9.2547    134.3112     51.3012   6.5845627860e+01   4.5077715943e+01    0.2386923    0.1562775 -27.03 0.0002392141    1.606    0.377
       171 -10.1652    179.2677     51.9814   5.6754280098e+01   3.3560721005e+01     0.405671    0.2373133 -39.07   0.00143831    1.691    0.409
       172 -10.1561    173.8936     52.2090   5.7784036367e+01   3.4916509035e+01    0.3527584    0.2188033 -25.72  0.001532951    1.762    0.432
       173  -9.1367     29.1876     52.6953   1.0209319129e+02   6.2983804832e+01    0.1878589    0.1442811 -54.30 0.0003139803    1.213    0.176
       174  -9.9749    106.7081     51.3164   7.3259400720e+01   5.1397074042e+01    0.2499329    0.2245917  11.65 0.0003618347    1.073    0.068
       175 -10.9546     17.9242     51.0639   1.0634684820e+02   6.4205628400e+01    0.4612481    0.2440565  -6.29  0.002402038    2.505    0.601
       176  -9.4758    126.1042     50.5618   6.7637699818e+01   4.7157781284e+01    0.3204184    0.2672322   1.31  0.001343652    1.294    0.227
       177 -11.7545     59.0797     48.0696   8.8375434383e+01   6.0488563764e+01    0.5605282     0.351528  21.25   0.00201213    1.787    0.440
       178  -9.4991     43.1394     48.6858   9.4999069698e+01   6.2392299104e+01    0.2726985    0.1644846 -55.91  0.001071912    1.746    0.427
       179  -9.1553    213.0396     49.9584   5.0956942359e+01   2.5270854031e+01    0.2323948    0.1748764  28.11  0.001140979    1.747    0.428
       180  -8.5746    148.4971     49.5009   6.1977735070e+01   4.1842397229e+01    0.1501941    0.1449633  43.42 0.0008106822    1.007    0.007
       181  -8.6820    121.8967     48.8868   6.8136710306e+01   4.8408186264e+01    0.1978615    0.1792211 -88.59 0.0008586536    1.317    0.241
       182 -10.2845     60.0218     57.4735   9.1344142430e+01   5.8541881685e+01    0.4033389    0.2751976  10.04  0.001945606    1.745    0.427
       183  -9.3555     97.1603     47.9437   7.4908953652e+01   5.3946211664e+01    0.3251745    0.1905978 -29.81 0.0008341491    1.713    0.416
       184  -9.2149     35.0130     47.7089   9.8062807081e+01   6.3445335576e+01    0.1884108    0.1648681 -65.92 0.0004039537    1.414    0.293
       185  -9.0963     10.6071     47.9919   1.0862933060e+02   6.5310399472e+01    0.1888551    0.1390431 -22.44 0.0006092171    1.352    0.260
       186  -9.3188    144.1921     46.8372   6.2027625093e+01   4.3327044082e+01    0.2294038    0.1931149  20.32 0.0002420033    1.286    0.222
       187 -10.4548    143.0984     42.7349   6.0872261129e+01   4.4202569862e+01    0.4144899    0.3361116  -7.98  0.002115094    1.368    0.269
       188  -9.6436     48.4972     49.5808   9.3123378037e+01   6.1589924310e+01    0.3634714    0.3150181  50.11   0.00155725    1.546    0.353
       189 -10.7867    167.4049     43.2466   5.6194240617e+01   3.7906665106e+01    0.3606445    0.3217314  25.41 0.0007728672    1.223    0.183
       190  -9.0219     20.5812     44.6109   1.0329729371e+02   6.5323458711e+01    0.2644215   0.09865793 -56.47  0.001219279    2.262    0.558
       191  -9.6023    108.6623     43.7895   6.9895755714e+01   5.2194158870e+01    0.3488194     0.231287  42.27  0.001285153    1.463    0.317
       192  -9.0286    187.5738     43.2681   5.2805056874e+01   3.2671563206e+01    0.1926339    0.1457591 -15.55 0.0009384759    1.548    0.354
       193  -8.6099     74.4141     42.4249   8.0437232972e+01   5.9111218088e+01    0.3150394     0.122762 -38.04  0.001259826    2.420    0.587
       194 -10.7419     31.9777     38.4951   9.6163584755e+01   6.5518691160e+01    0.7329578    0.2263154 -41.41  0.002910776    2.699    0.629
       195  -9.0659      8.2906     43.1331   1.0830994969e+02   6.6433581794e+01    0.1753055    0.1189128 -42.95 0.0007287871    1.128    0.114
       196  -9.0388    204.1509     41.4381   4.9870091369e+01   2.8685232518e+01    0.3047425    0.1589683 -47.41  0.001301727    1.900    0.474
       197  -9.7944     56.3121     41.6461   8.7034005021e+01   6.2049415966e+01    0.2722774    0.1913173  44.36  0.001514344    1.781    0.438
       198 -10.2911     44.3837     39.1813   9.1008547409e+01   6.4040098368e+01    0.5466762    0.3468711 -55.54  0.002037093    1.894    0.472
       199 -10.0353     48.3017     36.6864   8.8369410915e+01   6.3999519475e+01    0.2759108    0.1664048 -34.58 0.0008383998    1.438    0.305
       200  -8.9266    196.8692     40.8983   5.0737522085e+01   3.0608673924e+01     0.224474    0.1954238  34.47  0.001217178    1.319    0.242
       201  -9.1464     98.9175     41.1472   7.1763403870e+01   5.4681978754e+01    0.2663639    0.2217415  83.67  0.001400882    1.712    0.416
       202  -8.8849     63.3062     41.1097   8.4071015983e+01   6.1124620031e+01    0.1838602    0.1502606 -29.77 0.0003209029    1.126    0.112
       203  -8.7568     17.5388     41.4862   1.0367221356e+02   6.6168495376e+01    0.1218609   0.09223039 -39.03 0.0001599121    1.020    0.020
       204 -10.2165    156.7753     38.4196   5.6627712107e+01   4.1322996981e+01    0.4858487    0.2782766  46.18  0.002107194    1.737    0.424
       205  -9.2589    162.0100     37.4985   5.5351388295e+01   4.0094602628e+01    0.2798367    0.1779076  55.14 0.0008676284    1.477    0.323
       206 -10.7292    127.3413     37.0660   6.2481547403e+01   4.8877584996e+01    0.4099716    0.3066642 -42.65   0.00152409    1.453    0.312
       207  -9.6884    226.4786     36.2086   4.5743025835e+01   2.3884851879e+01    0.3266207     0.141092 -23.85 0.0005411591    2.839    0.648
       208  -8.9109    149.4924     38.9679   5.8246022993e+01   4.3114506573e+01    0.2228093    0.1468263 -29.61   0.00103009    1.583    0.368
       209  -8.5663    122.4507     38.5651   6.4235761682e+01   4.9832131444e+01    0.1452824    0.1345948  26.91 8.107236e-05    1.012    0.012
       210 -10.1942     81.9892     36.9676   7.5575278413e+01   5.8655833900e+01    0.3694949    0.2360394 -25.25 0.0007864058    1.532    0.347
       211  -9.2401     75.0773     37.9580   7.8406844458e+01   5.9737059103e+01    0.1981802    0.1733866 -10.08 0.0003837841    1.031    0.030
       212  -9.1980     70.0976     37.1841   7.9912230480e+01   6.0707027090e+01    0.2673209    0.2264986  37.49  0.001612298    1.323    0.244
       213  -9.3527    247.4191     35.9001   4.3495368100e+01   1.9079229511e+01    0.3832791      0.21165 -80.55  0.001783327    2.186    0.543
       214  -8.7747    110.6703     36.8130   6.6676529161e+01   5.2790341208e+01    0.2281361     0.173744   0.47  0.001166483    1.430    0.301
       215  -8.9496    102.0682     36.7117   6.9083948098e+01   5.4686555620e+01    0.1989584     0.168665  29.66 0.0004861931    1.110    0.099
       216  -8.9313     27.5553     36.6574   9.7486892716e+01   6.6281732453e+01     0.157006    0.1041149 -53.53 0.0009319253    1.500    0.333
       217  -9.3588    191.7703     34.5882   4.9675136333e+01   3.2754652886e+01    0.2823479    0.2323664 -26.36  0.001482209    1.314    0.239
       218  -8.7917    194.4726     32.4544   4.8693194232e+01   3.2334159229e+01     0.195713    0.1427805 -15.35 0.0006707507    1.642    0.391
       219  -9.7980     93.0418     35.5410   7.1363921425e+01   5.6733737490e+01    0.4064855    0.2426212  39.29  0.001360083    1.629    0.386
       220  -9.0387     62.8187     36.1158   8.2243785790e+01   6.2046452344e+01    0.1818208    0.1672339 -17.58 0.0004079143    1.186    0.156
       221  -8.1727    106.7164     35.3154   6.7197207384e+01   5.3880451436e+01    0.1343023    0.1122659 -64.99 0.0002887034    1.580    0.367
       222 -10.1331     78.4343     31.7833   7.4654358955e+01   6.0098365676e+01    0.4005626    0.2290535 -22.34  0.001261973    1.813    0.448
       223  -9.1432    169.9481     34.4882   5.3010374443e+01   3.8428786251e+01     0.215388    0.1385204  64.97 0.0003259907    1.481    0.325
       224  -8.9149    150.0470     33.9555   5.6447908836e+01   4.3641675731e+01    0.2261502    0.1652469  27.71 0.0003637537    1.555    0.357
       225 -10.3918    236.8287     31.7823   4.3564632651e+01   2.2018890838e+01    0.5331156    0.3423336  62.54  0.002828339    1.617    0.381
       226 -10.0582    237.4119     26.8139   4.2322388860e+01   2.2507754531e+01    0.2924491    0.2322863 -26.06 0.0008382063    1.407    0.289
       227 -10.2095    238.9178     22.9082   4.1260662591e+01   2.2637941797e+01    0.3347572    0.2632926  78.51  0.001213978    1.255    0.203
       228  -9.0229    184.7426     32.9181   5.0207358011e+01   3.4784322001e+01    0.2820704    0.1734902 -34.06  0.001313925    1.645    0.392
       229  -9.4997    142.0963     32.2898   5.7479545522e+01   4.5874192599e+01    0.3612655    0.2750227  59.21   0.00185208    1.247    0.198
       230  -8.9430    119.6630     19.5835   5.7727715189e+01   5.2893961053e+01    0.2643102    0.1791469  46.64 0.0008412994    1.333    0.250
       231  -9.3421    114.2071     32.8696   6.4209391553e+01   5.2536990766e+01    0.3165634    0.2318533 -49.97  0.001586591    1.650    0.394
       232 -10.0153    108.4253     29.6371   6.4491359842e+01   5.4276271680e+01    0.4916074    0.1640871  55.81  0.001711572    3.051    0.672
       233  -8.9144    116.5639     28.5596   6.1943409146e+01   5.2556853724e+01    0.2266787    0.1969519  27.56 9.884321e-05    1.078    0.073
       234  -9.8846    120.8139     26.1255   5.9968005830e+01   5.1860292352e+01     0.483968    0.2056211  57.14  0.001636043    2.215    0.549
       235  -9.0487    224.6998     31.9531   4.4872142487e+01   2.4861736339e+01    0.1914895    0.1656513 -53.97    0.0010128    1.078    0.072
       236  -9.0893    120.4638     32.0686   6.2307589790e+01   5.1189958325e+01    0.1944788      0.17796  -8.58 0.0003724882    1.107    0.097
       237  -9.8321    125.1021     30.3373   6.0535809935e+01   5.0311192642e+01    0.3738605    0.1970707  40.30  0.001593476    1.919    0.479
       238 -10.4508    201.6466     29.7537   4.7000028256e+01   3.0844399590e+01    0.4067031    0.2425491 -67.06  0.001831044    1.921    0.480
       239  -9.1162     57.8542     31.1589   8.2131474985e+01   6.3605303214e+01    0.1883176    0.1748454 -31.37   0.00123319    1.318    0.241
       240  -8.5920     71.3909     30.1079   7.6462148146e+01   6.1596121824e+01    0.2462316    0.1736872  57.67  0.001287167    2.023    0.506
       241  -8.6433     20.6483     30.7702   9.8540159615e+01   6.7970870578e+01    0.1531281   0.08608168  33.53 0.0007206614    2.223    0.550
       242  -8.6097    229.5520     29.0782   4.3645709769e+01   2.4066308622e+01    0.1926431    0.1236285 -35.87  0.000346233    1.492    0.330
       243 -10.0398    181.5060     27.8300   4.9179527433e+01   3.6256504871e+01    0.6083921    0.2859777  36.10  0.002148207    3.281    0.695
       244  -8.2849     65.3198     29.6604   7.8547783028e+01   6.2678857064e+01    0.1197355    0.1057591 -65.79 0.0007049859    1.714    0.416
       245 -10.3563     48.3021     28.2202   8.4841899352e+01   6.5426962368e+01    0.3212628    0.2499659   3.04  0.002036463    1.193    0.162
       246 -10.0915     16.7440     27.3355   9.9140231807e+01   6.8907021552e+01    0.2979634    0.1550534 -34.27 0.0008085105    1.579    0.367
       247  -8.9414    215.2733     28.0197   4.4913068475e+01   2.7651479590e+01    0.1879774    0.1713425 -53.06 0.0004776831    1.101    0.092
       248  -9.1835    222.0229     26.7447   4.3850585142e+01   2.6160052120e+01    0.2186845    0.1819256 -46.22 0.0003999741    1.156    0.135
       249  -9.7168     81.1797     26.0356   7.1252492761e+01   6.0407966515e+01    0.3537713    0.2593444 -55.07  0.001853379    2.010    0.502
       250  -8.5144     74.9974     27.7761   7.4150252001e+01   6.1304524573e+01    0.1692016     0.103499  41.21 0.0008648582    1.627    0.385
       251  -8.7899    206.4655     26.0381   4.5406133504e+01   3.0085197062e+01    0.2017375    0.1341123 -31.84  0.000511486    1.542    0.352
       252  -8.9325    117.7024     23.3535   5.9649935978e+01   5.2926843940e+01     0.253064    0.1915667 -42.05  0.001339358    1.494    0.330
       253  -8.8718     68.8807     25.7937   7.5506617986e+01   6.2658551132e+01    0.2117674    0.1619313   5.74  0.001242931    1.227    0.185
       254  -8.5682     31.4360     26.5213   9.1716988105e+01   6.7718026006e+01    0.1633871    0.1015148 -46.33 0.0001026144    1.553    0.356
       255  -9.9301     29.7707     23.1660   9.1077172262e+01   6.8456136355e+01    0.3084505    0.1853241  -3.60  0.001746685    1.860    0.462
       256  -8.6085     95.0454     24.9344   6.6381459103e+01   5.7784393203e+01     0.163234    0.1438649   0.98 0.0004117703    1.067    0.063
       257  -9.8716    179.3423     23.2493   4.8127788008e+01   3.7360640653e+01    0.2912417      0.24266 -69.88  0.001129453    1.212    0.175
       258  -9.8894    104.3269    249.3369   1.1445852312e+02   1.0335000653e+01    0.2636888    0.1087563  35.82  0.001258497    2.430    0.588
       259  -9.2789    228.2388     24.1014   4.2558104333e+01   2.4991058812e+01    0.3773291    0.1678386 -72.47  0.001375786    3.322    0.699
       260  -8.9777     62.8182     23.3421   7.6714118273e+01   6.4018381587e+01    0.1744044    0.1571141  39.89 0.0004274447    1.398    0.285
       261 -10.3007      1.9523     22.1573   1.0473161209e+02   7.0815704785e+01    0.2387874    0.2122674 -51.95  0.001365499    1.356    0.263
       262  -9.5242      8.0311     22.1214   1.0155800761e+02   7.0462573882e+01     0.193599    0.1472876 -30.67 0.0005987926    1.046    0.044
       263  -9.1067    142.0508     21.4802   5.3712285466e+01   4.7181033533e+01    0.2613659    0.1930377  15.34 0.0008176803    1.578    0.366
       264  -9.5559    131.6987     20.7560   5.5523978084e+01   4.9847669671e+01    0.4048808    0.2780471 -67.87  0.001910486    2.010    0.502
       265  -9.3330    222.8271     20.3246   4.2162149543e+01   2.6737264619e+01    0.2479151    0.1844098  43.89  0.000767556    1.650    0.394
       266  -9.1792     89.1862     20.8526   6.6418274142e+01   5.9505256413e+01    0.2206616    0.1719549 -29.90 0.0006788176    1.353    0.261
       267 -12.5604     76.5053    219.0223   1.1674680376e+02   1.9794089803e+01    0.9591777    0.5499377  47.38  0.002648936    1.471    0.320
       268  -9.3693     53.8792     19.9628   7.8752802893e+01   6.5894163027e+01     0.323505    0.1839439  10.27  0.001574452    2.241    0.554
       269 -11.4502     69.1390    217.9055   1.1807353720e+02   2.1029707544e+01    0.4483525    0.2909517  70.26  0.001443368    1.370    0.270
       270  -8.8865    113.7127     15.3204   5.7447524964e+01   5.4753469757e+01    0.1811323    0.1141199 -21.18 0.0005565812    1.677    0.404
       271 -10.2610    149.7844     18.1869   5.1165602919e+01   4.5572966255e+01    0.2905801    0.2529721 -32.39 0.0006538341    1.239    0.193
       272  -9.7953     28.8147     18.3051   8.9375619483e+01   6.9347047756e+01     0.212253     0.154228 -24.65 0.0005220994    1.087    0.080
       273  -9.2214     90.6888    214.7602   1.1349673539e+02   1.8561098870e+01    0.2326801    0.1403666  34.78  0.001253413    1.764    0.433
       274  -9.0951    124.0000    205.9738   1.0553134617e+02   1.4917239209e+01    0.1868709    0.1618293  54.82            0    1.006    0.006
       275  -9.4809      1.3817    185.2491   1.2879209207e+02   3.5233153196e+01    0.3134928   0.08062911 -77.27   0.00138935    3.039    0.671
       276  -8.6883     13.3234    174.3338   1.2569431683e+02   3.6539273961e+01     0.110517   0.07713237 -55.37 0.0007050608    1.708    0.414
       277 -10.1505      6.9736    168.5161   1.2661105654e+02   3.8352322281e+01    0.1741028    0.1517353  41.72 0.0009615485    1.456    0.313
       278  -9.2118     13.6560    168.6826   1.2520281472e+02   3.7750306003e+01    0.1115373   0.07827843 -53.16  0.000704882    1.719    0.418
       279 -10.2949     18.7660    159.9160   1.2335912300e+02   3.9260161003e+01     0.202335    0.1533224 -34.64  0.001287816    1.930    0.482
       280  -8.5959      7.6500    156.6881   1.2558948156e+02   4.0918085980e+01    0.1132351   0.07573093 -52.87 0.0001714264    1.720    0.419
       281 -10.8238      2.2508    153.5591   1.2655642134e+02   4.2026906574e+01    0.2444692    0.1743998 -86.61 0.0006937828    1.056    0.053
       282  -8.5925    216.8147     15.3787   4.1517398001e+01   2.8764326977e+01    0.1972788    0.1097912  62.13 0.0009573619    1.743    0.426
       283  -9.6316      5.0260    150.2441   1.2567389185e+02   4.2566326885e+01    0.1839399    0.1378976 -83.24  0.000633123    1.060    0.057
       284 -10.2615     11.8420    152.1569   1.2426634258e+02   4.1606669261e+01    0.3107781    0.1138135 -67.30  0.001515543    2.134    0.531
       285  -9.0259     21.4705    148.4674   1.2165395859e+02   4.1640805462e+01    0.1235836   0.09713683 -86.88 0.0004569786    1.000    0.000
       286  -8.8846     24.6457    145.3000   1.2055325717e+02   4.2093196470e+01     0.130247    0.0774138  68.85 0.0007037224    1.701    0.412
       287  -9.3811     21.5685    141.9946   1.2096140065e+02   4.3135809932e+01    0.1688823    0.1492341  79.25 7.923543e-05    1.165    0.142
       288 -10.6853      7.2361    140.0865   1.2429219900e+02   4.4712899374e+01    0.5379334    0.2906152 -20.59   0.00170456    3.835    0.739
       289 -12.8257    228.3690    136.0218   7.0211496645e+01   7.5577738796e+00       1.1874    0.6078883  49.21  0.005119151    2.103    0.525
       290 -13.2822    232.8362    127.1626   6.7377786846e+01   8.1474694151e+00    0.9868557    0.8666149  84.40  0.005483053    1.465    0.317
       291  -8.6876      1.0000    136.9283   1.2552535245e+02   4.5864357878e+01    0.1924646   0.05190906 -76.03  0.000475329    2.837    0.648
       292  -9.6553     38.7882     17.6242   8.4287996744e+01   6.8305090720e+01     0.232485    0.1386638  27.24 0.0007112503    1.709    0.415
       293  -8.5076     11.2335    133.9395   1.2271655421e+02   4.5837133633e+01    0.1576859   0.08084986 -77.04 0.0002658414    1.543    0.352
       294  -9.8283     32.9421    128.4433   1.1635743248e+02   4.5309206706e+01    0.3296328    0.1418871 -60.83  0.001556975    1.889    0.471
       295  -8.8976     67.3243     12.9263   7.0143198327e+01   6.4621440734e+01    0.2723961    0.1342753  32.28  0.001227875    2.027    0.507
       296 -10.0814     30.4998    124.3255   1.1646036006e+02   4.6518517655e+01    0.3507909    0.2320709 -27.16 0.0001903386    2.145    0.534
       297  -8.3544     41.6992    126.7120   1.1369547394e+02   4.4852110209e+01    0.1274205     0.090146 -43.62 0.0003549926    1.559    0.359
       298  -8.8364     37.5108    126.4814   1.1482436712e+02   4.5334790818e+01    0.1311316    0.1085549 -78.94 0.0002189605    1.025    0.024
       299  -8.9893     49.1195    125.3182   1.1139457130e+02   4.4380321664e+01    0.2829921    0.1735433   0.08  0.001261173    2.969    0.663
       300 -12.3436    221.0841    116.7652   6.6919225730e+01   1.2423680142e+01     1.174355    0.7537405  -8.78  0.004918318    2.202    0.546
       301  -8.7827     76.4324    119.4904   1.0245070058e+02   4.2223628403e+01    0.2627014    0.2145715 -84.55  0.001417342    1.273    0.215
       302  -9.6119     12.9621    123.0869   1.2109849234e+02   4.8238103086e+01    0.1826901     0.141898 -76.23 0.0003671943    1.021    0.021
       303  -9.0259      2.2681    123.0728   1.2393551654e+02   4.8955336546e+01    0.2045303    0.1390742 -45.44   0.00131384    1.648    0.393
       304  -8.3748     90.1854    121.6330   9.8958022631e+01   3.9545170791e+01     0.181499    0.1422754  25.46 0.0001541326    1.495    0.331
       305  -9.0500     46.2256    119.8117   1.1130579950e+02   4.6030852838e+01    0.2299338    0.1240866  72.17 0.0009523463    2.807    0.644
       306 -10.0680     69.5675    117.9415   1.0413549220e+02   4.3585803951e+01    0.3438593    0.2371823 -79.52 0.0007932707    1.592    0.372
