#   1 NUMBER                 Running object number                                     
#   2 MAG_AUTO               Kron-like elliptical aperture magnitude                    [mag]
#   3 X_IMAGE                Object position along x                                    [pixel]
#   4 Y_IMAGE                Object position along y                                    [pixel]
#   5 X_WORLD                Barycenter position along world x axis                     [deg]
#   6 Y_WORLD                Barycenter position along world y axis                     [deg]
#   7 A_WORLD                Profile RMS along major axis (world units)                 [deg]
#   8 B_WORLD                Profile RMS along minor axis (world units)                 [deg]
#   9 THETA_WORLD            Position angle (CCW/world-x)                               [deg]
#  10 FWHM_WORLD             FWHM assuming a gaussian core                              [deg]
#  11 ELONGATION             A_IMAGE/B_IMAGE                                           
#  12 ELLIPTICITY            1 - B_IMAGE/A_IMAGE                                       
         1 -14.3105     67.9755    143.6945   1.1262764267e+02   3.7417820713e+01     4.394194     2.025186  70.92  0.005352005    4.654    0.785
         2 -14.2065    215.9366     13.6586   4.5067252556e+01   2.9005595186e+01     1.411443     1.106587  30.98  0.003874928    1.592    0.372
         3 -13.6642    193.0971     36.3169   5.4317020086e+01   3.2147300432e+01     1.440734     1.030465  13.16  0.001955568    1.872    0.466
         4 -14.0310    201.7995     30.4348   5.1376471672e+01   3.0642859158e+01     1.346264     1.189738  -8.65  0.006598004    1.279    0.218
         5 -12.5333    208.9855     22.0882   4.8123555037e+01   2.9808641702e+01     0.546465    0.4418066  35.81  0.001122356    1.447    0.309
         6 -12.3680     13.8323      2.6672   9.3598844499e+01   7.2670228503e+01    0.7378008    0.2047913  25.05  0.003239345    4.293    0.767
         7 -13.1209      2.4562      6.6690   1.0166332958e+02   7.2879262991e+01     1.167241    0.4202454 -53.93  0.005892451    2.604    0.616
         8 -11.8906      2.1070     24.7030   1.0869097341e+02   6.9701133409e+01    0.3360901      0.15471 -57.01  0.001325694    1.716    0.417
         9 -14.3689     50.7657    231.4091   1.2523809812e+02   2.1581387379e+01     1.464415    0.8924574  88.52   0.01014225    1.461    0.315
        10 -13.6826     42.3833    211.2941   1.2526730974e+02   2.6257601160e+01    0.6729576    0.5707207 -64.35  0.005126937    1.590    0.371
        11 -16.4558     47.0155    198.1515   1.2339518557e+02   2.8269961105e+01     11.89506     3.909894  60.90   0.04266383    3.641    0.725
        12 -11.7894     72.2212    176.6738   1.1613987372e+02   2.9484872935e+01    0.2759115    0.2246974 -57.05 0.0006069267    1.423    0.297
        13  -9.8012    211.4626    178.9476   8.7424414996e+01   4.1092881270e+00    0.1838848    0.1174034 -59.16 0.0008092091    2.665    0.625
        14  -9.7227    197.6054    176.2918   8.9548507430e+01   7.1979277067e+00    0.1369581    0.1096868  75.80 0.0007004334    1.784    0.440
        15 -13.3285     68.6934    162.8223   1.1517053536e+02   3.2988202452e+01    0.5638295    0.3790297 -37.08  0.001123663    2.274    0.560
        16 -11.4941     81.1297    166.5274   1.1286922605e+02   3.0415459461e+01    0.2555593    0.2278398 -88.56 0.0003541985    1.088    0.081
        17 -12.7950     87.0903    159.8936   1.1054537740e+02   3.0988718284e+01     1.335926    0.8938792  72.83  0.001464579    1.617    0.382
        18  -9.6678    194.6423    241.8456   1.0111330322e+02  -1.7517235535e+00    0.1370664    0.1110891 -52.09 0.0009269322    1.744    0.426
        19 -16.3126     11.9904    242.9115   1.3198554264e+02   2.3904269092e+01     2.900743     1.380925  43.12   0.02038817    1.897    0.473
        20 -10.3427    137.5201    170.5090   1.0092355985e+02   2.0007613911e+01    0.1407298     0.129308  61.72 5.101037e-05    1.009    0.009
        21 -11.2903    125.4964    173.4998   1.0407052438e+02   2.1618328031e+01    0.2983497    0.1278739  42.53  0.001219204    2.193    0.544
        22 -10.8221    133.9798    145.2369   9.6857134167e+01   2.5975456044e+01     0.930777    0.2050254 -54.02  0.002095695    6.843    0.854
        23  -9.7086     38.9493    146.3696   1.1997384699e+02   4.0270472603e+01    0.2717039    0.1176532  46.45  0.001337127    2.329    0.571
        24 -10.2368    100.8421    144.2083   1.0462870977e+02   3.2306440693e+01    0.2896051    0.2422784 -52.02 0.0008584012    1.239    0.193
        25  -9.7173    103.5052    140.9725   1.0336374113e+02   3.2586102616e+01    0.2755383    0.2132332 -27.08 0.0008983386    1.745    0.427
        26 -12.3471     89.2271    143.2415   1.0731259205e+02   3.4422397936e+01    0.2806674    0.2467837 -49.36 0.0005559411    1.254    0.202
        27 -15.6031      7.0857    203.5320   1.3093278225e+02   3.1410139049e+01     2.293755     1.084966 -89.55   0.00802668    1.681    0.405
        28 -10.0990    111.1353    132.3445   9.9718499236e+01   3.3191263683e+01    0.3050084    0.2436894   3.74 0.0009684635    1.783    0.439
        29 -10.1180    105.7630    130.5526   1.0070612248e+02   3.4566761823e+01     0.288407    0.2529988 -71.85  0.001220368    1.090    0.083
        30 -10.7313    195.6998    170.1353   8.8689822723e+01   8.6032622096e+00    0.3032933     0.257022 -22.42  0.001650312    1.223    0.182
        31 -10.8796     98.4754    128.6668   1.0219059369e+02   3.6266130497e+01    0.2679082    0.2314977 -24.84 0.0004313104    1.420    0.296
        32 -10.1282    160.7839    126.7774   8.6444811227e+01   2.4227391913e+01    0.2188029    0.1872457 -84.54  0.001076742    1.378    0.274
        33 -10.3424    116.9829    126.0362   9.6859333509e+01   3.3526796000e+01    0.2327649    0.1859817 -13.99 0.0007758351    1.693    0.409
        34  -9.7147    107.8610    120.4679   9.7958346598e+01   3.6493321332e+01    0.2075143    0.1864368 -59.76 0.0003847252    1.059    0.056
        35  -9.9123    135.0000    119.9798   9.0900761145e+01   3.1259246782e+01    0.2584369   0.08601961 -46.35 0.0008060887    2.968    0.663
        36 -11.9097     22.7512    125.6693   1.2145981733e+02   4.6519350841e+01    0.3041677    0.1787605  57.52  0.001759479    1.833    0.455
        37 -10.1370    167.8448    112.5502   8.1258352648e+01   2.5502919834e+01    0.3684502    0.2676261 -84.29  0.001534752    2.062    0.515
        38  -9.3370    205.7959    110.1895   7.2854283259e+01   1.7045093629e+01    0.2089465    0.1767615   8.26 0.0006016024    1.298    0.230
        39  -9.5911     17.9697    110.4844   1.2080006954e+02   5.0370359626e+01    0.1560207   0.08074578  57.62 0.0007152515    2.319    0.569
        40 -10.5727     44.8229    105.6345   1.1246314929e+02   4.9082608501e+01    0.1664602    0.1145156  46.81 0.0004877236    1.659    0.397
        41 -10.0432     52.6659    104.3073   1.0992333914e+02   4.8528811860e+01     0.132904   0.09494154  78.35 0.0004379268    1.670    0.401
        42 -10.9307      1.6439     88.9934   1.2256672287e+02   5.6267411436e+01    0.2752858   0.08343761 -71.25  0.001234207    2.449    0.592
        43 -11.3979      2.2154     80.4140   1.2115893447e+02   5.8138684832e+01    0.4312937   0.08543595 -72.61  0.001404428    4.757    0.790
        44  -9.5762     13.4935     60.0056   1.1349013025e+02   6.1950317458e+01    0.1830425   0.09262732 -62.29 0.0004824866    1.538    0.350
        45 -12.5493    166.0377    238.2575   1.0565560843e+02   3.3655877811e+00    0.3660213       0.2288  36.70  0.002221813    1.346    0.257
        46 -12.8329     39.8503    245.0344   1.2784805996e+02   2.0545012482e+01    0.3356541    0.2427741 -84.68 0.0007037793    1.391    0.281
        47 -12.0671     84.9294    234.2780   1.1962704373e+02   1.6600471771e+01    0.3005775    0.2395983 -88.35  0.001297593    1.274    0.215
        48 -12.3098    194.9808    194.6535   9.3515559717e+01   4.7548501056e+00    0.7165549    0.5924867  87.61  0.004072143    1.822    0.451
        49  -9.9682    150.4738     46.1456   6.5116064054e+01   4.1830810984e+01    0.2987004    0.2069845  84.88  0.001278769    1.956    0.489
        50 -10.5482    207.6324    183.7263   8.9078041494e+01   4.0909826325e+00    0.2337067    0.1751917 -43.77  0.001294351    1.551    0.355
        51 -11.9005     67.5644    182.2888   1.1777514232e+02   2.8928074556e+01    0.3579849    0.2569306 -44.40  0.001714103    1.954    0.488
        52 -10.9627    189.4866     15.0057   4.8483417650e+01   3.5648295613e+01    0.2717319    0.1910726 -84.89 0.0006397938    1.508    0.337
