#   1 NUMBER                 Running object number                                     
#   2 MAG_AUTO               Kron-like elliptical aperture magnitude                    [mag]
#   3 X_IMAGE                Object position along x                                    [pixel]
#   4 Y_IMAGE                Object position along y                                    [pixel]
#   5 X_WORLD                Barycenter position along world x axis                     [deg]
#   6 Y_WORLD                Barycenter position along world y axis                     [deg]
#   7 A_WORLD                Profile RMS along major axis (world units)                 [deg]
#   8 B_WORLD                Profile RMS along minor axis (world units)                 [deg]
#   9 THETA_WORLD            Position angle (CCW/world-x)                               [deg]
#  10 FWHM_WORLD             FWHM assuming a gaussian core                              [deg]
#  11 ELONGATION             A_IMAGE/B_IMAGE                                           
#  12 ELLIPTICITY            1 - B_IMAGE/A_IMAGE                                       
         1 -12.2508    199.6321     32.1963   5.2225561389e+01   3.0857082500e+01     1.268256    0.8960802  35.92  0.005985895    1.583    0.368
         2 -11.9765    214.3405     16.0977   4.6028830585e+01   2.8948367727e+01    0.7774704    0.6578245 -29.23  0.002841143    1.090    0.083
         3  -8.8758     21.0093      2.4952   8.9932394753e+01   7.5022142318e+01    0.1720048   0.09825806   1.30 0.0008105669    2.569    0.611
         4  -8.5510     12.6654      1.6833   9.5415392196e+01   7.6080134637e+01    0.1293882   0.07732102 -23.84 0.0005780766    1.693    0.409
         5 -11.7167     82.0387    249.4588   1.1830518253e+02   1.7696748801e+01     1.216957    0.1565317  41.70  0.005106626    3.887    0.743
         6 -12.1586    103.1096    250.1760   1.1474618970e+02   1.5132639052e+01     1.612007    0.3106665  33.00  0.003405353    6.508    0.846
         7 -11.0553     97.0993    247.1459   1.1554521396e+02   1.6251080990e+01    0.4929944    0.1683533  32.18  0.002524062    2.673    0.626
         8 -10.7605    114.7304    247.3667   1.1251664313e+02   1.4078438113e+01    0.3367651    0.2381097 -66.01  0.002629716    1.949    0.487
         9 -10.5876    119.5293    247.4876   1.1170056968e+02   1.3467148935e+01    0.3174622    0.1977519  33.86  0.002313987    1.255    0.203
        10 -10.6798     66.0092    242.9827   1.2065839166e+02   2.0398019085e+01    0.3297358    0.1722234  43.86 0.0003438742    1.366    0.268
        11 -10.2518     67.7963    238.7981   1.2008604547e+02   2.0807935398e+01    0.4674038    0.1635583  60.51  0.002187736    3.829    0.739
        12 -10.8847     51.4783    242.4941   1.2314818766e+02   2.2020811050e+01    0.2885042    0.2432366  -5.55  0.002394337    1.948    0.487
        13 -10.2808     56.3102    246.6628   1.2253846320e+02   2.0912185277e+01     0.284437    0.1366219  63.40  0.001583067    2.004    0.501
        14 -10.6701     59.0316    243.9080   1.2192114384e+02   2.1019639849e+01    0.4029504    0.1928913  75.55  0.002272835    2.590    0.614
        15 -12.2966     42.7859    210.0322   1.2294244159e+02   2.8066662941e+01    0.8540418    0.5769749 -39.63  0.005639584    2.494    0.599
        16 -14.1523     52.1437    201.0825   1.2051458353e+02   2.8626953980e+01     3.089079     1.913071  88.19   0.02056111    1.674    0.403
        17  -9.9147    161.4434    226.8534   1.0219797279e+02   1.0516940072e+01    0.1855515    0.1415456 -10.40  0.001355431    1.556    0.357
        18 -15.5390      6.6019    204.8762   1.2962766265e+02   3.2316309695e+01     12.01947     2.030045 -83.25   0.04090124    6.161    0.838
        19 -11.2189     81.7932    221.9989   1.1632428027e+02   2.1721356867e+01    0.7406357    0.2669184  48.43  0.003873384    2.297    0.565
        20 -10.1313     73.4547    218.8982   1.1765775893e+02   2.3203680700e+01    0.2818397    0.1725328  60.44  0.001905309    1.503    0.334
        21  -9.3129     84.0385    233.4467   1.1680792048e+02   1.9725339722e+01    0.1852218    0.1648859  54.03  0.001384404    1.199    0.166
        22  -9.2465     73.2530    205.6259   1.1662549210e+02   2.5411240762e+01    0.1944902    0.1599063  11.03 0.0007306048    1.628    0.386
        23  -9.8799     28.1765    196.9256   1.2508792803e+02   3.1819073369e+01    0.2054436    0.1506526 -78.77 0.0009476155    1.433    0.302
        24  -8.7657    193.6942    194.7426   9.1957238082e+01   9.7862468938e+00     0.221405    0.1363131 -11.93  0.001280854    1.914    0.477
        25  -9.6708     59.9776    188.1362   1.1787854430e+02   3.0087952996e+01    0.2539276    0.2236193  74.53  0.001211063    1.125    0.111
        26 -10.2459     67.8968    181.6019   1.1556462623e+02   3.0368597990e+01    0.3589974    0.2505194 -29.37  0.002079003    2.353    0.575
        27 -10.3188     72.6275    175.7836   1.1391814736e+02   3.0889303831e+01    0.2920089    0.2433549 -30.26  0.001102182    1.647    0.393
        28  -8.3407     97.5001    170.5139   1.0766045048e+02   2.8515288345e+01    0.1246536    0.1090757  52.83 -0.000142091    1.013    0.013
        29  -8.2219    195.5234    169.0525   8.7211435022e+01   1.2808037647e+01    0.1759044    0.1178218 -30.75 0.0006417118    1.568    0.362
        30 -10.1337     81.6571    165.6034   1.1066655483e+02   3.1690018957e+01    0.3671499    0.2599057 -45.50 0.0007100027    1.714    0.417
        31 -10.6183     87.2354    159.3476   1.0852752536e+02   3.2159288346e+01    0.5507196    0.3274011 -37.19  0.001567214    2.437    0.590
        32 -12.6592      8.0512    250.1637   1.3065949635e+02   2.4999185744e+01    0.6423241    0.3301995  25.91 0.0006415002    2.234    0.552
        33 -11.6109     69.0970    162.2144   1.1322335067e+02   3.4020710916e+01    0.3812493    0.3050395 -44.66  0.001069539    1.539    0.350
        34 -10.7521     75.2604    155.8553   1.1095285490e+02   3.4518916256e+01    0.7727048    0.3645838  66.65  0.003016907    3.506    0.715
        35 -11.6015     68.4504    144.3084   1.1112937630e+02   3.7849827407e+01    0.8180633    0.4621194  67.35  0.003454902    2.167    0.539
        36 -12.9854      2.8258    247.1506   1.3142359019e+02   2.5875096855e+01    0.7767527    0.3225805 -78.16  0.004602282    2.599    0.615
        37  -9.8026     78.2325    243.3837   1.1855365524e+02   1.8972598691e+01    0.1936274   0.09104557  43.54 0.0007102676    1.519    0.342
        38 -10.3316    135.0000    230.9484   1.0736377842e+02   1.3597490526e+01    0.3245783    0.1485546 -56.04  0.001849084    3.108    0.678
        39  -9.2246    101.7290    142.7952   1.0243062794e+02   3.3329528746e+01    0.4299509    0.2572887 -24.21  0.001753259    3.209    0.688
        40 -10.4814     89.3941    142.8611   1.0554160593e+02   3.5223877578e+01    0.2800678      0.23992  -3.37 0.0007721703    1.495    0.331
        41  -9.0941     28.7339    138.5769   1.2090990792e+02   4.3529911991e+01    0.1641248   0.09680377  44.87  0.000506469    1.581    0.367
        42 -10.1113     58.8975    132.2493   1.1200712532e+02   4.1709111580e+01    0.3297194    0.1631463 -88.90  0.001349465    2.929    0.659
        43 -10.0109     92.5692    235.1603   1.1540232059e+02   1.8453390571e+01    0.2152071    0.1573909  69.40 0.0008876079    1.460    0.315
        44  -8.2110    111.0482    132.0168   9.8105935038e+01   3.3988519294e+01    0.2138628     0.167224  -7.70 0.0006670154    1.722    0.419
        45  -8.4912    106.1009    130.8367   9.9131520805e+01   3.5075713347e+01    0.2152819    0.1869623  76.48  0.001236479    1.237    0.192
        46 -10.4733     59.6829    231.2199   1.2106220581e+02   2.2836909633e+01    0.2926599    0.1741519 -68.94  0.001687579    1.996    0.499
        47  -9.2449     98.3218    128.5722   1.0071385883e+02   3.6845632507e+01     0.295258    0.2285485  21.35   0.00135865    1.509    0.338
        48  -7.8702    107.8263    120.1836   9.6502442636e+01   3.7002997195e+01    0.1778668    0.1611712  -4.32 0.0002308169    1.252    0.201
        49  -9.0062     54.7799    120.5974   1.1147101555e+02   4.4854663966e+01    0.1852433    0.1104576  45.41 0.0009529078    1.661    0.398
        50 -10.0958    105.0049    230.3440   1.1273489794e+02   1.7598401664e+01    0.2221486    0.1984091  35.42  0.001833221    1.203    0.169
        51 -11.0320     97.2349    226.4173   1.1381262324e+02   1.9148941853e+01    0.6458039    0.1636829  41.55  0.002962413    2.797    0.642
        52  -8.4183    206.0280    110.4612   7.2832228439e+01   1.9099754946e+01    0.1994999    0.1328829  47.02 0.0008500378    1.558    0.358
        53  -8.3874    120.0000    109.9497   9.0979573952e+01   3.6876213225e+01    0.2392668   0.08157149 -46.52 0.0008043827    2.956    0.662
        54  -8.3969    168.0715    113.0078   8.0565408041e+01   2.6529509345e+01    0.2227205    0.1815144 -74.85  0.001129205    1.728    0.421
        55  -9.7510     49.6803    107.5090   1.1093047421e+02   4.8502535547e+01     0.324314    0.1347513  27.43  0.001358747    2.777    0.640
        56  -8.6078    134.3125    102.5146   8.5495454486e+01   3.5490117947e+01    0.2625663    0.1331225 -42.06  0.001068576    1.976    0.494
        57 -11.3362    112.3396    229.4285   1.1131007197e+02   1.6788734338e+01    0.5922399    0.1642967  39.90  0.002789823    2.616    0.618
        58  -9.2653    238.5047     72.5350   5.8663426423e+01   1.7445099382e+01    0.1336557    0.1150271 -17.55 7.450117e-05    1.007    0.007
        59  -8.8213    149.9857     53.9119   6.7109865027e+01   4.0473581695e+01    0.2261711    0.2174001 -36.76 0.0004512979    1.059    0.056
        60  -8.5399    150.6901     46.3269   6.4352731328e+01   4.1417204129e+01    0.2548003    0.1867077  77.71 0.0005711961    1.629    0.386
        61  -9.4985    143.6408    229.8255   1.0569734523e+02   1.2580229915e+01    0.1257383    0.1045606 -70.35 0.0009530892    1.741    0.426
        62 -10.8275    191.3575     38.6200   5.5209262688e+01   3.2161226017e+01    0.3634192    0.3329511 -44.50  0.001022664    1.081    0.075
        63  -9.2997    128.5623    248.5261   1.1024602466e+02   1.2206132047e+01    0.2356682    0.1236023  57.24  0.001408163    2.472    0.595
        64 -10.5528    208.7653     22.9050   4.8498844712e+01   2.9617811154e+01     0.443817    0.3096804  25.60  0.001295867    1.706    0.414
        65  -9.0829    148.4821    229.4945   1.0479937610e+02   1.1965364719e+01    0.1104183   0.08386264  33.00  0.000200043    1.004    0.004
        66  -7.6075     32.6741     20.3131   9.2907431059e+01   7.0301609289e+01    0.1194322    0.1028396 -86.87  0.000505581    1.664    0.399
        67 -10.2717    125.3957    229.7562   1.0896789033e+02   1.5034452079e+01     0.239257    0.1497987  63.01  0.001504492    2.094    0.522
        68 -10.6997    133.1116    243.9953   1.0903251721e+02   1.2185181343e+01    0.3735532    0.1068805  40.68  0.001844912    2.532    0.605
