#   1 NUMBER                 Running object number                                     
#   2 MAG_AUTO               Kron-like elliptical aperture magnitude                    [mag]
#   3 X_IMAGE                Object position along x                                    [pixel]
#   4 Y_IMAGE                Object position along y                                    [pixel]
#   5 X_WORLD                Barycenter position along world x axis                     [deg]
#   6 Y_WORLD                Barycenter position along world y axis                     [deg]
#   7 A_WORLD                Profile RMS along major axis (world units)                 [deg]
#   8 B_WORLD                Profile RMS along minor axis (world units)                 [deg]
#   9 THETA_WORLD            Position angle (CCW/world-x)                               [deg]
#  10 FWHM_WORLD             FWHM assuming a gaussian core                              [deg]
#  11 ELONGATION             A_IMAGE/B_IMAGE                                           
#  12 ELLIPTICITY            1 - B_IMAGE/A_IMAGE                                       
         1 -14.2475    106.5257    105.9643   7.2809054632e+01   4.0274314593e+01     2.421738     1.191695 -33.91  0.008476629    2.580    0.612
         2 -13.4582     65.2642     52.5614   6.9782042825e+01   5.9217603549e+01     1.353746    0.7120605 -28.66  0.005796149    2.200    0.545
         3 -14.4016    166.3609     29.0734   3.6832662030e+01   3.9569200273e+01     1.021081    0.7949587  81.42  0.004283504    1.183    0.155
         4 -14.5960    147.2206     29.2306   3.9636627153e+01   4.4154779176e+01     1.369176    0.8985591  57.91  0.007233051    1.417    0.294
         5 -13.1095    132.1677     32.9709   4.3411787463e+01   4.7368781698e+01     0.563122    0.5094619   9.85  0.001894512    1.272    0.214
         6 -14.0059    122.0995     36.6359   4.6665130136e+01   4.9343934618e+01    0.9877294    0.5500085  40.41  0.004446526    1.956    0.489
         7 -13.2108      8.0554      2.7993   7.5865682718e+01   7.5302653080e+01    0.6451008    0.4321009  40.20   0.00300573    2.065    0.516
         8 -13.6388      2.8280     10.2465   8.3808352303e+01   7.4700756601e+01    0.7937868    0.4724807 -46.75  0.004869212    1.741    0.425
         9 -15.9749     12.8296     21.3444   8.2607881543e+01   7.1960138784e+01     1.960529     1.067267 -24.67   0.00909393    1.756    0.431
        10 -14.1347     25.2873     13.9170   7.1261345288e+01   7.1648702776e+01    0.7325191    0.3486533  31.14  0.003810048    1.955    0.488
        11 -13.5138    188.7011     25.8396   3.3362280297e+01   3.4749274316e+01     1.147203    0.4020862 -56.79  0.004206055    3.595    0.722
        12 -12.7835    120.7140     25.4328   4.3107482963e+01   5.1017397927e+01     0.632385     0.416669  31.79   0.00319513    1.781    0.439
        13 -15.1310     98.9501     11.5920   4.2600168368e+01   5.7583429484e+01     1.404811    0.7575652  62.57   0.00532547    1.638    0.390
        14 -12.4111     69.9322     16.0658   5.2470149419e+01   6.3577358405e+01     0.374328    0.3135947  77.12  0.001987797    1.549    0.355
        15 -12.9313    222.8501     10.1473   2.6923392328e+01   2.9126377457e+01    0.2691529    0.2507479 -67.16  0.002051026    1.282    0.220
        16 -13.3456    215.0191     10.2279   2.7475320666e+01   3.0725771171e+01    0.4600793    0.2901545 -56.13  0.001890586    1.325    0.245
        17 -13.5581    187.7071     12.0326   3.0065634253e+01   3.6467602225e+01    0.9397705    0.4326448 -37.15   0.00478646    2.043    0.511
        18 -11.8017     59.0179     16.2323   5.6456429073e+01   6.5746227967e+01    0.3301904    0.2733831  41.91  0.002085928    1.180    0.152
        19 -11.7664     46.4888     13.0129   6.0006326221e+01   6.8437315289e+01    0.2564704    0.2353005   6.45  0.001757113    1.213    0.175
        20 -13.9796     41.6120      4.4310   5.7562703468e+01   7.0241400781e+01    0.7206228    0.5187478  26.25   0.00459569    1.156    0.135
        21 -12.6239     85.2752     14.3227   4.7078960394e+01   6.0448464057e+01    0.3858092    0.3352573 -10.75  0.001706059    1.257    0.204
        22 -11.6618    152.7695      9.0005   3.2888109535e+01   4.4913035677e+01    0.2540806    0.1644442  63.05  0.001424279    1.392    0.282
        23 -10.9745    133.2104      8.7916   3.5408478973e+01   4.9644440621e+01    0.1869012    0.1549793  86.92 0.0003876237    1.121    0.108
        24 -10.5111    145.1405      8.3617   3.3644606006e+01   4.6802636498e+01    0.1749613    0.1072695  84.63 0.0001892661    1.558    0.358
        25 -10.6657     59.2171      7.5945   5.2119879612e+01   6.6618485627e+01     0.182841   0.09527505  42.06  0.000488588    1.621    0.383
        26 -13.4008    218.6889     15.8717   2.8423784898e+01   2.9365268049e+01    0.3077549    0.2697438 -88.76  0.001723185    1.201    0.167
        27 -11.2065    117.2386      1.5912   3.5434251159e+01   5.4081876784e+01    0.2333017    0.1394663  71.62 0.0008858624    1.462    0.316
        28 -11.6319     61.2376      1.6598   4.8438441422e+01   6.6745327259e+01    0.3629908    0.1399132  57.53  0.001571873    2.374    0.579
        29 -11.8620    120.0158      3.7611   3.5744645741e+01   5.3247249171e+01    0.3993859    0.1802636  82.70  0.001671851    2.614    0.617
        30 -13.3002     55.2952     27.2932   6.3208821370e+01   6.5037049303e+01    0.6766282    0.3682904  41.89   0.00322402    1.710    0.415
        31 -11.4463     81.6872      1.4476   4.2455380598e+01   6.2373686871e+01    0.4229235    0.1027783  61.71  0.001507808    3.382    0.704
        32 -12.0498     63.7659     25.1057   5.8818312788e+01   6.3746888235e+01    0.5215941    0.3408912  -3.86  0.002705682    1.809    0.447
        33 -12.1042     77.0549    156.8948   9.3218408432e+01   3.2850689069e+01    0.4829877    0.3175997  25.11  0.001600186    1.652    0.395
        34 -12.8785    107.5967    246.7144   9.8088842491e+01   8.4217161580e+00    0.7127714    0.5370357  83.51  0.004273597    1.777    0.437
        35 -13.3424     98.3139    239.0914   9.9260539310e+01   1.1102857375e+01     0.829925    0.4808519  31.56   0.00441568    1.505    0.336
        36 -13.9844     91.4713    231.6625   9.9958437607e+01   1.3488490058e+01    0.6725096    0.6233812 -36.04  0.004423988    1.259    0.205
        37 -11.9326     51.4231    248.7832   1.1027995031e+02   1.5169874000e+01    0.3195734    0.2740217 -85.88  0.002269613    1.270    0.213
        38 -12.3935     58.1290    246.6431   1.0871194438e+02   1.4795646535e+01    0.4801407    0.1614157  28.13  0.001987722    2.971    0.663
        39 -12.5191      2.9469    249.2451   1.1997492069e+02   2.0101296087e+01    0.4207318    0.2614854  63.10   0.00247717    1.253    0.202
        40 -13.5175      9.4653    245.8036   1.1858171695e+02   2.0164831087e+01    0.7406291    0.3569187  56.42  0.003612903    1.651    0.394
        41 -13.4285     73.3077    153.7949   9.3787998993e+01   3.4194576280e+01    0.7950807    0.5812872  21.81  0.003462354    1.510    0.338
        42 -12.6714    209.2254    154.8271   6.0677313218e+01   9.7762389989e+00    0.5536453    0.3454501  31.93  0.002794673    1.796    0.443
        43 -11.6707     85.9933    153.0274   8.9891081090e+01   3.2457631300e+01    0.4806353    0.2137482 -44.46   0.00173531    2.464    0.594
        44 -12.3373     12.9168    150.2054   1.1147694403e+02   4.1844012091e+01    0.4627616    0.1877195  87.18  0.001734979    2.991    0.666
        45 -11.5774    103.3004    150.2103   8.4327276777e+01   3.0269074445e+01    0.3608205    0.2449897 -29.44  0.001555476    1.801    0.445
        46 -12.0852      7.9037    144.5951   1.1242400352e+02   4.3646052589e+01    0.4739335    0.2820324 -31.71  0.002363737    2.116    0.527
        47 -12.6549     60.2800    147.4575   9.6660912672e+01   3.7645015233e+01    0.4864188    0.3711855  16.58  0.002446957    1.492    0.330
        48 -12.3983     25.2522    159.1741   1.0880222056e+02   3.8506425578e+01    0.3950553    0.2511909 -10.37  0.001889074    2.293    0.564
        49 -12.6906     45.1425    134.9662   9.9397793991e+01   4.2779322169e+01    0.6051493    0.3277491 -49.03  0.002662336    1.785    0.440
        50 -12.8145    246.6063    135.1037   5.0656103532e+01   7.0669033954e+00    0.3505681    0.2608126  87.79  0.001961567    2.343    0.573
        51 -10.5875     10.7928    133.8674   1.1042785803e+02   4.6206107014e+01    0.1799653    0.1417257  69.47 0.0005176222    1.290    0.225
        52 -12.1706    136.3416    132.3322   7.1308212423e+01   2.8218249292e+01    0.5483186      0.23666  37.08  0.001910766    2.514    0.602
        53 -12.2533    222.9953    127.9937   5.2665835957e+01   1.2120990659e+01    0.2136054     0.158274 -64.90  0.001150411    1.719    0.418
        54 -13.5486     85.1363    114.3434   8.1747972672e+01   4.2313823606e+01     1.309068    0.9508252  30.77  0.005207866    1.435    0.303
        55 -13.5818    108.4314    124.3679   7.7017812705e+01   3.5608158494e+01    0.9981654    0.6384226  32.77  0.004273789    1.653    0.395
        56 -13.5245    111.3132    117.2164   7.4378601063e+01   3.6728703238e+01     0.915843    0.4590214  28.32  0.003185178    2.651    0.623
        57 -12.8108     28.3472    245.7429   1.1482505878e+02   1.8304571834e+01    0.4409662     0.285059  53.84  0.002851015    1.238    0.192
        58 -13.2169     95.5282    110.4995   7.7416907941e+01   4.1360748987e+01     1.007254    0.5748788 -53.86  0.004115251    1.791    0.442
        59 -12.1006    181.6376    121.0987   5.8347776268e+01   2.1237322568e+01     0.257053    0.2066862  62.09  0.001145351    1.439    0.305
        60 -12.0835      4.1865    119.8874   1.1102378947e+02   5.0223566283e+01    0.5158333     0.196068  14.14  0.002148212    3.139    0.681
        61 -11.5445     34.4812     86.8198   9.3662758209e+01   5.6205971526e+01    0.3629963    0.2434918 -12.80  0.001481239    1.729    0.422
        62 -12.4282     36.6922     93.1773   9.4272342947e+01   5.4424224960e+01    0.4902582    0.2903938   9.70  0.001775263    2.023    0.506
        63 -14.3252     18.0747    111.0930   1.0492727509e+02   5.1567239534e+01    0.8771348     0.689961 -37.24   0.00345818    1.278    0.218
        64 -14.2025     11.2497    103.4511   1.0628422560e+02   5.3991486067e+01    0.7994888     0.708922  25.78  0.004819358    1.298    0.230
        65 -13.5857      2.3335     97.1067   1.0876058449e+02   5.6096325817e+01    0.8332196    0.3196039 -76.38  0.003255694    2.465    0.594
        66 -14.7258     22.9768     94.9610   1.0019349150e+02   5.5274330581e+01     1.315397     1.041469  17.26  0.006603359    1.400    0.286
        67 -13.0605     29.5588     89.4012   9.6319083547e+01   5.6066928663e+01     1.007455    0.5503228  66.32  0.003749107    3.597    0.722
        68 -11.8674     63.1180    111.2091   8.8502307357e+01   4.6603836114e+01     0.446448    0.2686036  55.07  0.001850163    2.177    0.541
        69 -11.1344     41.9937    107.4406   9.5366525913e+01   5.0273460625e+01    0.2102523     0.142541  23.28  0.001029584    1.602    0.376
        70 -12.0992    121.4408    112.3995   7.0244789055e+01   3.5766075439e+01    0.3360897    0.2793797  79.61   0.00118062    1.487    0.328
        71 -13.4258    121.1589    101.9824   6.7490322079e+01   3.8114307368e+01    0.5715069     0.353496  35.00   0.00239478    1.763    0.433
        72 -12.6722    136.1067    103.1920   6.3886072437e+01   3.4610730143e+01    0.6973332    0.3218297  49.88  0.001716695    2.264    0.558
        73 -12.4949     49.6251     98.9059   9.0546553249e+01   5.1503528242e+01    0.8111058    0.4747494  13.84  0.003537234    2.090    0.522
        74 -12.3511     49.5074     93.8081   8.9328422900e+01   5.2766912823e+01    0.3768643    0.3109184  74.39   0.00145666    1.536    0.349
        75 -12.2276    163.6479     98.2797   5.6266817063e+01   2.9463640106e+01    0.3341079    0.2651409 -57.74 0.0007037048    1.310    0.236
        76 -11.9263     61.0471     97.9884   8.5991753812e+01   5.0169366423e+01    0.3972344     0.301319  70.07  0.001894035    1.786    0.440
        77 -13.0018    136.1971     94.9734   6.1584582306e+01   3.6271365295e+01    0.4376999    0.3525953  37.17  0.001450732    1.298    0.229
        78 -11.7592     42.6178     90.7756   9.1302683394e+01   5.4348734420e+01    0.3259611    0.2397005 -66.75 0.0006432084    1.423    0.297
        79 -11.0686     90.3082     87.5917   7.2633730355e+01   4.7569296573e+01    0.3944755    0.1807589  53.67  0.001315238    3.084    0.676
        80 -13.1976    188.1087     84.4910   4.8196160910e+01   2.6517542733e+01    0.6326976     0.311618  43.34  0.002344588    2.499    0.600
        81 -12.4738    237.3686     80.5736   4.0542938527e+01   1.7184306834e+01    0.2852109    0.1791124  80.17  0.001548736    2.062    0.515
        82 -14.1075    164.0736     71.7019   4.9021792144e+01   3.4096203907e+01     1.322062    0.9707104  70.92    0.0066777    1.446    0.308
        83 -13.7449    160.7713     81.0776   5.2230911662e+01   3.3264876741e+01     1.051801    0.6247212  23.96  0.003832422    3.195    0.687
        84 -14.4820    169.3563     77.0763   4.9515121417e+01   3.1976295893e+01     1.419597    0.4610959  54.39  0.004884139    3.063    0.674
        85 -14.0241    170.8456    242.8127   8.4206914700e+01   3.9331528397e-01    0.8479017     0.555443  19.52   0.00500907    1.327    0.246
        86 -13.2853     91.7067     58.0677   6.2385444351e+01   5.3076506042e+01    0.5147159    0.4983358 -27.94  0.001831165    1.101    0.092
        87 -13.2790     87.2317     65.3630   6.6432935600e+01   5.2685214399e+01     1.032934    0.6177925  13.54  0.003868939    2.891    0.654
        88 -13.5179     53.9178     68.5750   8.0183343660e+01   5.7926196003e+01     1.715382    0.7263584  32.78  0.006880759    2.408    0.585
        89 -13.0085     54.6644     82.2162   8.4116451107e+01   5.4808031810e+01    0.5746474    0.3945125 -45.72  0.001975646    1.358    0.263
        90 -14.0316     61.1052     75.8515   7.9602271807e+01   5.5268576027e+01    0.7022945    0.4840835 -30.81  0.001391754    1.482    0.325
        91 -12.9937     71.1489     75.1914   7.5504757859e+01   5.3751562274e+01    0.6890402    0.3959444  16.00  0.002697725    2.541    0.606
        92 -12.0651     77.1582     73.3108   7.2666238942e+01   5.3069420975e+01    0.5334579    0.3003269 -28.29  0.001644616    2.194    0.544
        93 -11.9425     47.4255     81.8977   8.6976203482e+01   5.5863532083e+01    0.3358653    0.2626163 -58.98   0.00153175    1.313    0.238
        94 -14.0206    210.9117     77.7412   4.3180046218e+01   2.2772078374e+01    0.9098564    0.4217156  70.85  0.003747631    2.961    0.662
        95 -11.7862    114.0881     80.2272   6.3057366187e+01   4.4132894151e+01    0.3850137    0.3324647 -60.76  0.001234105    1.273    0.214
        96 -10.3151     69.3190     80.3032   7.7820932563e+01   5.2963897458e+01    0.1518368    0.1110771 -11.79  0.000533671    1.627    0.385
        97 -11.7674     42.0006     77.4129   8.7983354475e+01   5.7576942127e+01    0.5052391    0.2032206 -60.94  0.001863948    2.811    0.644
        98 -14.9145      6.3925     71.2092   1.0245695757e+02   6.2174919305e+01     1.036716    0.7251298 -49.75  0.004231168    1.170    0.146
        99 -14.0950      4.7822     63.5605   1.0151684315e+02   6.4031953218e+01    0.7182831    0.5642964  -6.61  0.004047279    1.322    0.243
       100 -11.3423     27.0195     75.9135   9.4141090888e+01   5.9532540416e+01    0.3523603    0.2210947  70.72  0.001521782    2.861    0.651
       101 -12.7628    135.5314     79.7876   5.7357177582e+01   3.9352003394e+01    0.7055198    0.3700493  53.20  0.002387593    1.920    0.479
       102 -13.6733    199.1788     70.0111   4.2948943616e+01   2.6443707358e+01    0.7086552    0.4364091  49.53  0.002673743    1.848    0.459
       103 -12.8820     28.5642    122.1684   1.0292549876e+02   4.7830525605e+01     0.389009    0.3274235 -49.43  0.002232987    1.131    0.116
       104 -12.7173    134.6349     66.1329   5.3439824704e+01   4.1968697799e+01     0.597911    0.4394746  39.20  0.001973353    1.448    0.309
       105 -12.3494     31.5845     62.8928   8.8319772016e+01   6.2010596127e+01    0.5703275    0.3231129 -64.94   0.00263237    2.165    0.538
       106 -10.7019    100.0161     65.5205   6.2394257111e+01   4.9980266686e+01    0.2268636    0.1418739  47.15 0.0006216011    1.560    0.359
       107 -12.0998    200.1716     62.0211   4.0880115436e+01   2.7430968839e+01    0.3152567    0.2189051 -30.79  0.001371555    1.512    0.339
       108 -13.5817    177.7613     57.6485   4.2930613297e+01   3.3105050590e+01    0.8144249    0.5371098 -50.84  0.002796946    1.466    0.318
       109 -12.9718     78.5135     59.6533   6.7433126726e+01   5.5468298988e+01    0.6564887     0.566097 -44.95  0.003640352    1.258    0.205
       110 -12.8255     82.4203     54.5572   6.4187926841e+01   5.5601621035e+01    0.4882926    0.4113542 -14.68  0.001470606    1.212    0.175
       111 -12.1961     24.8599     59.3092   9.0442016877e+01   6.3472485975e+01    0.4614991    0.2583532 -46.46  0.001778636    1.541    0.351
       112 -10.9873     38.7778     59.9600   8.3987968489e+01   6.1800182885e+01      0.20871    0.1641767 -87.19  0.001085364    2.004    0.501
       113 -14.5796    120.1582     54.5731   5.3163559708e+01   4.7257817828e+01    0.9604479    0.6065551  41.34  0.003020253    1.623    0.384
       114 -11.3726     17.7801     55.5167   9.2821739652e+01   6.4925296863e+01    0.3451295    0.1683587 -59.99  0.001628633    2.023    0.506
       115 -12.3432     99.7683     44.5377   5.5015348615e+01   5.3480950286e+01    0.3617836    0.2732382  63.48 0.0009377901    1.416    0.294
       116 -13.6061    102.9436     50.5599   5.6305870228e+01   5.1854223871e+01    0.6857018    0.5310125 -83.88  0.001123321    1.798    0.444
       117 -12.9393     97.8058     50.5896   5.7801573382e+01   5.2996374262e+01    0.3925216    0.3496926 -82.70  0.001326542    1.366    0.268
       118 -11.9151     36.1007     53.5881   8.3037010292e+01   6.3436980223e+01    0.4873875    0.2481472 -13.71  0.001812643    3.419    0.707
       119 -12.1758    135.5836     50.0925   4.8225622119e+01   4.4255158733e+01    0.5101476    0.2864441  37.77  0.001947119    2.175    0.540
       120 -10.7548     22.6674     50.6228   8.8722402084e+01   6.5515403655e+01     0.311414    0.1229327  13.96  0.001218947    3.221    0.690
       121 -10.6636    249.5040     48.5604   3.2766221002e+01   1.9433069022e+01    0.1186054   0.09207805 -56.87  0.000152337    1.010    0.010
       122 -13.2540    157.7405     44.1709   4.2357150470e+01   3.9736917328e+01    0.8174345    0.4277207  45.45  0.003585767    2.169    0.539
       123 -13.3363    204.9851     40.2984   3.5131013662e+01   2.9376804214e+01     1.160472    0.4872055 -86.96  0.003841516    4.832    0.793
       124 -12.7047    212.0431     44.1362   3.5280537717e+01   2.7370754782e+01    0.4213624    0.3343865  56.43  0.002078288    1.470    0.320
       125 -13.6076    219.5614     41.7797   3.4000932082e+01   2.6109915811e+01    0.5481133    0.3546213 -87.37  0.002028319    1.594    0.373
       126 -13.0364      3.7433     43.4142   9.6662548094e+01   6.8487974327e+01    0.5024574    0.3333641 -16.15  0.003030385    1.414    0.293
       127 -12.4973     11.7385     43.6812   9.2242418945e+01   6.7885400392e+01    0.4131733    0.2359959  -7.33  0.001972024    1.877    0.467
       128 -12.6760     24.7715    217.2174   1.1382754822e+02   2.4612553594e+01    0.6335389    0.2962959  49.95  0.003242372    1.837    0.456
       129 -12.3187    109.5148     42.1577   5.1538627468e+01   5.1587105580e+01    0.4767525    0.1935249  55.26  0.001322463    2.278    0.561
       130 -12.3238     14.0163    222.1649   1.1648855714e+02   2.4581940628e+01    0.4218486    0.3204526  81.78  0.001755758    1.157    0.135
       131 -13.1144    138.1077     21.9511   3.8840889353e+01   4.7178094933e+01    0.7685347    0.2953016  66.83  0.002140464    2.362    0.577
       132 -13.8810     25.9032    226.9927   1.1421146749e+02   2.2386812232e+01    0.8241384    0.3636037 -54.26  0.003959308    2.794    0.642
       133 -13.5118     20.3740    224.2469   1.1523811619e+02   2.3525217966e+01    0.5202038    0.4593349 -64.89  0.002605805    1.357    0.263
       134 -12.8745    113.7748     38.1332   4.9064857711e+01   5.1133561874e+01    0.3924707    0.3336527  56.34  0.002172104    1.091    0.083
       135 -12.4841     75.7365     37.2807   5.9741125579e+01   5.9701136696e+01    0.4273197    0.2333153  46.34  0.001110406    1.708    0.415
       136 -11.6295     70.7376     36.5734   6.1237229297e+01   6.0802995659e+01    0.2738604    0.2493435  48.52 0.0009016577    1.228    0.186
       137 -12.6168    241.9575     36.2245   3.0897466114e+01   2.2391722939e+01    0.4703937    0.2444644  76.01  0.002179623    2.050    0.512
       138 -11.0806     35.0042     34.9919   7.6214560449e+01   6.7050505632e+01     0.235585    0.1731306   7.00 0.0007256143    1.282    0.220
       139 -12.8270     45.0673     33.5935   7.0647951079e+01   6.5814603693e+01    0.7408548    0.4560824  38.77  0.003946017    1.632    0.387
       140 -13.6400     64.8227    223.3259   1.0518557769e+02   1.8726823783e+01     1.019966    0.6540924  44.86  0.005667203    1.357    0.263
       141 -12.8149     59.4897    212.9955   1.0541623720e+02   2.1651450940e+01    0.3964253    0.2114937 -52.84  0.001224554    2.100    0.524
       142 -14.0203     64.1357    214.6237   1.0447333851e+02   2.0706299231e+01     0.719266    0.4393931  43.69  0.003799657    1.450    0.310
       143 -12.5511     94.3294    218.4475   9.7729224109e+01   1.5804264395e+01    0.2950047    0.2104794  38.20  0.001426741    1.247    0.198
       144 -11.7216    194.5273     23.5487   3.2214968802e+01   3.3700907323e+01    0.2848101    0.2153744  53.15  0.001726251    1.541    0.351
       145 -12.5756    147.5291    238.9528   8.8498279738e+01   4.2387753637e+00    0.2544536    0.1926931 -55.37  0.001312631    1.672    0.402
       146 -11.6372    156.7627    214.2619   8.2747623865e+01   7.2802752646e+00    0.2125327    0.0984233 -36.70 0.0008981833    2.419    0.587
       147 -11.4602     30.7202     25.7520   7.4246524181e+01   6.9150135735e+01    0.3657457    0.1733457  19.56  0.001638703    2.519    0.603
       148 -11.0265     36.1118     23.7388   7.0435659673e+01   6.8697782732e+01    0.2708615    0.1792832 -32.09   0.00156783    1.483    0.326
       149 -11.9990     46.7374     20.7425   6.3816906742e+01   6.7426940601e+01    0.3559485     0.259975  11.10  0.002117638    1.294    0.227
       150 -11.0814     51.9034     20.5335   6.1436701979e+01   6.6550694019e+01    0.2632941    0.1599646  37.87 0.0009302075    1.474    0.321
       151 -12.0653    223.4060     20.9654   2.9158773566e+01   2.7835666069e+01    0.2212425    0.1616554  74.17  0.001259548    1.406    0.289
       152 -13.2401    216.7823     28.6538   3.1354233581e+01   2.8307710408e+01    0.3225173    0.1918034 -43.45  0.001596583    1.468    0.319
       153 -12.1658      4.0855    211.9211   1.1809787678e+02   2.7702091752e+01     0.464688    0.1962188 -83.62  0.002313845    2.174    0.540
       154 -10.7789    136.5220    211.4783   8.6845327130e+01   1.0925682542e+01    0.1378006    0.1237958  18.99 0.0002149965    1.002    0.002
       155 -11.7412     72.6824    207.4456   1.0161859969e+02   2.1199082358e+01    0.2531189     0.220872  77.01  0.001520701    1.134    0.118
       156 -12.1244     41.1306    206.8467   1.0923617797e+02   2.5210810391e+01     0.215706    0.1541261  62.88  0.001239881    1.284    0.221
       157 -12.4446     57.5433    203.4856   1.0491138768e+02   2.4054516482e+01    0.5191075    0.2778173  88.67    0.0022926    2.367    0.578
       158 -13.7238     15.3939    197.4134   1.1466252564e+02   3.0002125622e+01    0.8058628    0.4304307 -67.15  0.004266094    1.782    0.439
       159 -13.1882     22.5304    166.8598   1.1035129857e+02   3.6798372392e+01    0.4641427    0.3325644   1.00  0.000363966    1.841    0.457
       160 -14.7940     29.9564    169.2588   1.0853575781e+02   3.5490650741e+01     2.271963      1.34562 -44.17   0.01102367    1.966    0.491
       161 -14.2006     22.1916    181.2078   1.1174098237e+02   3.3256926039e+01      1.08791    0.4244588 -56.47  0.004634438    2.539    0.606
       162 -15.4419      8.4116    183.5946   1.1542404361e+02   3.3877880093e+01     1.454249     1.063269 -83.36  0.008902675    1.202    0.168
       163 -15.3827     15.9553    175.5189   1.1289298162e+02   3.5214846691e+01      2.55256     1.065401  64.15    0.0104116    2.769    0.639
       164 -13.7035     40.2557    195.2563   1.0839658150e+02   2.8015841061e+01    0.7649381    0.3127508  54.05  0.003126653    2.587    0.614
       165 -12.4669    164.7990    196.6235   7.7945223626e+01   9.3451624809e+00    0.4213468    0.2896157  85.14  0.001603972    3.911    0.744
       166 -11.1145     79.7497    192.8721   9.8005604797e+01   2.3592096812e+01    0.3943194    0.1157185  40.20  0.001346058    2.999    0.667
       167 -12.5426     97.9590    187.8449   9.2550847211e+01   2.2072306519e+01    0.3162365    0.2466397   9.34  0.001609374    1.492    0.330
       168 -12.0027    200.7514    191.9662   6.9647337072e+01   4.5615785955e+00    0.2990573    0.2188362 -25.09  0.001210864    1.234    0.190
       169 -12.0712     48.9186    182.1073   1.0477827778e+02   3.0218661733e+01    0.3713728    0.2525046 -57.00  0.001935409    1.493    0.330
       170 -12.5392    198.4105    181.4529   6.8092552383e+01   6.7686307813e+00    0.3033126    0.2894144 -27.22  0.001911523    1.250    0.200
       171 -12.7548    124.0786    166.8862   8.2041597559e+01   2.2614367925e+01    0.6426214    0.4313599 -74.66  0.002721472    2.130    0.530
