#   1 NUMBER                 Running object number                                     
#   2 MAG_AUTO               Kron-like elliptical aperture magnitude                    [mag]
#   3 X_IMAGE                Object position along x                                    [pixel]
#   4 Y_IMAGE                Object position along y                                    [pixel]
#   5 X_WORLD                Barycenter position along world x axis                     [deg]
#   6 Y_WORLD                Barycenter position along world y axis                     [deg]
#   7 A_WORLD                Profile RMS along major axis (world units)                 [deg]
#   8 B_WORLD                Profile RMS along minor axis (world units)                 [deg]
#   9 THETA_WORLD            Position angle (CCW/world-x)                               [deg]
#  10 FWHM_WORLD             FWHM assuming a gaussian core                              [deg]
#  11 ELONGATION             A_IMAGE/B_IMAGE                                           
#  12 ELLIPTICITY            1 - B_IMAGE/A_IMAGE                                       
         1 -13.9994    205.3873     19.5656   5.6963475402e+01   3.0991179835e+01     2.710804     1.449644  22.87   0.01062362    2.884    0.653
         2 -13.0471    211.1292     13.6763   5.4658272829e+01   3.0145237461e+01    0.7688592    0.5131535  15.89  0.001450892    1.931    0.482
         3 -10.9102      2.1586      3.7933   1.1721544336e+02   7.4567454701e+01    0.4615418   0.09352305 -58.75  0.001747006    3.828    0.739
         4 -10.8751    177.3961    249.7207   1.1342509322e+02   3.3256370117e+00    0.3175357   0.07335123  35.08  0.001218596    3.682    0.728
         5 -11.0074    249.3260    245.1770   1.0068984297e+02  -6.0444046335e+00    0.3104476    0.1305854 -11.50  0.001596821    3.212    0.689
         6 -13.0931    124.7392    248.4931   1.2262662473e+02   1.0846299522e+01    0.6903758    0.3262407  39.33  0.004162918    1.550    0.355
         7 -13.9195     92.8292    249.1806   1.2832015121e+02   1.4925729124e+01     1.496397    0.4169433  47.64  0.007210063    2.769    0.639
         8 -13.1540    106.4779    244.2158   1.2550072457e+02   1.3886214549e+01     0.713031    0.4400481  60.14  0.003574601    1.620    0.383
         9 -11.4912     75.1189    249.1820   1.3138593851e+02   1.7080338933e+01    0.2248476     0.178258  33.05  0.001814711    1.397    0.284
        10 -15.0547     35.3442    247.0517   1.3793188888e+02   2.1739351899e+01     8.109733     2.841363  25.23   0.03158968    6.669    0.850
        11 -13.6867     15.7379    241.7760   1.4089373608e+02   2.4415918619e+01     1.182011    0.6040159  59.08  0.007212882    1.389    0.280
        12 -15.8800      8.9644    208.2288   1.4085280403e+02   3.0566935552e+01     7.847269     1.381463 -79.37   0.02162663    5.091    0.804
        13 -11.9649    148.9768    228.8879   1.1606111457e+02   1.0089435719e+01    0.5020625    0.1308733  38.87  0.002046513    2.935    0.659
        14 -11.0962     25.6049    203.0852   1.3757329011e+02   3.0023098148e+01    0.2138695    0.1030825  51.58  0.001360918    1.622    0.384
        15  -9.9437    226.3461    201.6548   9.7625755966e+01   1.6174454712e+00    0.1968239    0.1952093 -15.98  0.000941575    1.706    0.414
        16  -9.9737    191.7807    192.6534   1.0247605296e+02   8.3813525310e+00    0.3466359    0.2089102 -64.00  0.001255594    5.531    0.819
        17 -11.5308     63.8184    192.0316   1.2917865311e+02   2.8064950191e+01    0.3017082    0.2355923 -34.04  0.001439291    1.896    0.473
        18 -11.7043     69.2031    185.1006   1.2738200253e+02   2.8752677006e+01    0.2632939    0.2238243 -39.33  0.000506983    1.563    0.360
        19 -12.2565     95.0205    241.7031   1.2734407856e+02   1.5739510942e+01    0.5118767    0.2804336 -89.48  0.002648679    2.783    0.641
        20  -8.6055    181.5292    192.4784   1.0445795813e+02   1.0137776216e+01    0.1312271    0.1073616  25.21 0.0002086933    1.012    0.012
        21 -10.9482     78.7736    173.4397   1.2399003483e+02   2.9855728379e+01    0.2108327     0.198097  83.77  0.000292359    1.121    0.108
        22 -13.2052     65.9657    170.6540   1.2662361717e+02   3.2048172206e+01    0.4382225    0.2517071 -46.11  0.001482436    2.246    0.555
        23 -12.1035     85.8576    165.0547   1.2128695952e+02   3.0615031096e+01    0.7263014    0.4505537  54.82  0.002166456    1.590    0.371
        24 -12.9187     37.5606    224.4975   1.3648920964e+02   2.5119383304e+01    0.3639626    0.3205894  36.78 0.0007532705    1.432    0.302
        25 -12.9344     67.6797    144.4642   1.2303339724e+02   3.7451094715e+01    0.9038659    0.5424387  82.56  0.002883132    2.082    0.520
        26 -12.4192     58.7313    133.9580   1.2396157391e+02   4.0890552806e+01     1.327146    0.4842142 -81.45  0.003613367    6.560    0.848
        27 -14.9607     45.0277    215.0585   1.3460107204e+02   2.5961228940e+01      1.73439     1.365468  47.58   0.01360905    1.194    0.163
        28 -10.2183     39.3013    147.0308   1.3056729375e+02   4.0014688238e+01     0.171123    0.1388764 -88.57 0.0003942141    1.076    0.070
        29  -9.3340    101.9660    145.0766   1.1425676238e+02   3.2442489999e+01    0.2214693    0.1675617 -17.17  0.001128955    1.827    0.453
        30  -9.8735     98.9089    149.3552   1.1575615508e+02   3.2006194240e+01    0.2450016     0.196441 -51.97  0.000722374    1.314    0.239
        31 -10.4259     66.1586    224.8861   1.3132250784e+02   2.1934068145e+01    0.1695452     0.113482  59.90 0.0004515975    1.227    0.185
        32  -9.5537    110.0233    135.3272   1.1037262479e+02   3.3215712799e+01    0.2627446    0.1927753 -23.76  0.001204107    1.766    0.434
        33 -10.5234     97.4095    132.3679   1.1316629122e+02   3.5938371085e+01    0.2579237    0.2220677 -21.28 0.0008333264    1.362    0.266
        34  -9.0769    107.0645    122.5315   1.0855888895e+02   3.6513255461e+01    0.1988765    0.1393394  37.05 0.0002983402    1.422    0.297
        35 -11.9812     87.4602    148.3390   1.1850307970e+02   3.3936477195e+01    0.2622181    0.2279658 -46.99  0.000590926    1.262    0.208
        36 -10.7925    167.9802    112.9755   9.0750571353e+01   2.6248602402e+01    0.3450187    0.2935285 -82.36 0.0008857501    1.615    0.381
        37 -10.9385     74.1127    214.7200   1.2903635201e+02   2.2699963964e+01    0.4409361    0.1363508  50.05  0.001995913    2.833    0.647
        38 -11.1096      2.0120     80.4443   1.3431595961e+02   5.7841869900e+01    0.3111704    0.1139301 -69.21  0.001082627    2.002    0.500
        39 -13.7324      5.7810    246.1217   1.4258663438e+02   2.4625173252e+01      1.29906    0.8654387 -86.90   0.01145145    1.519    0.342
        40 -12.5930    140.7683    249.3922   1.1986279897e+02   8.5236717051e+00    0.4903807    0.2955889  41.48  0.003311422    1.230    0.187
        41 -10.8438    229.5217    249.1656   1.0447198464e+02  -3.8206921399e+00    0.2064034    0.1138774  31.49 0.0007073955    1.322    0.244
        42  -9.8405    189.5193     15.5057   5.7659815698e+01   3.5484700869e+01    0.1398865    0.1353554  76.16 0.0001025746    1.001    0.001
