#   1 NUMBER                 Running object number                                     
#   2 MAG_AUTO               Kron-like elliptical aperture magnitude                    [mag]
#   3 X_IMAGE                Object position along x                                    [pixel]
#   4 Y_IMAGE                Object position along y                                    [pixel]
#   5 X_WORLD                Barycenter position along world x axis                     [deg]
#   6 Y_WORLD                Barycenter position along world y axis                     [deg]
#   7 A_WORLD                Profile RMS along major axis (world units)                 [deg]
#   8 B_WORLD                Profile RMS along minor axis (world units)                 [deg]
#   9 THETA_WORLD            Position angle (CCW/world-x)                               [deg]
#  10 FWHM_WORLD             FWHM assuming a gaussian core                              [deg]
#  11 ELONGATION             A_IMAGE/B_IMAGE                                           
#  12 ELLIPTICITY            1 - B_IMAGE/A_IMAGE                                       
         1 -11.6859    219.1178     38.6836   3.4856319949e+01   2.6850678560e+01    0.8669307    0.5440028 -72.33  0.004226459    1.495    0.331
         2 -11.6218    241.1784     20.0349   2.9322522860e+01   2.4759014216e+01    0.6318214    0.4459218 -64.95  0.002594774    1.083    0.077
         3 -10.3307      2.4885      4.7201   8.0998153699e+01   7.4136004261e+01    0.3595682    0.2003721 -45.24  0.002233359    2.126    0.530
         4 -12.4543     10.1377    206.8717   1.1780691451e+02   2.8379807424e+01     1.064128    0.8497061 -40.01  0.006661232    1.679    0.404
         5 -12.8923     95.7612    230.2866   1.0039324835e+02   1.2495489030e+01     3.756595    0.9369266  32.13   0.01180383    3.956    0.747
         6 -11.6992     57.3606    210.1023   1.0708520798e+02   2.2400597164e+01     1.597149    0.5448163  57.69  0.004697858    4.944    0.798
         7 -10.1780     75.1010    220.6386   1.0404418009e+02   1.7580764101e+01    0.4261435    0.1806954  45.44   0.00179882    2.154    0.536
         8 -11.7584      8.9216    230.2462   1.1951259542e+02   2.3242336979e+01     1.124196    0.5286621  63.69   0.00576829    1.893    0.472
         9  -9.4938     82.5490    215.1107   1.0160517825e+02   1.7779919439e+01    0.2605721    0.2265845  88.15 0.0003605372    1.155    0.134
        10  -8.5348     41.9038    214.4460   1.1117147425e+02   2.3283632120e+01    0.3767276    0.1288109  36.09 0.0008500203    2.552    0.608
        11  -7.9224     74.4208    207.6883   1.0265022651e+02   2.0668749776e+01    0.1859279    0.1277579 -57.78 0.0006529674    1.507    0.337
        12 -13.3450     23.0319    246.2198   1.1761551193e+02   1.8425146499e+01     4.252932     1.174128  25.45   0.01435966    5.552    0.820
        13 -10.2130      2.7332    177.8653   1.1746420038e+02   3.5956957706e+01    0.4483337    0.1979383 -70.92  0.002162601    1.873    0.466
        14 -10.1259     52.2639    175.9609   1.0429016308e+02   3.1484347568e+01    0.4172255    0.2935418 -32.65  0.001451208    1.825    0.452
        15 -10.1967     58.5645    170.2811   1.0175701377e+02   3.2142092142e+01    0.3648227    0.2812474 -41.81 0.0009890971    1.438    0.305
        16  -9.9729      2.3490    169.7840   1.1692667392e+02   3.7978860012e+01    0.4341769    0.1673952 -80.68  0.001869424    2.286    0.563
        17  -8.3467     97.6730    169.3415   9.0694953158e+01   2.6521342144e+01    0.1619542    0.1165696  72.27 0.0007051298    1.737    0.424
        18  -8.6881     58.0477    224.2837   1.0839424120e+02   1.9043882698e+01    0.2299323    0.1868364  83.41 0.0008021352    1.164    0.141
        19  -9.3686      2.2682    162.0948   1.1630613048e+02   3.9898886546e+01    0.3299589    0.1346666 -83.58  0.001266823    2.259    0.557
        20  -9.7691     69.7534    161.2483   9.7152457877e+01   3.2950067895e+01    0.2978589    0.2838885 -33.99 0.0003959386    1.137    0.121
        21 -11.2904     77.7365    154.9180   9.3709198801e+01   3.3409115417e+01    0.7843506    0.6335983 -41.00    0.0022124    1.299    0.230
        22 -11.9711     68.2892    144.7061   9.4644234048e+01   3.7459788228e+01    0.9375448    0.6539223  77.91  0.003110593    1.840    0.456
        23 -12.6743     12.7977    159.7760   1.1324223721e+02   3.9688077717e+01     5.315641     1.548083 -88.86   0.01084695   10.318    0.903
        24 -13.4113     32.1298    191.2534   1.1131888070e+02   2.9950891272e+01     2.702625     1.766906  66.95   0.01439046    1.493    0.330
        25 -11.3758     21.0697    202.0233   1.1495137656e+02   2.8476395852e+01    0.4626477    0.3574724 -45.74 0.0008728917    1.604    0.376
        26  -9.0078     94.9819    140.6111   8.5729186015e+01   3.4246111629e+01    0.6128213    0.3633035 -17.60  0.002024079    3.381    0.704
        27 -10.5850     81.3929    139.8050   8.9651422218e+01   3.6730275798e+01     0.366258    0.2862432 -49.38 0.0004463381    1.236    0.191
        28 -11.6545     55.8602    157.3115   1.0056563506e+02   3.5861062446e+01    0.5666599    0.3489383 -34.47  0.001255137    2.060    0.515
        29  -9.1837    106.4021    130.7392   8.0125270430e+01   3.4613620243e+01    0.3976652    0.3135553  28.83  0.001238546    1.350    0.259
        30  -8.7045     74.0000    129.9644   8.9874209618e+01   4.0401991142e+01    0.2623046   0.08309629 -57.11 0.0008112264    3.004    0.667
        31  -9.1217     93.2784    126.6571   8.3079708373e+01   3.8026486999e+01      0.28354    0.2537574 -19.74 0.0005803206    1.193    0.162
        32  -8.1756    104.6783    119.0782   7.7782403417e+01   3.7744207639e+01    0.2174961    0.1894866 -43.23 0.0003372233    1.128    0.114
        33  -8.9215     54.1859    116.9897   9.3639236576e+01   4.6486330120e+01    0.2336528    0.1652251  84.25 0.0005152884    1.929    0.481
        34  -7.3499    205.3454    110.6842   5.2563151642e+01   1.8258416376e+01    0.1464727    0.1044832 -73.44 0.0007048071    1.718    0.418
        35  -9.6635      1.8990    104.2406   1.0987596435e+02   5.4368445591e+01    0.4365178   0.09527133 -67.50   0.00152082    3.336    0.700
        36  -8.3866     53.3049     92.6377   8.8139899607e+01   5.2471968700e+01    0.1405898    0.1124401  78.12 0.0007038158    1.733    0.423
        37  -8.0511     41.5077     92.0412   9.2488473756e+01   5.4064293848e+01    0.2105929    0.1256725 -54.72 0.0004785791    1.529    0.346
        38  -9.7712      2.1795     89.4226   1.0738787674e+02   5.7890760510e+01    0.3693241    0.1086274 -60.21  0.001533018    2.393    0.582
        39  -9.6918      2.1480     78.3322   1.0533681488e+02   6.0446589757e+01    0.3504338   0.09262288 -71.33  0.001103689    4.720    0.788
        40  -9.5397     13.0484     60.1954   9.6209848370e+01   6.3716259282e+01    0.2187489    0.1581999 -49.67 0.0007274839    1.231    0.188
        41  -9.0323      1.7508     51.1840   9.9161309679e+01   6.6277926591e+01    0.2850198   0.07933766 -57.99  0.001190135    2.868    0.651
        42 -11.9363    211.5269     43.8361   3.6738244962e+01   2.7760636669e+01    0.6403535     0.542329 -17.69  0.004049964    1.649    0.394
        43  -8.1407    171.7569    240.5050   8.5002729309e+01  -9.0303827183e-01    0.2460124    0.1103645 -59.14 0.0007741491    4.476    0.777
        44 -11.3301    225.9360     32.8298   3.3015328797e+01   2.6204401641e+01    0.5936285    0.3681579  56.88  0.001483411    1.914    0.477
        45  -7.8322     22.5439     49.5569   8.8415795809e+01   6.5022552190e+01    0.1234826    0.1048011 -19.39 -2.735581e-05    1.063    0.060
        46  -8.6963      1.6159     43.7625   9.7084634209e+01   6.7743139033e+01    0.1574183    0.1041765 -62.75 0.0009516481    1.671    0.401
        47  -7.9909      2.4776     37.5233   9.4647227219e+01   6.8864348620e+01    0.1195126   0.09105518 -26.85 0.0001306425    1.010    0.010
        48  -7.7763     22.4966     34.4646   8.2927014473e+01   6.7709026305e+01    0.1223568   0.09821732 -10.93 0.0008095828    1.013    0.013
        49  -8.8575    124.4357     32.2542   4.6698591409e+01   4.9261405600e+01    0.3271685    0.2123885 -81.00     0.001234    2.177    0.541
        50 -10.1420      1.9535     23.7860   8.9950584215e+01   7.1304458865e+01    0.3999791   0.09831466 -48.17  0.001732087    3.183    0.686
        51  -8.1893     45.6390    223.6468   1.1115081156e+02   2.0731662116e+01     0.277033     0.152341 -86.27  0.001372971    1.912    0.477
