#   1 NUMBER                 Running object number                                     
#   2 MAG_AUTO               Kron-like elliptical aperture magnitude                    [mag]
#   3 X_IMAGE                Object position along x                                    [pixel]
#   4 Y_IMAGE                Object position along y                                    [pixel]
#   5 X_WORLD                Barycenter position along world x axis                     [deg]
#   6 Y_WORLD                Barycenter position along world y axis                     [deg]
#   7 A_WORLD                Profile RMS along major axis (world units)                 [deg]
#   8 B_WORLD                Profile RMS along minor axis (world units)                 [deg]
#   9 THETA_WORLD            Position angle (CCW/world-x)                               [deg]
#  10 FWHM_WORLD             FWHM assuming a gaussian core                              [deg]
#  11 ELONGATION             A_IMAGE/B_IMAGE                                           
#  12 ELLIPTICITY            1 - B_IMAGE/A_IMAGE                                       
         1 -11.1435    207.1313     20.0148   5.0783107495e+01   3.0497023502e+01    0.4099905    0.2799159  26.47  0.001173382    1.895    0.472
         2 -11.3148    215.5723     12.7576   4.7781132567e+01   2.9127222817e+01    0.7274639    0.3992556 -33.42  0.003394431    1.761    0.432
         3 -11.3737    210.8835     11.9503   4.8067179292e+01   3.0419065237e+01    0.5992042    0.3685469 -34.32  0.002892414    1.596    0.373
         4 -10.4408     83.3947      6.6214   7.0106153697e+01   6.2110021860e+01     0.252479    0.1163802 -22.54   0.00115926    2.104    0.525
         5  -9.4747    168.8228    242.7762   1.0830850229e+02   3.2704152425e+00    0.1859447    0.1133106  16.04 0.0009548098    2.845    0.649
         6 -13.4267    246.0617    237.0253   9.4665600629e+01  -8.3043990015e+00     1.755516    0.7054946 -26.42  0.009330381    2.895    0.655
         7 -11.8472    107.0295    249.3879   1.1930905917e+02   1.1919405244e+01     0.961545    0.2885322  42.11  0.004536882    2.743    0.635
         8 -11.5395    110.7703    241.0875   1.1793086622e+02   1.2611688447e+01    0.6010544    0.3709179  57.75   0.00372955    1.291    0.225
         9  -9.7759     80.4601    249.7250   1.2358010143e+02   1.5572065257e+01    0.7983671    0.2134881  41.87  0.003738119    3.121    0.680
        10 -11.0030     75.5837    247.1973   1.2416202223e+02   1.6607997089e+01    0.2835874    0.2744395   6.05  0.002390434    1.843    0.457
        11 -10.6203     77.9703    243.4668   1.2350684795e+02   1.6875162193e+01    0.7399155    0.1547092  48.13  0.003255066    3.272    0.694
        12 -11.1872     62.7263    242.9812   1.2588825620e+02   1.8928121456e+01    0.4269553    0.2053579  60.48  0.001845791    1.621    0.383
        13 -11.3267     58.7488    247.1322   1.2677705106e+02   1.8765473818e+01    0.3866803    0.2719258  39.02  0.002915685    1.747    0.428
        14  -9.2484     54.2125    245.5694   1.2737558249e+02   1.9567147142e+01    0.3850091    0.3172438  39.90  0.002249413    1.719    0.418
        15 -14.5797      7.7957     19.8339   1.0705804748e+02   6.9819404928e+01     6.131147    0.9140491 -53.13   0.02341113    3.854    0.741
        16 -14.0871     12.9025    205.2155   1.3161588035e+02   3.1023644074e+01     1.595545    0.7747507  72.14   0.01056595    1.626    0.385
        17 -15.0632      8.0701    135.3960   1.2779361215e+02   4.5430847994e+01     2.288462     1.983526  73.09   0.01451339    1.257    0.205
        18 -13.3705     32.5059    240.0808   1.3036147485e+02   2.2960500403e+01    0.5752133    0.3460441  52.49   0.00161723    1.350    0.259
        19  -9.7208    131.9303    238.1588   1.1405345105e+02   9.8142338525e+00    0.2228195    0.1726428 -67.01  0.001359622    1.577    0.366
        20  -9.9404    126.8429    229.3417   1.1396112266e+02   1.1952096083e+01    0.4478444    0.2125731  39.21  0.002362453    1.954    0.488
        21 -11.8662    136.3832    231.5898   1.1254667919e+02   1.0085059159e+01    0.9200442    0.5558261  70.49   0.00519251    2.078    0.519
        22 -10.1164     94.6969    233.5816   1.1993489578e+02   1.6138986207e+01    0.3178292    0.1816362  54.54   0.00203365    1.356    0.262
        23  -9.5542     93.4801    229.9706   1.1981244531e+02   1.6902467058e+01    0.2600919    0.1519664  75.70  0.001579205    1.801    0.445
        24  99.0000     77.1820    193.7697   1.1920534933e+02   2.5709758611e+01     1.624196    0.8439915  52.75  0.009060201    1.671    0.402
        25 -12.6763     88.5105    209.6503   1.1872570393e+02   2.1126673002e+01     1.556689    0.9640623 -44.22  0.008721731    2.601    0.616
        26 -12.6634    106.4840    209.7544   1.1542231246e+02   1.8411807432e+01     3.284621     1.862821  33.92   0.01753824    2.101    0.524
        27 -10.9122    157.4432    220.1756   1.0736548711e+02   8.3104746775e+00    0.8306019    0.4108663  33.87  0.004063854    2.168    0.539
        28 -10.4040    139.3298    219.3902   1.1054564044e+02   1.1487096054e+01    0.3704789    0.2662991  37.46  0.002327973    1.352    0.260
        29 -14.5835      7.7857    172.7617   1.3063579298e+02   3.7698007367e+01     2.289355    0.8792134 -65.17   0.01293207    2.328    0.570
        30 -10.2742     44.0316    214.2592   1.2697073982e+02   2.6086483995e+01    0.1722974     0.126296 -87.39 0.0005513185    1.243    0.195
        31 -12.0147    121.6016    240.9951   1.1610421108e+02   1.0993499642e+01     0.631934    0.5131485  46.97  0.002969227    1.207    0.171
        32 -11.3929    149.9542    203.4962   1.0640927690e+02   1.2242287687e+01    0.7251996    0.3966602 -55.40   0.00373782    2.207    0.547
        33  -9.7030     44.8159    199.3256   1.2573973288e+02   2.8760985471e+01    0.4063305    0.1556519  59.83  0.002061036    2.448    0.591
        34 -14.2453    189.0833    155.0950   9.0017094413e+01   1.2997980300e+01     2.684262     2.168407 -29.67    0.0144976    1.309    0.236
        35 -11.1323     87.2981    161.1693   1.1308636140e+02   3.0897276624e+01     0.445113    0.2633733 -74.28  0.002235966    1.736    0.424
        36 -10.3969     70.8472    170.6667   1.1788189916e+02   3.1237473424e+01    0.3394383    0.3095685 -13.32  0.001779464    1.687    0.407
        37 -12.0671     69.4252    164.2988   1.1740579820e+02   3.2772438612e+01     0.457919    0.4339219 -73.01  0.001198567    1.310    0.237
        38 -12.3030     63.7347    155.9877   1.1760021636e+02   3.5307223897e+01     1.043008    0.5762754 -67.77  0.005639113    1.626    0.385
        39 -11.0904     52.7078    169.0404   1.2147832335e+02   3.3889884310e+01    0.5764996    0.3711591  57.78  0.002722627    1.417    0.294
        40 -10.4052     40.2376    170.1566   1.2413467477e+02   3.5084017025e+01     0.349071    0.3280311  55.82  0.002298398    1.417    0.294
        41  -9.5203     45.7138    170.4247   1.2305188730e+02   3.4417272279e+01     0.244536    0.1423118  47.24  0.001283102    1.651    0.394
        42 -11.4069     82.5301    161.1495   1.1413470867e+02   3.1608747185e+01    0.7489334    0.6851051 -79.80  0.004955503    1.175    0.149
        43 -10.4881    100.7905    167.7762   1.1110736478e+02   2.7401524032e+01    0.5752288    0.3079783  47.62  0.002839309    1.745    0.427
        44 -10.4177     82.6940    167.9804   1.1503027725e+02   3.0136500263e+01    0.3072504    0.2791567 -60.64 0.0008783349    1.318    0.241
        45 -11.3614     47.6787    152.8948   1.2077871974e+02   3.7922725082e+01    0.7024515    0.4513817 -48.97  0.004097783    1.905    0.475
        46  -9.1614     41.9861    152.6790   1.2200558762e+02   3.8600061270e+01    0.2560565    0.2108873 -47.08  0.001425821    1.589    0.370
        47 -11.4111     62.5325    135.1185   1.1497820519e+02   4.0082443466e+01     1.061257    0.6461633  76.86  0.005422822    1.926    0.481
        48 -10.6376     70.4945    144.5051   1.1447780608e+02   3.6939127596e+01    0.4151658     0.273458 -51.11  0.001701197    1.632    0.387
        49 -11.3769     65.8861    142.2813   1.1523677289e+02   3.8046060054e+01    0.4850911    0.4100619  80.47  0.002027659    1.078    0.072
        50 -10.1147     90.0715    144.3205   1.0983459471e+02   3.4137373050e+01    0.2338959    0.1924919 -61.71 0.0003865449    1.196    0.164
        51 -12.1492     88.1523    168.4177   1.1391929831e+02   2.9236723605e+01    0.7163713    0.6487851  74.36  0.003836219    1.124    0.110
        52 -11.7917     80.6224    129.3179   1.0953867350e+02   3.8924736850e+01    0.9787583    0.7088083 -48.35  0.005398124    1.447    0.309
        53 -11.9887     73.6997    129.6737   1.1133916130e+02   3.9832211614e+01    0.5647087    0.3176797 -57.70  0.002782005    1.610    0.379
        54 -11.9050    208.4711    124.9731   7.9365273629e+01   1.4024557988e+01     1.070139    0.2963119 -37.11   0.00326775    3.517    0.716
        55  -9.7712     73.4565    178.0853   1.1821411100e+02   2.9347747309e+01    0.2128876    0.1759841 -55.81 0.0006528083    1.483    0.326
        56 -11.7251     55.0210     93.9133   1.0964099332e+02   5.0363865805e+01    0.7726424    0.6273009 -76.18  0.004770461    1.183    0.155
        57 -11.3274      9.2279    104.0689   1.2427775573e+02   5.2179705622e+01    0.2839795    0.1758543 -55.53  0.001305789    1.462    0.316
        58 -11.8860     10.2453     97.5968   1.2318374216e+02   5.3539276190e+01    0.4877601    0.2805861  81.66  0.002848265    1.866    0.464
        59 -12.7186     22.8273     98.4139   1.1979283148e+02   5.2458237827e+01    0.5165367    0.5018269   6.99  0.003967793    1.351    0.260
        60  -9.8537     73.6266     96.2177   1.0469428642e+02   4.7449737589e+01    0.2048613    0.1103513 -48.56 0.0007557726    1.685    0.407
        61 -10.7511     33.0992     90.6851   1.1552839407e+02   5.3333735441e+01    0.3112209    0.1295121 -62.25  0.001507152    1.870    0.465
        62  99.0000     30.7725    212.1513   1.2905650930e+02   2.7948350567e+01     2.497792    0.8684568  83.10   0.01105757    3.818    0.738
        63 -15.2548     15.5561    244.1619   1.3304088939e+02   2.4091212737e+01     1.740626    0.8054664  52.53   0.01280256    1.566    0.361
        64 -10.6675    190.1181     35.3564   5.7687883709e+01   3.3082459273e+01    0.2542086    0.2127708  -4.29 0.0007953321    1.340    0.253
        65 -11.8907    198.6780     29.1645   5.4557401661e+01   3.1617092805e+01     0.474078    0.4559546  86.91  0.002713975    1.009    0.009
        66 -10.7592     19.5618    184.4608   1.2923077282e+02   3.4315997761e+01     1.194715    0.6406141 -73.81  0.007849006    1.600    0.375
        67 -10.0660    156.0808    247.4073   1.1100639502e+02   4.7073923593e+00    0.2928112    0.1627239  51.79   0.00178723    1.492    0.330
        68 -10.5249     86.6372    242.4413   1.2202914098e+02   1.5861335894e+01    0.5451972    0.2829246  71.74  0.003264818    2.022    0.506
        69  -9.7886    138.9978    243.4168   1.1342694671e+02   7.9471777749e+00     0.273091    0.1688173  48.14  0.001772045    1.230    0.187
