#   1 NUMBER                 Running object number                                     
#   2 MAG_AUTO               Kron-like elliptical aperture magnitude                    [mag]
#   3 X_IMAGE                Object position along x                                    [pixel]
#   4 Y_IMAGE                Object position along y                                    [pixel]
#   5 X_WORLD                Barycenter position along world x axis                     [deg]
#   6 Y_WORLD                Barycenter position along world y axis                     [deg]
#   7 A_WORLD                Profile RMS along major axis (world units)                 [deg]
#   8 B_WORLD                Profile RMS along minor axis (world units)                 [deg]
#   9 THETA_WORLD            Position angle (CCW/world-x)                               [deg]
#  10 FWHM_WORLD             FWHM assuming a gaussian core                              [deg]
#  11 ELONGATION             A_IMAGE/B_IMAGE                                           
#  12 ELLIPTICITY            1 - B_IMAGE/A_IMAGE                                       
         1 -13.9777    197.3705     10.2135   4.8801594661e+01   3.4498410111e+01     1.504632     1.404368  35.37  0.008747405    1.133    0.118
         2 -13.9971    214.7766      3.8249   4.4925523144e+01   3.0593396826e+01       2.2147     1.170439 -11.87  0.008012467    2.387    0.581
         3 -13.9564    176.5741     46.0822   6.3308040045e+01   3.5488990030e+01     1.165646    0.9833737 -11.39 0.0008117773    1.258    0.205
         4 -14.0262    194.9300     27.1962   5.4302678145e+01   3.3208994388e+01     1.126783    0.7909529  43.45  0.001437774    1.480    0.324
         5 -14.0561    188.5781     35.5127   5.7865536768e+01   3.3822822499e+01     1.137647     1.036223 -34.44  0.003249184    1.112    0.101
         6 -13.1680     46.8320    215.6964   1.2476859946e+02   2.6027153933e+01     0.394659    0.1710686  67.35  0.001593989    2.097    0.523
         7 -16.5205     72.1743    148.6917   1.1338348448e+02   3.5882397520e+01      7.87068      3.67456  82.76   0.01521843    4.671    0.786
         8 -12.1432     54.5509    210.5620   1.2314463356e+02   2.6008622176e+01    0.4022829    0.1609958  63.51  0.001782882    2.388    0.581
         9 -11.0082     48.4997    205.4460   1.2376307938e+02   2.7640311332e+01    0.3072682    0.2149172  40.17  0.002215659    1.737    0.424
        10 -10.9991     39.1854    212.7845   1.2579376075e+02   2.7404563556e+01    0.1645704   0.09311354  60.13 0.0004832913    1.365    0.267
        11 -11.7059     72.1497    211.5255   1.2028405495e+02   2.3610819353e+01    0.2222009    0.1517534  64.12 0.0004274952    1.137    0.121
        12 -10.8793     76.3575    206.9346   1.1915566742e+02   2.3859209642e+01    0.3163393    0.1778909 -62.85  0.001323895    1.907    0.476
        13 -19.4061     14.4452    132.8680   1.2409356406e+02   4.5375901735e+01     16.68737     1.755261 -73.44   0.04108584    9.529    0.895
        14 -10.4674     37.1358    206.7741   1.2572701562e+02   2.8691708836e+01    0.1474583   0.09358755  67.67 0.0004744143    1.184    0.155
        15  -9.6045    163.2082    203.8042   1.0321858817e+02   1.0488087809e+01    0.1595052     0.134972  28.18 0.0003272774    1.296    0.229
        16 -10.5414     44.4525    210.4906   1.2479229191e+02   2.7211388887e+01    0.1968073    0.1057852  63.61 0.0005216367    1.468    0.319
        17 -10.1670     87.4931    202.6624   1.1678870744e+02   2.3075518094e+01    0.2748086     0.151276 -61.53  0.001630598    1.940    0.485
        18 -11.1198    156.0460    200.3098   1.0401100494e+02   1.2321397276e+01    0.4111699    0.2201223 -59.96  0.002045219    2.459    0.593
        19 -12.0581     36.7841    200.3251   1.2534540235e+02   2.9891881498e+01    0.1682305    0.1238408  78.41 0.0004593386    1.053    0.050
        20 -10.6453    209.9518    199.4874   9.4175121557e+01   2.5914697300e+00    0.2070189    0.1761693 -58.20 0.0006352002    1.600    0.375
        21 -12.0311    193.3828    192.9257   9.6008029325e+01   6.5807719180e+00    0.7424845    0.4278015 -53.35  0.003248019    2.387    0.581
        22 -11.6044    141.1822    198.2278   1.0645344537e+02   1.5290422035e+01    0.2438022    0.1735345 -73.55  0.000901504    1.669    0.401
        23  -9.2782     46.7607    198.2574   1.2351006542e+02   2.9150150575e+01    0.1040439   0.06082277  72.96            0    1.410    0.291
        24 -10.2345     82.2500    195.5054   1.1699307130e+02   2.5124393394e+01    0.2406002    0.2161394 -84.30  0.001785853    1.313    0.239
        25 -13.1087     69.1649    190.4831   1.1886827245e+02   2.7842452657e+01    0.6686518    0.5522787 -80.15  0.004309844    1.262    0.207
        26 -16.8471     70.6921    246.9584   1.2323212245e+02   1.8018352152e+01     7.409769     2.290638  37.31   0.03004235    5.333    0.812
        27 -11.7171     96.7246    188.2913   1.1350107647e+02   2.4363693592e+01    0.4053436     0.283919  64.91  0.001306587    1.239    0.193
        28 -10.5550    151.9768    183.9829   1.0227888925e+02   1.5792916273e+01    0.2062797    0.1489118  76.87 0.0005503026    1.662    0.398
        29 -11.6367     99.3665    180.8559   1.1207105887e+02   2.5376804877e+01     0.236771    0.2125316  69.85 0.0006061273    1.164    0.141
        30 -11.6764    145.4030    179.2895   1.0280473138e+02   1.7835095100e+01    0.3701122    0.2241175  31.15  0.001780554    2.086    0.521
        31 -10.0501     69.3032    178.1470   1.1757346908e+02   3.0210005422e+01     0.177732    0.1448494  57.28 0.0004911255    1.251    0.200
        32  -9.7290    168.2795    176.6313   9.7893355161e+01   1.3972596594e+01    0.2105242    0.1768815  89.80 0.0005408725    1.406    0.289
        33  -9.7337    166.2982    173.6237   9.7747830840e+01   1.4875053356e+01    0.2245903    0.1623598 -73.91 0.0009087258    1.859    0.462
        34 -10.4884     49.0893    172.7963   1.2089784584e+02   3.3766842521e+01    0.2367586    0.1918598  63.36  0.001165543    1.228    0.186
        35 -11.9511    138.6417    170.1592   1.0265869705e+02   2.0761392964e+01    0.4235769    0.3146776 -23.05  0.002201012    2.085    0.520
        36 -11.5919    195.1598    168.5271   9.1235386705e+01   9.9886780367e+00    0.3216566    0.2694307  39.00  0.000853415    1.076    0.071
        37 -10.7760    146.0159    168.5108   1.0088750923e+02   1.9694660153e+01    0.2082221    0.1228095  47.07 0.0005991207    1.550    0.355
        38 -10.8289    190.4370    160.7951   9.0611016476e+01   1.2218894451e+01    0.2811124    0.2412303  80.91 0.0009917135    1.422    0.297
        39 -11.2072    189.1147    155.0834   8.9705254469e+01   1.3460003162e+01     0.390181    0.3684563  89.88  0.001901045    1.198    0.165
        40 -13.1556     96.5589    154.8847   1.0900354482e+02   3.1033350425e+01    0.6241313    0.4699785 -43.59  0.002503017    1.664    0.399
        41 -11.6603    134.3163    148.6511   9.9749299735e+01   2.5769726785e+01    0.4394341     0.248042 -60.97  0.001985937    1.993    0.498
        42 -12.2114    134.0000    144.0108   9.8927499283e+01   2.6769622582e+01    0.8173831    0.2815542 -58.51   0.00251421    4.246    0.764
        43 -10.4779    113.3470    151.3695   1.0479777330e+02   2.9008739855e+01    0.2617183    0.1511691 -78.30 0.0009805101    2.366    0.577
        44 -10.6941    141.3154    158.2841   1.0004440799e+02   2.2532501022e+01    0.2455274    0.2054189  74.30 0.0003519321    1.201    0.167
        45 -10.4153    174.9073    149.1109   9.1296484027e+01   1.7497997096e+01    0.2208737    0.1930843  78.25 0.0005212542    1.275    0.216
        46 -11.5936    144.9850    147.9853   9.7322371446e+01   2.3837848314e+01    0.3679039    0.2146913  67.20  0.001529139    2.358    0.576
        47 -10.3676    115.9855    144.6788   1.0303855707e+02   2.9941586252e+01    0.1938726    0.1639738  63.40 0.0005793803    1.126    0.112
        48 -12.4670    107.8225    140.2793   1.0407562000e+02   3.2279483100e+01    0.5101356    0.3266717 -38.23  0.002469745    2.048    0.512
        49 -12.4891     95.9331    140.3175   1.0678552801e+02   3.4216493244e+01    0.2946168    0.2495187 -65.81 0.0003970356    1.142    0.124
        50 -12.8554    115.3815    130.3721   1.0044276639e+02   3.3075406453e+01    0.7210323    0.5273219  12.62  0.003431818    2.234    0.552
        51 -11.4275    105.9711    130.6825   1.0270937088e+02   3.4650182785e+01    0.3903128    0.2912968 -82.34   0.00119745    1.436    0.303
        52 -11.3556    102.7212    126.6423   1.0269308664e+02   3.6072072693e+01    0.2726117    0.2378805 -22.88 0.0007426172    1.485    0.326
        53 -12.0291    135.4531    122.1302   9.3994016557e+01   3.1000167765e+01    0.7490533    0.1909592 -52.31   0.00199185    4.901    0.796
        54 -10.3882    160.8548    128.1098   8.9653335422e+01   2.4475813288e+01    0.2371591    0.2061567 -86.37  0.001244338    1.289    0.224
        55 -11.7229    119.9807    124.5046   9.8146053217e+01   3.3489741969e+01    0.5005156    0.2967211 -24.68  0.001836509    3.457    0.711
        56 -10.9046    110.8004    119.2945   9.9233589286e+01   3.6275081533e+01    0.3313171    0.2391532  34.81  0.001697654    1.596    0.373
        57 -10.1279    167.9040    112.7729   8.4431805931e+01   2.5897378632e+01    0.2918661    0.1982152 -69.24  0.001217147    2.084    0.520
        58 -12.4252    119.2220    110.5808   9.5209323640e+01   3.6607585205e+01    0.6373959    0.3728653  57.21   0.00280427    1.977    0.494
        59 -10.3175    205.6670    110.1131   7.6090908096e+01   1.7572176695e+01    0.2902959    0.2153851  42.11 0.0006739507    1.346    0.257
        60  -9.8002    105.0350    111.7424   9.9008028610e+01   3.8923184915e+01    0.1899585    0.1772529  74.07 0.0004191692    1.092    0.084
        61 -11.9843     52.9237     90.8128   1.0844336069e+02   5.0935613988e+01    0.3194233    0.1920743 -67.99   0.00150954    1.511    0.338
        62 -11.2418     41.7785     91.9764   1.1180596363e+02   5.1837197634e+01    0.1804256    0.1700234 -70.00   0.00047201    1.183    0.155
        63 -10.9297     60.0826     80.1140   1.0400453785e+02   5.2437517654e+01    0.1942885     0.156325 -38.07 0.0005284892    1.253    0.202
        64 -10.2895     70.3691     72.1811   9.8887398435e+01   5.2812787537e+01    0.2082386    0.1859022  51.23 0.0003929374    1.314    0.239
        65 -11.9731    166.0412     66.3504   7.1800848558e+01   3.4940687708e+01    0.4492837    0.3339892 -83.50 0.0006802965    1.846    0.458
        66  -9.9803    105.2212     61.2446   8.5245296120e+01   4.9378686373e+01    0.1852972    0.1662496 -77.05 0.0004944833    1.339    0.253
        67  -9.6412     45.5794     59.7268   1.0341288110e+02   5.8338964719e+01    0.1717248    0.1033066 -62.36  0.000941687    1.584    0.369
        68 -10.3027     36.9378     57.5098   1.0572263955e+02   5.9629845065e+01    0.1484773    0.1203926  21.84 0.0004463721    1.525    0.344
        69 -12.0263    183.4993    215.4445   1.0133121128e+02   5.1788898257e+00    0.3852588    0.2904966  79.81  0.002329694    1.878    0.468
        70  -9.9566    198.7650    222.8103   9.9800660416e+01   1.5572940800e+00    0.1729561    0.1339113  33.79 0.0005590616    1.093    0.085
        71 -13.4241     60.5669    205.1500   1.2170743738e+02   2.6233381052e+01     0.663689    0.4193701  81.28  0.001614708    1.335    0.251
        72  -9.8554     71.8286    229.8126   1.2182335159e+02   2.0563336303e+01    0.1412827   0.08530103  65.03 0.0009834568    1.270    0.213
        73  -9.3820     67.2198    225.4583   1.2222204537e+02   2.1874976168e+01    0.1887735   0.09050278  41.46  0.001132716    2.077    0.518
