#   1 NUMBER                 Running object number                                     
#   2 MAG_AUTO               Kron-like elliptical aperture magnitude                    [mag]
#   3 X_IMAGE                Object position along x                                    [pixel]
#   4 Y_IMAGE                Object position along y                                    [pixel]
#   5 X_WORLD                Barycenter position along world x axis                     [deg]
#   6 Y_WORLD                Barycenter position along world y axis                     [deg]
#   7 A_WORLD                Profile RMS along major axis (world units)                 [deg]
#   8 B_WORLD                Profile RMS along minor axis (world units)                 [deg]
#   9 THETA_WORLD            Position angle (CCW/world-x)                               [deg]
#  10 FWHM_WORLD             FWHM assuming a gaussian core                              [deg]
#  11 ELONGATION             A_IMAGE/B_IMAGE                                           
#  12 ELLIPTICITY            1 - B_IMAGE/A_IMAGE                                       
         1 -14.7813    168.8913     39.4232   7.5528109235e+01   3.8252448034e+01     1.198263     1.040429  11.93   0.00428536    1.370    0.270
         2 -14.5147    184.7970      7.4119   6.4459081879e+01   3.8017937784e+01    0.9832249    0.8344164  83.44  0.004151362    1.024    0.024
         3 -12.5887    157.3863    201.7686   1.1781619852e+02   9.2826048693e+00    0.5887504     0.374005  76.42  0.002446871    2.618    0.618
         4 -19.0518     75.5539    235.0336   1.3876448920e+02   1.6602366000e+01     8.430729     6.747429  84.26   0.05076404    1.112    0.100
         5 -12.0183    154.4695    196.1820   1.1744902762e+02   1.0957056463e+01    0.4597955    0.2950142  77.11  0.001910533    2.515    0.602
         6 -10.9091     30.2028    205.2765   1.4441279230e+02   2.8524133332e+01     0.159564    0.1397871  43.57 0.0006788753    1.512    0.338
         7 -10.8816     20.5029    202.4641   1.4598143596e+02   3.0154598965e+01    0.1158844   0.08735642  87.26  8.77412e-05    1.044    0.042
         8 -10.6667    139.2277    200.7038   1.2148490315e+02   1.2938293726e+01    0.2598686    0.2023412  89.53  0.000714081    1.481    0.325
         9 -11.2038    219.5895    225.1849   1.0958936921e+02  -6.1524951199e+00    0.3451383    0.1148654 -46.43  0.001257085    4.113    0.757
        10 -10.8107    110.2247    222.9193   1.3076272966e+02   1.3581691101e+01    0.1842668    0.1509286  78.06 0.0003880756    1.129    0.114
        11 -12.7416    174.9223    193.2803   1.1258500235e+02   7.5307582469e+00    0.4886284    0.2785267 -66.50  0.001520133    2.993    0.666
        12 -13.2450    175.5596    186.1406   1.1107811879e+02   8.8016867363e+00    0.5741905    0.3542337 -60.23  0.002514408    2.062    0.515
        13 -12.0996    180.5208    193.4513   1.1145056828e+02   6.3964939693e+00    0.3018712    0.2583696  81.90  0.001635322    1.423    0.297
        14 -11.6719     20.1749    219.4559   1.4731055897e+02   2.6693471728e+01    0.2014366    0.1284928  57.29    0.0013758    1.375    0.273
        15 -10.2946     16.7165    217.3231   1.4775748152e+02   2.7486420832e+01    0.2376442    0.1689318  37.10  0.001669127    1.803    0.445
        16  -8.0806     15.6515    237.6003   1.4924252780e+02   2.3634755647e+01     0.174601   0.09288403  54.93  0.001157718    1.542    0.352
        17  -9.1295     18.7060    235.7496   1.4863873131e+02   2.3657853097e+01    0.1525763   0.07854179 -68.61 0.0006715136    1.866    0.464
        18 -12.4268    206.7157    178.5213   1.0313557041e+02   4.0193442883e+00    0.4559183    0.3463343  11.36  0.001695168    1.541    0.351
        19 -19.2352     57.0713     99.4112   1.2246614296e+02   4.9558242620e+01     18.05278    0.9714572 -55.81   0.02792852   16.287    0.939
        20 -12.9650    195.7590    169.8136   1.0351739354e+02   7.8920829876e+00    0.5965653    0.4459417 -47.94  0.001618636    1.391    0.281
        21 -11.6131    193.6019    164.7409   1.0287250047e+02   9.3377874532e+00    0.3453713    0.3059522 -31.71   0.00122954    1.136    0.120
        22 -13.8194    136.9875    171.0398   1.1664211572e+02   1.9732275733e+01    0.7612723    0.4867904  57.12  0.002995308    1.664    0.399
        23 -11.6602    203.2389    171.3378   1.0232380211e+02   6.0651187508e+00    0.3206724    0.2298929  41.73  0.001125646    1.384    0.277
        24 -13.6514    165.5014    188.4103   1.1365646841e+02   1.0359051487e+01    0.6560994    0.4151663  37.56   0.00248692    1.573    0.364
        25 -11.6995    109.0519    209.5347   1.2920117962e+02   1.6494803228e+01    0.2986579     0.206705  57.97  0.001188619    1.322    0.244
        26 -12.4009    142.1325    165.6629   1.1438826035e+02   1.9902585529e+01    0.3673404    0.2141246 -57.27 0.0006081861    1.830    0.454
        27 -10.8892     22.6240    166.5308   1.4227627322e+02   3.7791967079e+01    0.3204975    0.1992465   5.28  0.001504658    3.151    0.683
        28 -10.4401    201.7000    166.3463   1.0156606634e+02   7.3370667121e+00    0.2122897    0.1518641 -57.15 0.0007056298    1.640    0.390
        29 -10.6966    200.8054    162.3766   1.0088528046e+02   8.2929903513e+00    0.3165725    0.2577225  13.88  0.001085425    1.397    0.284
        30 -10.4872    222.4622    161.7328   9.6514322585e+01   3.9777431108e+00     0.264557    0.1331331 -44.66 0.0008017816    1.995    0.499
        31 -15.0241    133.2226    145.2453   1.1217643069e+02   2.6325223535e+01     1.833008    0.7014752 -51.92  0.006216116    2.657    0.624
        32 -13.5233    135.7421    127.5254   1.0743775659e+02   2.9821975939e+01    0.8890703    0.2740906 -51.62  0.002550354    3.614    0.723
        33 -12.5076    135.2761    119.8287   1.0564787955e+02   3.1633786734e+01    0.4717148    0.2681551 -47.65  0.001301585    1.727    0.421
        34 -10.7685    161.4738    153.4877   1.0736036747e+02   1.8545947998e+01    0.1519084     0.150617  71.28 7.182502e-05    1.021    0.021
        35 -12.1235    107.0181    206.2931   1.2916983050e+02   1.7517228099e+01    0.3370958    0.2968527  70.08 0.0003289929    1.036    0.034
        36 -10.7879    174.8551    149.1178   1.0339105979e+02   1.6573525833e+01    0.2420532    0.2127851 -86.06 0.0006847071    1.281    0.220
        37 -13.3367    143.8757    145.2971   1.0961919418e+02   2.4108156891e+01     0.637454    0.4004929 -69.25  0.002536197    2.151    0.535
        38 -11.8304     21.3224    141.1390   1.3963957768e+02   4.3678144719e+01    0.2049942    0.1689673  53.97 0.0008569956    1.381    0.276
        39 -12.2077      6.8650    139.8138   1.4292102942e+02   4.5125310202e+01    0.2855583    0.1819992  22.31  0.001252302    2.128    0.530
        40 -12.7318      2.5928    126.2180   1.4237296207e+02   4.8446904829e+01    0.4570492    0.1376683 -61.36  0.002026804    2.271    0.560
        41 -11.7865    160.3198    127.8858   1.0162881071e+02   2.4359754520e+01    0.3997083    0.2837383 -54.37  0.001609325    1.461    0.315
        42 -10.7742    116.5648    211.9707   1.2799103654e+02   1.4707858361e+01    0.3000851    0.1962408 -71.52   0.00155297    1.679    0.405
        43 -10.7761    168.0345    113.0231   9.6121065450e+01   2.5722563675e+01    0.3933373    0.2630757 -82.51  0.001492506    2.447    0.591
        44 -12.1776    135.0000    111.5868   1.0359990926e+02   3.3493869436e+01    0.5281724     0.170924 -45.05  0.001636667    3.031    0.670
        45 -11.6965      3.2452    112.3414   1.4042115505e+02   5.1468263418e+01     0.229741    0.1950021 -28.84  0.001102747    1.430    0.301
        46 -12.1008     10.5685    110.9869   1.3824836538e+02   5.1297546240e+01     0.405041     0.188858   4.94  0.001943414    3.688    0.729
        47  -9.8555     13.5722    211.3432   1.4788722703e+02   2.9019889940e+01    0.1273979   0.08258954 -69.62 0.0008551919    1.485    0.327
        48 -12.5982    117.6265    109.7368   1.0762940741e+02   3.7497435876e+01    0.3050101    0.2446207 -59.51 0.0009666108    1.286    0.223
        49 -10.8580    205.6015    110.1080   8.7697331809e+01   1.7464852903e+01     0.285306    0.2230819  46.52  0.000679926    1.345    0.257
        50 -10.6687    150.6638    249.9964   1.2652577451e+02   1.8310443709e+00     0.157869    0.1469191  64.34 0.0004032743    1.152    0.132
        51 -10.3187     13.1578    244.5751   1.5003944019e+02   2.2596272573e+01    0.2122696   0.09707351 -65.26  0.001298729    2.281    0.562
        52 -11.1880     96.0096     80.0136   1.0542725089e+02   4.7791888857e+01    0.2649335     0.199109  44.42 0.0004776748    1.424    0.298
        53 -14.4339    156.6080     54.4502   8.2234677880e+01   3.9135105821e+01     1.095516     1.067159  28.28  0.001015241    1.066    0.062
        54 -12.2577    163.7605    203.0180   1.1669980306e+02   7.8178256099e+00    0.2777126    0.2374092  87.19 0.0004111422    1.360    0.265
        55 -12.8958    172.8348     32.0088   7.2769956478e+01   3.8227476783e+01    0.3776666    0.3425763  13.70 0.0009372442    1.296    0.228
        56 -10.5494     13.5037     59.7981   1.2727545194e+02   6.1801333614e+01    0.1739687    0.1457468 -19.78 0.0004020378    1.215    0.177
        57 -10.8943    134.7939     30.1606   7.9262349266e+01   4.7582507392e+01    0.2760252    0.1827929  74.05  0.001056299    1.784    0.440
