#   1 NUMBER                 Running object number                                     
#   2 MAG_AUTO               Kron-like elliptical aperture magnitude                    [mag]
#   3 X_IMAGE                Object position along x                                    [pixel]
#   4 Y_IMAGE                Object position along y                                    [pixel]
#   5 X_WORLD                Barycenter position along world x axis                     [deg]
#   6 Y_WORLD                Barycenter position along world y axis                     [deg]
#   7 A_WORLD                Profile RMS along major axis (world units)                 [deg]
#   8 B_WORLD                Profile RMS along minor axis (world units)                 [deg]
#   9 THETA_WORLD            Position angle (CCW/world-x)                               [deg]
#  10 FWHM_WORLD             FWHM assuming a gaussian core                              [deg]
#  11 ELONGATION             A_IMAGE/B_IMAGE                                           
#  12 ELLIPTICITY            1 - B_IMAGE/A_IMAGE                                       
         1 -10.7685     33.1317     63.4504   1.0012802369e+02   6.0353467428e+01     1.673026    0.6665316 -30.43  0.006157355    3.706    0.730
         2 -10.2240     10.1734     18.9865   9.5164847779e+01   7.0824747040e+01     1.210014    0.4176592 -22.77  0.003626058    7.234    0.862
         3 -11.2231     23.6578     32.3989   9.3872121710e+01   6.7357173138e+01      1.52449    0.4416639 -38.24  0.003913878    3.089    0.676
         4 -10.7436     37.2722      9.2914   7.6905671775e+01   6.9433153413e+01    0.8790482    0.2871522 -37.62  0.002848228    2.967    0.663
         5 -10.1210      4.7729     41.3865   1.0578921180e+02   6.7021328085e+01    0.7928637    0.3187475 -66.67  0.003606358    2.850    0.649
         6 -10.4752     26.7323     11.3742   8.3038264042e+01   7.0452469816e+01    0.8926598    0.3389316  34.71  0.004407673    2.832    0.647
         7 -10.2208     18.2329      4.8438   8.4082680058e+01   7.2290478510e+01    0.5668764    0.3837335 -49.12  0.003545012    2.176    0.541
         8  -9.4586      2.2538     14.4735   9.7541291744e+01   7.2142869418e+01    0.4132383    0.2185179 -61.63  0.002201832    2.701    0.630
         9 -10.4790      5.7051      5.0265   9.1199849872e+01   7.3407205562e+01    0.5065492    0.3451621  -9.49   0.00187557    1.233    0.189
        10  -8.7760     40.9485     20.9447   8.0939006826e+01   6.7325857612e+01     0.328098    0.1475474 -34.68 0.0007964665    1.972    0.493
        11 -10.3249     73.4348     16.2974   6.6003550189e+01   6.2766598831e+01     1.466903    0.2939712 -29.47  0.004623248    4.851    0.794
        12 -10.1059     64.3910     12.8863   6.7569794841e+01   6.4793824731e+01    0.4465921    0.2838842 -27.78   0.00149335    1.549    0.355
        13 -10.1508     62.6689      3.4641   6.3579595159e+01   6.6107061736e+01    0.4672055    0.3549723  23.86  0.002461692    1.106    0.096
        14 -10.3656     69.6386     40.4264   7.7771356211e+01   6.0027503924e+01      1.20682      0.37016 -38.28  0.004416066    3.067    0.674
        15  -9.8786     63.2093     23.2633   7.2836511918e+01   6.3682467503e+01    0.6965138    0.3727926 -32.27  0.002506902    1.776    0.437
        16  -9.4461    101.0443     31.9214   6.4144619905e+01   5.5291435638e+01    0.6439334    0.2056931 -32.84  0.001959229    3.061    0.673
        17  -9.3701    102.9711     21.0796   5.9279818995e+01   5.6217366653e+01    0.5010507    0.2573002 -29.82  0.001331029    1.989    0.497
        18  -8.2546    104.8653     14.7456   5.6237972369e+01   5.6483333093e+01    0.3305239    0.1885123  15.08  0.001499752    2.239    0.553
        19 -10.1234     46.2698     29.4905   8.2446543536e+01   6.5303486450e+01    0.4915187    0.2670391 -46.95  0.001129914    2.083    0.520
        20 -10.1598     52.6728     13.9898   7.2600070733e+01   6.6599602551e+01     0.703899    0.3547607  25.94  0.002341326    2.126    0.530
        21  -9.4564     91.4000     26.2530   6.4643908697e+01   5.8046240176e+01    0.5065662    0.2127647 -39.81  0.001697543    2.677    0.626
        22  -9.4086    152.6244     27.9388   5.1084817460e+01   4.3632619402e+01    0.3206614     0.193137  -3.08  0.001380706    2.351    0.575
        23  -8.6477    125.4874     13.0854   5.1029934517e+01   5.1882845485e+01    0.3412437    0.2150505 -87.41 0.0004405286    2.306    0.566
        24  -9.8145    131.7063     18.7912   5.1865387866e+01   4.9811956735e+01    0.4350222    0.3358401  17.08 0.0007107868    1.420    0.296
        25  -8.8503    119.9746     16.5392   5.3457629169e+01   5.2842513041e+01    0.3997673    0.2293376  14.29  0.001763021    2.356    0.576
        26  -9.3238     96.2447     14.9087   5.8518571268e+01   5.8348668724e+01    0.5363942    0.2506289 -12.86  0.002272737    2.637    0.621
        27  -9.6421     85.3248     13.2090   6.0857644548e+01   6.0801584004e+01    0.4247327    0.2596169 -48.07  0.001706681    2.359    0.576
        28  -8.0341     80.3736     12.2633   6.1928988021e+01   6.1889646737e+01    0.2193927    0.1455165 -30.21  0.001124026    1.593    0.372
        29  -8.1351    141.2820     12.2237   4.7818220237e+01   4.8135611898e+01    0.1852139     0.153453 -72.39 0.0007058584    1.353    0.261
        30  -8.7824    137.4381      9.7157   4.7615137262e+01   4.9313364756e+01    0.6119582    0.2326167  30.16  0.001745809    5.638    0.823
        31  -8.7206    132.6938     10.6799   4.8791746628e+01   5.0378467620e+01    0.2899877    0.2145974 -14.17   0.00160713    1.492    0.330
        32  -8.9705    131.3732      5.8255   4.7304168153e+01   5.1132353922e+01    0.4097954    0.2637398  -3.16  0.001728596    1.849    0.459
        33  -8.9063    134.9696      2.4262   4.5500194400e+01   5.0545754213e+01    0.4201218    0.2210788  27.04  0.001881799    2.401    0.583
        34  -9.0702    114.0258     10.0238   5.2249852529e+01   5.4864196369e+01    0.3312713    0.1855547  37.57 0.0003330956    1.738    0.425
        35  -8.1755    155.7553      8.5047   4.4330754893e+01   4.4901140949e+01      0.28702   0.05405775 -36.15 0.0008908561    4.465    0.776
        36  -8.5688    126.9872      8.9900   4.9241024312e+01   5.1908026485e+01    0.2797665    0.1734323  34.40 0.0007788499    1.663    0.399
        37  -9.4340    124.2319      5.2628   4.8393178964e+01   5.2891744465e+01    0.6496832    0.2201028  56.28  0.002538786    2.352    0.575
        38  -8.7359    101.8887      8.3378   5.4344867187e+01   5.7764915656e+01    0.2544599    0.1801447 -32.49  0.000596543    1.567    0.362
        39  -7.9134     67.9817      8.9538   6.4420194217e+01   6.4589198253e+01    0.1656944    0.1540416 -57.26 0.0003836059    1.572    0.364
        40  -9.3349    115.0526      4.0527   4.9722151106e+01   5.5150453228e+01    0.5094165     0.297211  85.02  0.002329843    2.423    0.587
        41  -8.7451    110.8839      4.1855   5.0636484666e+01   5.6100917734e+01    0.2258733     0.217403 -77.78  0.001274534    1.225    0.184
        42  -9.0307     96.7792      4.3862   5.3933776675e+01   5.9235856702e+01    0.4075825    0.2461011 -43.87  0.001858404    2.135    0.532
        43  -7.7734     85.1075      6.6878   5.8017417295e+01   6.1494874807e+01    0.3416892    0.1201387  33.68   0.00122469    3.552    0.718
        44  -8.6431     89.0934      2.6221   5.5120193849e+01   6.1029610031e+01    0.2387006    0.1722973  -3.31 0.0008447632    1.398    0.285
        45  -8.1488     76.7136      6.3390   6.0338283456e+01   6.3205632340e+01    0.2395636    0.1866738 -44.56 0.0008653008    1.708    0.415
        46  -8.9793     78.5920      3.0504   5.8238596093e+01   6.3140843182e+01    0.3261211    0.2429535  50.81 0.0008345337    1.334    0.251
        47  -8.6274    237.3655      5.7218   3.5167601211e+01   2.5617652369e+01    0.2079132    0.1850395 -79.31  0.000361012    1.136    0.119
        48  -7.8165    143.3992      5.2047   4.5104526951e+01   4.8253892450e+01    0.1809583    0.1155886 -38.90 0.0004438775    1.705    0.413
        49  -8.5886    104.1177      2.4575   5.1412422305e+01   5.7776583276e+01    0.3259667     0.163876  34.95  0.001413188    1.974    0.493
        50  -7.5530    150.5553      1.4954   4.2834638521e+01   4.6803646871e+01     0.131531     0.117418  66.79 9.061873e-05    1.007    0.007
        51 -10.2073    140.7624    118.1086   8.1249412861e+01   3.0456623379e+01    0.7106028    0.4134225 -58.66  0.001683125    2.086    0.521
        52 -10.1255    201.0885    248.8988   9.3977257439e+01  -5.0033929640e+00    0.3384472    0.2647928  54.24  0.002223666    1.739    0.425
        53 -10.6406    186.8886    247.2616   9.6325958966e+01  -2.6568527460e+00    0.5720574    0.2527965  28.00  0.002684755    2.374    0.579
        54  -9.9172    163.8432    248.8599   1.0081817831e+02   6.5698751583e-01      0.38826    0.2332813  65.57  0.001866126    3.038    0.671
        55  -9.6663    107.6360    250.6171   1.1148859074e+02   8.9237059797e+00    0.2052045   0.09692269  42.04 0.0002138969    1.705    0.413
        56  -9.7034    110.8688     89.9714   8.1476335708e+01   4.2913814263e+01    0.8465617    0.4319396  28.40  0.002981577    2.855    0.650
        57 -10.2142    116.8992    125.1938   8.9234538829e+01   3.3749506715e+01    0.9082649    0.5341837 -60.32  0.001740162    1.890    0.471
        58  -9.2649    125.6836     83.9983   7.5537860093e+01   4.1034068084e+01    0.6838561    0.3483194  27.27  0.002187189    3.420    0.708
        59 -10.6429    123.0081     92.1022   7.8702130936e+01   3.9936906093e+01     1.097556    0.6032073 -37.01   0.00222601    1.847    0.459
        60 -10.4398    132.1429    120.0539   8.3942531139e+01   3.1855184566e+01    0.9473712    0.6058479  82.34  0.003138733    3.179    0.685
        61 -11.3519    133.6066    109.5826   8.0817170232e+01   3.3879622731e+01     1.434749    0.7106496 -36.29  0.005242758    2.211    0.548
        62  -9.5423    139.3763    104.5959   7.7975340763e+01   3.3702835342e+01    0.4592953    0.3416303 -66.27 0.0009064795    1.637    0.389
        63 -10.8405    126.9621    103.8198   8.0987274672e+01   3.6566782181e+01     1.193392    0.7483485 -21.70  0.003710136    2.284    0.562
        64 -10.5687    108.6741    111.9197   8.8191438141e+01   3.8425265523e+01     1.405042    0.4883087 -52.03  0.003098241    2.910    0.656
        65 -11.1137    119.9727    109.4981   8.4420399304e+01   3.6754085386e+01      1.52865    0.7305406 -60.27  0.004355179    3.033    0.670
        66 -10.2566    107.8429     99.1853   8.5008349659e+01   4.1491239786e+01    0.7689668    0.5058009  75.41  0.002025502    2.704    0.630
        67  -9.8193     41.8861    122.6125   1.1009326859e+02   4.5691730446e+01    0.6553081    0.3114149 -86.19  0.002403682    3.178    0.685
        68  -9.9408     27.5874    123.2367   1.1429975244e+02   4.6910038494e+01      0.55871    0.2820249  69.69  0.002169593    2.843    0.648
        69  -9.3836    144.8943    124.3974   8.1830073718e+01   2.8178354258e+01    0.4239841    0.2700763  38.23 0.0008072474    1.666    0.400
        70  -7.9006    245.4724    123.4975   6.1602380654e+01   6.8614405210e+00    0.1404942    0.1211002 -28.03  0.000109562    1.004    0.004
        71  -8.1221    157.9583    121.9620   7.8078479876e+01   2.5850551071e+01    0.2535208    0.1970923 -80.43  0.001126307    1.714    0.417
        72  -8.3266    206.0798    119.3597   6.7312813290e+01   1.5653409812e+01    0.2811638    0.2380902 -14.48 0.0006795991    1.224    0.183
        73  -8.3917      1.4681    116.3154   1.2077319446e+02   5.0459123913e+01    0.3490177   0.09910128 -75.83  0.001150847    2.922    0.658
        74 -10.2866     92.0013    113.2166   9.3316306112e+01   4.1129100554e+01     0.613991    0.4347042 -87.03  0.002051733    1.985    0.496
        75  -9.1347     93.3368    103.4105   9.0435560431e+01   4.3205660134e+01    0.7195333    0.4263154  15.46   0.00258678    2.856    0.650
        76 -10.2741     78.3026    112.3339   9.7179405854e+01   4.3549668448e+01    0.8375584    0.3775458 -62.78  0.002158336    2.447    0.591
        77  -9.7619     81.6112     99.7274   9.3060072256e+01   4.6024800373e+01    0.6724225    0.3018886 -57.82  0.001922605    2.323    0.570
        78  -9.1118    152.7524    115.0086   7.7503083412e+01   2.8492483671e+01    0.3202193    0.2404605 -77.14  0.001161649    1.811    0.448
        79  -8.9644     56.7249    113.3593   1.0396018231e+02   4.6271044487e+01     0.469121    0.2814561  48.45  0.002262519    1.946    0.486
        80  -9.6130    201.1874    122.9027   6.9113493655e+01   1.6054473376e+01    0.2995785    0.2378347 -37.64 0.0003404824    1.185    0.156
        81  -7.8694    167.1664    114.1390   7.3940870783e+01   2.5417179785e+01    0.2127509    0.1851733 -72.98 0.0004107057    1.308    0.235
        82  -8.1845     63.5005     81.9633   9.4186091004e+01   5.2782716503e+01    0.2619356    0.1291303 -56.75 0.0008750882    1.995    0.499
        83  -9.5423     59.1364    109.6153   1.0243731781e+02   4.6879870797e+01    0.2584902    0.2051657  75.98 0.0005583012    1.486    0.327
        84 -10.7627     63.3683     94.2143   9.7500123035e+01   4.9998926312e+01     1.360736    0.4779986 -53.50   0.00298667    2.443    0.591
        85  -9.7214     66.7754    104.7244   9.8955154081e+01   4.7049347163e+01    0.4965917     0.317622 -13.55  0.002138346    2.506    0.601
        86  -9.3380     36.4344    111.5196   1.0981769885e+02   4.8941559553e+01    0.3769543    0.2174342  71.97  0.001131167    2.506    0.601
        87  -9.8851     14.3149    111.3417   1.1645505398e+02   5.0816944585e+01    0.4542682    0.2378076  82.22   0.00172824    2.380    0.580
        88  -8.8455     14.7118    105.0144   1.1541673712e+02   5.2295320203e+01     0.286415    0.1488109 -35.57  0.001164791    2.291    0.563
        89  -7.8218    203.3648    112.3053   6.6058439263e+01   1.7561527761e+01    0.2398752    0.1808514   5.13  0.001102873    1.725    0.420
        90  -9.0913    158.9012    111.7051   7.5178751920e+01   2.7803056155e+01    0.2987082    0.2226731 -52.58 0.0005808652    1.390    0.281
        91 -10.9479     21.1892    101.3841   1.1281666202e+02   5.2689417204e+01     1.268641    0.6304187  80.13  0.003915803    3.510    0.715
        92 -10.3722     25.6658     77.9963   1.0669651009e+02   5.7793788657e+01    0.6333954    0.3994934  84.74  0.001904338    2.452    0.592
        93  -8.0494    222.6659    249.6918   9.0260837970e+01  -8.2075724839e+00    0.1207338   0.07307586  10.18 0.0007041768    1.672    0.402
        94 -10.3081     48.8405     54.2985   9.0993652709e+01   6.0527593753e+01    0.8126461    0.4089517  47.17  0.003552113    3.021    0.669
        95  -9.9884     55.5196     44.0182   8.4580749202e+01   6.1577143872e+01     1.144239    0.5799996  -0.39   0.00333673    6.283    0.841
        96  -9.9286     34.5942     90.8520   1.0639098536e+02   5.4053861980e+01    0.5690716    0.2887127 -80.11  0.001748868    2.853    0.650
        97 -10.1339     36.8446     81.2271   1.0340997828e+02   5.6068452924e+01    0.9791367    0.4692197 -15.89  0.003421274    4.605    0.783
        98  -9.9566     20.1604     85.6558   1.1028699817e+02   5.6459710154e+01    0.8783014    0.1673523 -58.67  0.003165968    3.178    0.685
        99  -8.9608    149.8719    110.0975   7.6885063030e+01   3.0184051535e+01    0.2398384    0.2131537 -69.69  0.000302519    1.230    0.187
       100  -8.2658     40.2914    107.3492   1.0786026614e+02   4.9570643078e+01    0.2282408    0.1445061 -82.28 0.0007197777    1.746    0.427
       101 -10.8349     44.5363    102.3297   1.0551673928e+02   5.0339037198e+01    0.7889197    0.4493393  72.54  0.002892881    3.135    0.681
       102  -9.4273      6.2653    103.5623   1.1778843144e+02   5.3179169642e+01    0.4088207    0.2274199  72.71  0.001333059    2.248    0.555
       103  -8.7102     35.6637    104.9715   1.0886809135e+02   5.0596803214e+01    0.2295144    0.1451572  -9.67  0.001135351    2.338    0.572
       104 -10.2094    149.4101    102.3672   7.4876007987e+01   3.1914770818e+01    0.7420314    0.3208086 -44.00  0.001350534    2.258    0.557
       105  -8.1586    166.0521    103.9448   7.1456890757e+01   2.7746904111e+01    0.2373048    0.2199033 -52.23 0.0004745368    1.081    0.075
       106  -8.3306     74.0748    102.4835   9.6120958399e+01   4.6538571397e+01     0.338289    0.1834511 -46.43  0.001019873    1.689    0.408
       107  -8.9769    158.9637    100.9695   7.2237990219e+01   2.9997906488e+01    0.3820849    0.2133892 -45.38  0.001025506    1.771    0.435
       108  -9.6381     93.9758     97.4589   8.8639706361e+01   4.4461857649e+01    0.4392382    0.3673625  20.72  0.001449569    1.333    0.250
       109  -8.7359     95.9717     91.0305   8.6215301432e+01   4.5546562407e+01    0.5131398    0.3275768 -14.76  0.002007255    2.485    0.598
       110 -10.3025      4.3968     89.4108   1.1630013247e+02   5.6585095087e+01    0.8762043    0.3413772 -85.25  0.003355106    3.663    0.727
       111  -9.3099      4.1566     80.2427   1.1486296705e+02   5.8698712069e+01    0.9329182    0.2281953 -36.68  0.002835638    6.433    0.845
       112  -8.8852    240.6285     96.6604   5.6085735254e+01   1.2261687850e+01    0.3437168    0.1380603  58.55  0.001327748    2.984    0.665
       113  -8.8104    164.2076     94.4018   6.9214756698e+01   3.0072776202e+01    0.3370605    0.2500004 -45.57 0.0007404241    1.328    0.247
       114  -9.6364    138.9997     92.8358   7.4721039596e+01   3.6256916638e+01    0.4221963    0.3462881 -89.38 0.0009095566    1.545    0.353
       115  -9.9766    140.1852     83.3399   7.1593136956e+01   3.7888907883e+01    0.8976584    0.3315106 -35.03  0.001979878    2.935    0.659
       116  -8.8894    157.4736     91.0729   6.9774895251e+01   3.2319367685e+01    0.4281909    0.1877874 -35.81  0.001388005    2.327    0.570
       117  -9.1298    150.4145     89.4405   7.0938023074e+01   3.4304554293e+01     0.282441    0.2329888 -43.40 0.0005706972    1.190    0.159
       118 -10.2583     47.8104     84.3290   1.0028856366e+02   5.4210793196e+01    0.6378716    0.3669095 -67.00  0.002193193    1.879    0.468
       119  -8.9949     49.5392     76.8419   9.7692109600e+01   5.5702138370e+01     0.534409    0.3332746 -26.51  0.002193314    1.822    0.451
       120  -7.6540    174.4996     89.0160   6.5500695017e+01   2.8643452770e+01     0.247001     0.148532 -39.68  0.001031231    1.601    0.375
       121  -9.9984     81.7902     72.5813   8.5108686214e+01   5.1998378787e+01    0.4614839    0.3206255 -68.66 0.0009319702    2.095    0.523
       122  -9.1238     83.4904     64.6908   8.1920301679e+01   5.3292307434e+01    0.5934632    0.3474202  -7.62  0.002168996    3.248    0.692
       123 -10.3995     85.3050     86.5678   8.8253447785e+01   4.8409956938e+01    0.5232184    0.4303696  67.64  0.000988749    1.552    0.356
       124  -9.6063     87.2389     79.0121   8.5355090315e+01   4.9714421444e+01    0.5815543     0.386986   0.11  0.001908534    2.274    0.560
       125  -8.1792    163.5265     87.2253   6.7314009422e+01   3.1617485906e+01    0.2866894    0.1463205 -42.38 0.0005818737    1.909    0.476
       126  -8.6150    241.7828     85.6058   5.3304768738e+01   1.3810244311e+01    0.1801162    0.1337661  80.23            0    1.645    0.392
       127  -7.5731    116.3415     85.2580   7.8494432634e+01   4.2782831601e+01    0.1529109    0.1191801   7.63 0.0006961109    1.586    0.369
       128 -10.3178    103.9028     82.6092   8.1290931749e+01   4.5861372935e+01    0.5935962    0.3210334 -52.78 0.0008990279    2.032    0.508
       129  -9.7848    105.2919     71.6666   7.7380145164e+01   4.7803222229e+01     0.834425    0.5642315 -23.41  0.003811497    1.654    0.395
       130  -8.7832    157.8439     83.3624   6.7440711378e+01   3.3712044677e+01    0.4768542    0.2245447 -39.40  0.001569176    2.061    0.515
       131  -9.0025    157.3035     77.0705   6.5685605106e+01   3.5008171038e+01     0.681747     0.282626 -46.01  0.001781854    2.565    0.610
       132  -8.8915    166.9651     78.8866   6.4152718436e+01   3.2329989278e+01     0.439724    0.3185301 -71.20  0.001485626    1.789    0.441
       133  -8.8504    139.9634     75.5533   6.9248046217e+01   3.9428856808e+01    0.3221218    0.2032294 -46.60 0.0006564085    1.633    0.388
       134  -8.7955    149.8298     80.2959   6.8352346024e+01   3.6206630248e+01    0.4440075    0.2089694 -36.91  0.001482268    2.105    0.525
       135  -8.6390    118.8645     80.3218   7.6259536656e+01   4.3255354193e+01    0.2965947    0.2539863 -59.21 0.0005491537    1.284    0.221
       136  -8.3492    119.9923     75.9588   7.4565112387e+01   4.3875368228e+01    0.3611213    0.2490982   3.85 0.0009801533    2.143    0.533
       137  -9.2783     74.2011     79.3298   8.9761028919e+01   5.1797407107e+01    0.6131117    0.2387158 -50.91  0.001892738    2.421    0.587
       138 -10.0990     65.9549    110.8736   1.0060616481e+02   4.5681159563e+01    0.4360216    0.3756023 -88.69  0.001088937    1.250    0.200
       139  -8.0722    248.3294     78.6734   5.0823652779e+01   1.3538794858e+01    0.1445155     0.093258 -61.06 0.0004539679    1.705    0.414
       140  -8.1065    184.3769     78.0852   6.0487586684e+01   2.8223704566e+01    0.2501675     0.208484  43.54 0.0005210703    1.273    0.214
       141  -7.0443    174.2672     78.6362   6.2591678440e+01   3.0592883094e+01     0.160449    0.1153932 -63.46 0.0006991862    1.650    0.394
       142  -9.5670    127.3944     75.2790   7.2353769430e+01   4.2369501625e+01    0.4205454    0.2751839 -52.07 0.0007878946    1.701    0.412
       143  -9.0902    129.4608     69.0288   6.9800817138e+01   4.3068342272e+01    0.5326203    0.3081621  19.84  0.001832705    3.138    0.681
       144  -8.7245    130.4790     65.0198   6.8226615961e+01   4.3553584393e+01    0.4226116    0.2192615 -36.02  0.001298548    1.912    0.477
       145  -8.9166    202.9251     74.9689   5.6396479013e+01   2.4278934766e+01    0.3587371    0.2147741 -30.68  0.001578542    1.683    0.406
       146  -9.3411    115.1563     72.2922   7.4726178979e+01   4.5628170249e+01    0.5827962    0.3043163 -33.43  0.001724371    1.988    0.497
       147 -10.1454     62.9357     60.8717   8.7848731739e+01   5.7335088063e+01     1.219202    0.2838662  35.80  0.001102823    4.690    0.787
       148 -10.6403     55.2810     70.9544   9.3900861599e+01   5.6286241706e+01    0.6472418    0.3996425  56.76  0.001491003    2.641    0.621
       149  -9.5360     55.0377     63.3317   9.1612159664e+01   5.7921062917e+01     0.501494    0.3509004   5.59  0.002363369    1.684    0.406
       150  -9.5831    175.6315    248.5246   9.8582588478e+01  -1.1109691067e+00    0.2692811    0.1687212  14.90   0.00149666    1.932    0.482
       151  -8.7737    225.4971    245.9576   8.9184936653e+01  -8.1580339389e+00    0.1576375    0.1058888 -26.53 0.0006596534    1.575    0.365
       152  -9.6657     16.0155     70.5664   1.0860072075e+02   6.0174431559e+01    0.4831979    0.2169527 -61.65  0.001267357    1.777    0.437
       153  -9.4430     17.0136     60.9587   1.0589310506e+02   6.2206084714e+01    0.6983852     0.218098 -56.64  0.003049473    2.334    0.572
       154 -10.0180    153.9459    244.1917   1.0205900550e+02   2.8949098599e+00    0.3033805     0.217439  69.92  0.001779755    1.927    0.481
       155 -10.8432     21.9064     53.6399   1.0185798603e+02   6.3385964220e+01    0.8027542    0.4716671 -85.10    0.0027739    3.841    0.740
       156 -10.0765     12.3544     45.6770   1.0363264033e+02   6.5702319073e+01    0.8267185    0.3672473   0.15  0.003456789    3.218    0.689
       157  -8.5485    182.1626    241.7745   9.6405511702e+01  -1.1658074873e+00    0.1902499    0.1302829  70.31 0.0009554638    2.880    0.653
       158  -7.9685    233.1639    241.1319   8.7079036578e+01  -8.6492467329e+00    0.1474622    0.1234682  26.71 0.0004087248    1.338    0.253
       159  -8.0969    250.0208    239.3252   8.3905239926e+01  -1.0718658641e+01    0.1581504    0.1179992  13.00 0.0005367401    1.071    0.066
       160  -8.5009    110.2833    237.0314   1.0954306369e+02   1.0852977449e+01    0.2148449    0.1460633  46.33 0.0005538742    1.221    0.181
       161  -9.5558    188.5542    234.1737   9.4062320416e+01  -1.0754186065e+00    0.2791669    0.2241274 -79.98  0.001203103    2.179    0.541
       162  -9.4677      6.9014     32.5111   1.0197818470e+02   6.8621450645e+01     0.245809    0.1796052 -14.59 0.0008463446    1.315    0.240
       163 -10.0246      7.4411     28.4064   1.0027048840e+02   6.9352240660e+01    0.3084553    0.2743382  41.88  0.001007488    1.662    0.398
       164  -7.7144    175.7913     73.2780   6.0745126986e+01   3.1156892370e+01    0.2429852    0.1949673  87.94   0.00117255    1.448    0.310
       165  -8.2543    162.7295     72.5583   6.3162273728e+01   3.4492082555e+01    0.3449156    0.1917172 -39.99  0.001062889    1.756    0.431
       166  -8.3826    169.4248     71.2543   6.1403225833e+01   3.3072505098e+01    0.2736007    0.1488843 -33.06 0.0006866504    1.854    0.461
       167  -9.1771    146.9849     69.2773   6.5613137472e+01   3.8900093391e+01    0.3693072     0.257717 -56.92 0.0009206791    1.676    0.403
       168  -7.8610    156.5123     70.0381   6.3722802440e+01   3.6454824251e+01    0.2287958    0.1490649 -36.92 0.0005245897    1.515    0.340
       169  -9.7611     94.8195     68.4611   7.9521004633e+01   5.0485705514e+01    0.4559071    0.2632647 -46.02 0.0008497291    1.720    0.419
       170  -9.5163     97.1783     58.8397   7.5458224160e+01   5.1840224304e+01    0.8043365    0.4768162 -26.11  0.003559844    1.838    0.456
       171  -9.5399    138.3223     64.9506   6.6268333733e+01   4.1728439895e+01      0.64264    0.3133741 -31.77  0.001692301    2.148    0.535
       172  -9.0959    121.1435     66.0517   7.1010019019e+01   4.5488069156e+01    0.3447611    0.2524571 -55.39 0.0006379792    1.595    0.373
       173  -8.4166    122.0445     61.0325   6.9077235027e+01   4.6178207562e+01    0.3218012    0.2403776  25.07  0.001145324    1.493    0.330
       174  -9.5023    109.7582     63.8008   7.3424996229e+01   4.8367836889e+01    0.3944199    0.2854597 -53.75 0.0007676194    1.604    0.377
       175  -9.0492    110.4888     58.3546   7.1328281649e+01   4.9184765562e+01    0.4404743    0.2969949  18.57  0.001350667    1.883    0.469
       176  -8.4497    220.8856    229.2277   8.7290513344e+01  -5.3747868401e+00    0.1833394     0.153843  -5.85 0.0004119506    1.159    0.137
       177  -7.5349    178.0222     65.0319   5.7930418794e+01   3.1987941566e+01    0.1787978    0.1690352 -46.37 0.0003317034    1.039    0.037
       178  -8.1970    170.8340     65.0351   5.9282157161e+01   3.3770989546e+01    0.2356464    0.1975951 -66.96 0.0005143968    1.287    0.223
       179  -8.5225    157.8057     63.2026   6.1340259594e+01   3.7300630953e+01    0.2612161    0.1939192 -46.33 0.0007633536    1.373    0.272
       180  -9.9279     73.2154     59.3138   8.3591447379e+01   5.6066514232e+01    0.4569491    0.2540533 -51.74  0.000835313    1.998    0.499
       181  -9.7198     74.9353     51.2370   8.0055796542e+01   5.7284487829e+01    0.8897141    0.4884205   5.64  0.003035998    4.077    0.755
       182  -8.0586    164.4157     60.3201   5.9111778523e+01   3.6133572807e+01    0.2113129    0.1359158 -44.89  0.000935476    1.576    0.365
       183  -7.6985    152.5104     60.5010   6.1615841335e+01   3.9049671414e+01    0.1498171    0.1460817 -73.82 -7.248559e-05    1.050    0.048
       184  -8.2065    152.5417     53.2732   5.9309247311e+01   4.0191568583e+01    0.3726046    0.1394916 -34.93  0.001162588    2.614    0.617
       185  -8.8156    144.2589     36.4668   5.5487853484e+01   4.4644728381e+01    0.3502928     0.232808 -59.70 0.0006095038    1.900    0.474
       186  -9.2405    147.0973     56.5098   6.1512427907e+01   4.1022230347e+01    0.8890018    0.2943828 -25.80  0.002399033    4.706    0.787
       187  -8.5030    149.7912     47.7035   5.8079472317e+01   4.1711126286e+01    0.4013101    0.1915911 -38.10  0.001142125    2.090    0.521
       188  -8.7362    149.1628     41.8245   5.6284411021e+01   4.2707185162e+01    0.3810223    0.2732221 -42.40   0.00108481    1.448    0.310
       189  -9.0625    130.0782     56.9151   6.5617232259e+01   4.5032003792e+01    0.5686939    0.2443397 -32.15   0.00158921    2.412    0.585
       190  -8.6440     87.4343     58.5515   7.8466854121e+01   5.3751046628e+01    0.2717887    0.2282719 -62.81 0.0006806546    1.513    0.339
       191  -8.4419     89.4263     52.8757   7.5756772137e+01   5.4399394615e+01    0.5182626    0.3194803   7.78  0.002148218    2.501    0.600
       192 -10.1628     85.1694     48.1065   7.5365701733e+01   5.6017266803e+01    0.3872897     0.310675 -65.70 0.0009207178    1.794    0.442
       193  -8.9196    138.8706     56.7589   6.3452226722e+01   4.2974937134e+01    0.3490126    0.2210137 -43.34 0.0005217249    1.634    0.388
       194  -8.0360    138.8098     52.3765   6.2007289009e+01   4.3687256672e+01    0.2806901    0.2023766  36.63  0.001029347    1.452    0.312
       195  -8.6854    141.9705     48.5185   6.0009773212e+01   4.3510995120e+01    0.3059375    0.2304339 -43.75 0.0004039411    1.386    0.278
       196  -8.5013    141.9807     44.3783   5.8621134425e+01   4.4115754702e+01    0.3703752    0.2072357  49.43  0.001616155    1.710    0.415
       197  -9.0276    139.4998     40.6079   5.7877932229e+01   4.5253202806e+01    0.4381964    0.2824274 -58.93 0.0008825585    2.036    0.509
       198  -9.1923    118.0905     55.4705   6.8214214627e+01   4.8013310348e+01    0.3530057    0.2654744 -65.58 0.0007431868    1.803    0.446
       199  -9.2743    120.7563     47.4103   6.4664262748e+01   4.8702339948e+01     0.627817    0.2981845 -20.34  0.001457663    2.884    0.653
       200  -8.3037    122.3345     41.3659   6.2097473308e+01   4.9235768119e+01     0.430922    0.2257965  20.80  0.001441809    3.622    0.724
       201  -7.4853    169.0242     55.9899   5.6912498972e+01   3.5666838057e+01    0.1788972    0.1704454 -44.64  0.000404909    1.050    0.048
       202  -8.9832    162.7594     53.0573   5.7201084421e+01   3.7682815435e+01    0.4628679     0.263931 -24.28  0.001557064    1.986    0.496
       203  -9.0562    105.4799     52.1855   7.0568603320e+01   5.1300615481e+01    0.6004999    0.2996198 -28.12  0.001704713    2.180    0.541
       204  -8.8312    112.1589     45.9814   6.6420407660e+01   5.0853754049e+01    0.5825633    0.3009224 -24.85  0.001677325    2.159    0.537
       205  -7.8112    172.2921     50.3958   5.4634027177e+01   3.5692770942e+01    0.2514721    0.1583424 -51.32 0.0003300189    1.704    0.413
       206  -8.0516    157.3428     49.1172   5.7017865757e+01   3.9626250202e+01    0.2068474    0.1911366 -43.40 0.0006879913    1.099    0.090
       207  -9.5914    130.5853     46.1329   6.1791051296e+01   4.6605347395e+01    0.7482349    0.3296534 -21.63  0.002187714    3.062    0.673
       208  -7.3843    162.4105     46.2223   5.5142889717e+01   3.8779576874e+01    0.1977729      0.13151 -44.54 0.0003154251    1.543    0.352
       209  -6.8143     34.6819    228.6665   1.2298427969e+02   2.2519949706e+01    0.0977564   0.08372007 -54.51 0.0007048331    1.694    0.410
       210  -7.5700    110.5401    224.5000   1.0803269487e+02   1.3088771008e+01      0.12743    0.1069261  57.69 0.0002238883    1.027    0.026
       211  -7.8251     56.0000    215.4346   1.1796041028e+02   2.2608884057e+01    0.2400988   0.06204474 -69.16 0.0009021821    3.794    0.736
       212  -9.0331    219.3615    211.7101   8.4528532601e+01  -2.7033696410e+00     0.263585    0.2297775 -67.96  0.001133423    1.882    0.469
       213 -10.0081     76.1220     32.2785   7.2102062464e+01   6.0168509213e+01     0.416082    0.3774102 -82.11 0.0009835504    1.646    0.392
       214  -9.7202      8.1988    208.3845   1.2654777126e+02   2.9277165627e+01     0.313272    0.1474987  46.29   0.00190302    1.852    0.460
       215  -9.6025     79.4735     23.8831   6.7375113092e+01   6.0700683419e+01     0.457741    0.2605066  22.86  0.001212235    2.026    0.506
       216  -9.3522     84.8276     21.8090   6.4764706515e+01   5.9922182368e+01    0.3303939    0.2631788  17.81  0.001093942    1.143    0.125
       217  -8.9790     40.1805     34.6550   8.7252147213e+01   6.5215115636e+01    0.4602685    0.2428336  29.97  0.002435924    2.036    0.509
       218  -9.8535     37.8065     41.9900   9.1143276142e+01   6.4174581358e+01     0.348062    0.3050944 -72.21  0.001496398    1.658    0.397
       219 -10.1377     35.8873     38.0023   9.0465414915e+01   6.5116111754e+01    0.3870379    0.1917122 -35.02 0.0003656723    1.764    0.433
       220  -9.1866    104.9943     40.8791   6.6504311561e+01   5.3183437140e+01    0.4174477    0.2215162 -43.33  0.001071997    2.106    0.525
       221  -8.6971    106.4690     36.4615   6.4405056774e+01   5.3500323967e+01    0.2703483    0.2265486  44.29  0.001015918    1.169    0.145
       222  -8.9787    153.6170     40.5246   5.4989489512e+01   4.1777850738e+01    0.3598193     0.211107 -33.68  0.001157523    1.728    0.421
       223 -10.4739     90.4793     38.1701   6.9777782566e+01   5.6581687689e+01    0.8461388    0.3285589  34.48  0.002963693    3.319    0.699
       224  -7.1619    160.2956     39.6687   5.3474548010e+01   4.0221595984e+01    0.1498393     0.107719 -65.11 0.0005391952    1.638    0.389
       225  -8.5365     53.5482     39.1626   8.3456071834e+01   6.2703417048e+01    0.2136707    0.1772473  17.80 0.0007232068    1.232    0.188
       226  -8.5439    132.9635     36.0087   5.7707532614e+01   4.7459985864e+01    0.2578256    0.2054392 -15.27 0.0004579533    1.336    0.252
       227 -10.8280    134.1023     30.8935   5.5665230473e+01   4.7841376540e+01    0.3573194     0.265787   8.60            0    1.577    0.366
       228  -9.0727    118.8859     34.6157   6.0479621807e+01   5.0965535687e+01    0.3183695     0.198038 -25.85 0.0005857467    1.665    0.399
       229  -9.7457     11.8577    206.8322   1.2578399180e+02   2.9251236402e+01    0.4276172    0.1855176  35.60  0.002414803    2.359    0.576
       230 -10.3471    238.9488    204.7989   7.9737543502e+01  -4.7665396840e+00    0.2362655    0.2014696  12.21 0.0004229191    1.148    0.129
       231  -8.7401    207.2809    206.1254   8.5780618399e+01   1.0042743783e-01    0.2171715    0.1698081  35.71 0.0002985027    1.249    0.199
       232  -9.0903    110.2764     32.9673   6.2042834418e+01   5.3137008445e+01     0.355643    0.2240804 -44.95  0.001000039    1.850    0.460
       233  -9.3805     60.3961     33.8420   7.8545326471e+01   6.2571524786e+01    0.3855575    0.2531603 -50.13  0.001399052    1.974    0.493
       234  -8.7022     45.5080     15.9414   7.6552925343e+01   6.7413930907e+01     0.260885    0.1997001  -2.40  0.001406563    1.082    0.076
       235  -9.7733    123.9993    206.0041   1.0278077089e+02   1.4479383275e+01    0.1884834    0.1694744  54.49  0.001160021    1.005    0.005
       236  -8.5413     42.1198     28.1234   8.3651163115e+01   6.6064630656e+01    0.2259348    0.1614896  -7.41 0.0002811645    1.300    0.231
       237  -8.7084     46.4962     20.4789   7.8289871656e+01   6.6640748570e+01    0.3578085    0.1787152 -25.39  0.001437763    1.936    0.484
       238  -8.7481    208.5503    201.6275   8.4712847482e+01   5.9089577601e-01    0.2175213    0.1860492   7.72 0.0002560531    1.017    0.017
       239  -9.1424    191.5277    193.3282   8.6485814571e+01   4.9187559929e+00    0.7862378    0.3903623 -60.74  0.002363088    5.798    0.828
       240  -8.2655     92.0256     21.4412   6.2446100706e+01   5.8508638635e+01    0.3177411    0.1662784  33.10 0.0007812029    1.989    0.497
       241  -7.2842    218.6987    197.2705   8.1980933978e+01  -4.2959840990e-01    0.1131618    0.1064258  69.00 0.0003034353    1.529    0.346
       242  -9.0147    144.3089     26.0186   5.1957345898e+01   4.5926433111e+01    0.2387308     0.221018 -44.75  0.001272105    1.151    0.131
       243  -8.4227    208.9947    196.9853   8.3758285416e+01   1.2527953718e+00    0.1980183    0.1698392   7.34  0.001205106    1.021    0.021
       244  -8.5663    128.4077     25.8321   5.5073082333e+01   4.9822751479e+01    0.2632475    0.2119037 -71.28 0.0006038679    1.541    0.351
       245 -10.1065    176.7760    192.3254   8.9303752739e+01   7.7617019036e+00    0.2523627    0.2225104  40.83 0.0004129578    1.132    0.116
       246  -8.5936    164.2912     22.9568   4.7580826089e+01   4.1281648274e+01    0.2305982    0.1830993  68.63 0.0005036841    1.178    0.151
       247  -8.3482    140.2498     22.6173   5.1560095854e+01   4.7313972872e+01    0.2461276    0.1561838 -38.42 0.0006359373    1.675    0.403
       248  -9.4225    118.8950     21.3118   5.5496709339e+01   5.2585381716e+01    0.2864696    0.2751515  63.46 0.0004955102    1.129    0.114
       249  -7.5785    235.7424    192.6236   7.7986622669e+01  -2.5105862567e+00    0.1609839    0.1169411  40.74 0.0006003362    1.524    0.344
       250  -9.0323    111.1200     21.2836   5.7307146347e+01   5.4377162186e+01    0.3915441    0.1902452 -19.30  0.001347639    2.309    0.567
       251  -8.5153    112.3348     15.5650   5.4786296558e+01   5.4713250443e+01    0.2223147    0.1921759 -22.49  0.000513831    1.237    0.192
       252  -8.1275    149.7753     25.0198   5.0631540798e+01   4.4684392470e+01    0.2155927    0.1710573 -78.19 0.0009467224    1.431    0.301
       253  -7.8222    139.8130     17.9943   5.0051741610e+01   4.7919246097e+01    0.2190209    0.1395996 -52.23  0.000418324    1.870    0.465
       254  -8.2856    128.9683    191.5060   9.9462126861e+01   1.6561233207e+01    0.1889442    0.1804185 -89.26 9.983203e-05    1.079    0.073
       255  -8.4773      1.5094    190.5204   1.2678582342e+02   3.3585793303e+01    0.1327717    0.1129561  17.05 0.0009089565    1.772    0.436
       256  -7.1217    189.4796     15.5196   4.2034346748e+01   3.5804244347e+01    0.1331363    0.1217759  78.91 6.932474e-05    1.069    0.064
       257  -9.2007     61.5742    185.6427   1.1378567274e+02   2.8293279160e+01    0.2216125    0.1971875 -83.92  0.001229338    1.137    0.121
       258  -7.3863    245.6830    183.6712   7.4491650982e+01  -2.7671453163e+00    0.1361822    0.0884216   0.06 0.0005349605    1.680    0.405
       259  -8.8716    197.9713    176.8145   8.1948520653e+01   6.6406880076e+00    0.2172999    0.1939108 -20.68 0.0003503744    1.094    0.086
       260  -7.8917    231.2517    170.9731   7.4428180042e+01   1.6036961955e+00    0.2732938     0.126505 -38.29   0.00119901    2.045    0.511
       261  -8.8030    229.7544    167.0538   7.3874098084e+01   2.5064773519e+00    0.2627834    0.1267373 -38.60 0.0009837755    1.962    0.490
       262  -8.6586     62.4524    170.0563   1.1167224294e+02   3.1766464533e+01     0.186657    0.1818189  36.54 0.0002685853    1.279    0.218
       263  -8.9017    250.1338    167.8475   7.0523131566e+01  -1.0984187529e+00    0.1907305    0.1738668 -29.85 0.0007940161    1.275    0.216
       264  -7.2494    125.5668    168.4716   9.6224324541e+01   2.2123587545e+01    0.1428428    0.1392753  74.93 6.609797e-05    1.024    0.024
       265  -7.1509    130.7246    164.6301   9.4266366016e+01   2.2022588117e+01    0.1486587    0.1158911 -18.23 0.0007005542    1.681    0.405
       266  -8.6243    133.5125    146.0177   8.9742826165e+01   2.5674064576e+01     0.518482    0.1517578 -52.15  0.001491144    3.705    0.730
       267  -9.2998     66.9301    144.1602   1.0671542225e+02   3.7396057521e+01    0.4862374    0.2827176  60.04  0.002214776    2.050    0.512
       268  -8.3018    237.9993    146.0000   6.7875064211e+01   4.5109245047e+00    0.2125339   0.07935929  46.62 0.0005990421    2.958    0.662
       269  -9.0790    243.5088    131.9973   6.3837505990e+01   5.8216302275e+00    0.3628682    0.1948623 -11.53  0.001313239    3.347    0.701
       270  -8.7231    112.3518    133.9619   9.2487339971e+01   3.2551088833e+01    0.4157826    0.2745979  73.67  0.001203715    2.262    0.558
       271  -8.2510    143.5435    132.5286   8.4164059347e+01   2.6663371251e+01    0.3655395    0.2488164  85.90  0.001392793    2.538    0.606
       272 -10.1784    133.8414    131.6174   8.6361637380e+01   2.8882939468e+01    0.6018401    0.4284728  51.53  0.002357566    1.481    0.325
       273  -8.9374     82.9658    131.4179   9.9971852820e+01   3.8194607780e+01    0.6513791    0.3656586  74.16   0.00225055    3.527    0.716
       274 -10.3327     71.1614    125.7476   1.0217830664e+02   4.1331261864e+01    0.6364259    0.4658903 -58.85  0.001308295    1.224    0.183
       275 -10.3299     58.3715    124.6883   1.0567189518e+02   4.3293139785e+01     1.031401    0.5194266  66.26  0.002316331    3.706    0.730
       276  -9.8302     98.4811    128.4675   9.5021552290e+01   3.6361001673e+01     0.683508    0.4234734  78.15   0.00213974    2.883    0.653
       277  -8.4447    100.6652    119.0419   9.2229649040e+01   3.8231181436e+01    0.6051407    0.3449419   8.11  0.001681684    5.399    0.815
       278  -7.6169    160.5035    127.9502   7.8996980960e+01   2.4014403940e+01    0.2443904     0.151764 -44.61  0.001025356    1.578    0.366
