#   1 NUMBER                 Running object number                                     
#   2 MAG_AUTO               Kron-like elliptical aperture magnitude                    [mag]
#   3 X_IMAGE                Object position along x                                    [pixel]
#   4 Y_IMAGE                Object position along y                                    [pixel]
#   5 X_WORLD                Barycenter position along world x axis                     [deg]
#   6 Y_WORLD                Barycenter position along world y axis                     [deg]
#   7 A_WORLD                Profile RMS along major axis (world units)                 [deg]
#   8 B_WORLD                Profile RMS along minor axis (world units)                 [deg]
#   9 THETA_WORLD            Position angle (CCW/world-x)                               [deg]
#  10 FWHM_WORLD             FWHM assuming a gaussian core                              [deg]
#  11 ELONGATION             A_IMAGE/B_IMAGE                                           
#  12 ELLIPTICITY            1 - B_IMAGE/A_IMAGE                                       
         1 -11.7126     43.9721     29.0292   9.8925011659e+01   6.6666770888e+01    0.5347287    0.3516078  -3.37  0.003022297    1.605    0.377
         2 -11.3816     74.9960     21.5209   8.2996033466e+01   6.2459719781e+01    0.3496857    0.2906145 -30.17   0.00117203    1.354    0.261
         3 -11.5691     41.1448     18.7111   9.5483600288e+01   6.8562582694e+01    0.6819666    0.3765578 -18.71  0.003631407    1.916    0.478
         4 -10.9578     22.1954      9.2309   1.0051602741e+02   7.2269614864e+01    0.3547261     0.190884  14.16  0.002023075    1.905    0.475
         5 -11.5057     35.0497     13.0364   9.5647288818e+01   7.0166126495e+01    0.4099487    0.2686226 -33.07  0.001956054    1.540    0.351
         6 -11.5893     39.9620      9.0339   9.1182454350e+01   6.9973551542e+01    0.4422143    0.2629374  -9.21  0.001272295    1.740    0.425
         7 -11.9355     30.2473      7.2484   9.5087501895e+01   7.1545675783e+01    0.3475432    0.2820491  -3.98  0.001347112    1.121    0.108
         8 -11.2790     13.3084     20.7173   1.1109403743e+02   7.1408520141e+01     0.301227    0.2173692 -45.19  0.001147958    1.431    0.301
         9 -11.1862     13.6841     15.9444   1.0873222906e+02   7.2142062897e+01    0.3173735    0.1907549  20.16  0.001314041    1.652    0.395
        10 -11.7187     88.9476     14.0662   7.5383229739e+01   6.0394007159e+01    0.5174108    0.3762104 -48.67  0.002017804    1.807    0.447
        11 -10.1261     26.7584     16.2113   1.0153492154e+02   7.0765872990e+01    0.2540976     0.212426 -15.93  0.001617469    1.190    0.160
        12 -11.4656    190.7726     14.3700   5.7534007830e+01   3.5518320040e+01    0.3216773    0.1975633 -58.87  0.001474084    1.595    0.373
        13 -10.8426    157.4183     12.4716   6.1059735315e+01   4.4057075083e+01    0.2470163     0.206001 -52.56 0.0005932708    1.278    0.218
        14 -10.4657    119.1360     12.0816   6.7352128840e+01   5.3630625508e+01    0.2272783    0.1664692  58.65 0.0003086076    1.170    0.145
        15 -11.6897     56.5151     10.9257   8.4913429498e+01   6.7088314593e+01    0.6121925    0.2650141 -21.62  0.002862264    2.555    0.609
        16 -11.2987     55.7114      4.6447   8.2081935322e+01   6.7881856135e+01    0.3381705    0.2243619  12.31  0.002038788    1.445    0.308
        17 -10.8965     57.7019      2.3012   8.0124192705e+01   6.7746746054e+01     0.232069    0.2177665 -38.50 0.0002070408    1.486    0.327
        18 -10.7014     92.7581      9.2272   7.2306319788e+01   6.0018478913e+01     0.265778    0.2056578  14.90  0.001051322    1.326    0.246
        19 -10.8462     14.5411      8.5408   1.0460036818e+02   7.3171880878e+01    0.2760877    0.1627874 -12.89  0.001158983    1.576    0.365
        20 -11.4352     10.4044      6.1364   1.0587347459e+02   7.3905922550e+01    0.4569846     0.344003 -46.10   0.00322114    1.738    0.425
        21 -10.3896      2.7847      2.6785   1.0894802726e+02   7.5048196539e+01    0.2032183    0.1443647  15.03  0.000638227    1.426    0.299
        22 -11.4760      4.7361      9.7764   1.1124675872e+02   7.3834515950e+01    0.3498462    0.1885863  14.82 0.0009080067    1.818    0.450
        23 -11.4864      2.4559      6.2311   1.1097919358e+02   7.4546572852e+01    0.2550637    0.1761114   1.94 0.0009648215    1.291    0.225
        24 -11.6141    151.1508      7.2307   6.0352510183e+01   4.6124471878e+01    0.3262898    0.3000514   8.68  0.001098856    1.319    0.242
        25 -11.2931    210.1038      7.3187   5.3994864041e+01   3.1617812233e+01     0.230634    0.1723871 -76.39  0.001177584    1.121    0.108
        26 -11.9638    195.1409      5.7704   5.4945111528e+01   3.5334237925e+01    0.6027468    0.2686405  61.52  0.002856466    2.049    0.512
        27 -11.6695     80.2160      1.7549   7.2479949342e+01   6.3362371247e+01    0.3741549    0.1659646  56.49  0.001008588    1.947    0.486
        28 -11.2995     72.1422      6.1730   7.6967961269e+01   6.4638897037e+01    0.6518503    0.1870537  48.31  0.002647741    2.712    0.631
        29 -10.9488    145.1176      5.6932   6.0733909263e+01   4.7773067301e+01    0.2070705    0.1740726 -51.48 0.0005549721    1.310    0.237
        30 -11.2025    130.1211      4.0786   6.2530119447e+01   5.1636436875e+01    0.3436185    0.1751656  58.66  0.001679854    1.600    0.375
        31 -10.6493    120.2332      4.3515   6.4352199880e+01   5.4030285407e+01    0.4114668     0.140779  53.52   0.00113735    2.278    0.561
        32 -10.0675    235.5730      4.2595   5.1417491784e+01   2.6193429978e+01    0.1462859    0.1144786 -26.63 0.0009484112    1.630    0.387
        33 -10.0312     37.5974      2.8721   8.9012435160e+01   7.1026594565e+01     0.278105    0.1022745 -28.88   0.00113269    2.697    0.629
        34 -10.2102    230.8018      3.1909   5.1517017246e+01   2.7347249812e+01    0.1503686    0.1369682  78.21 0.0006649523    1.332    0.249
        35 -11.0786    172.8077      3.1140   5.6500341914e+01   4.1066864275e+01    0.2710031    0.1682144  85.87 0.0007721237    1.447    0.309
        36  -9.7486    176.5249      2.4855   5.5935481183e+01   4.0201644433e+01    0.2123964     0.195382  77.37  0.001399495    1.161    0.138
        37 -11.2988    160.5182      2.3354   5.7687920418e+01   4.4201333881e+01    0.2937784    0.2307313  78.07   0.00177469    1.070    0.065
        38 -10.8445     19.4929      2.6246   9.8489194545e+01   7.3445935202e+01    0.3179943     0.169553  18.82  0.001524092    1.786    0.440
        39  -9.9714    100.0735      1.7351   6.7456077788e+01   5.8991396357e+01     0.186004    0.1647081  79.80 0.0004431116    1.255    0.203
        40  -9.7214     89.6834      2.4938   7.0256198825e+01   6.1265809716e+01    0.1602659     0.114036  68.15 0.0009169116    1.466    0.318
        41  -9.5149     50.0143      2.1479   8.3077878095e+01   6.9115525637e+01    0.2842231   0.07296982  48.47  0.001097676    3.547    0.718
        42  -9.9738    112.6325      3.0635   6.5329649013e+01   5.5956130880e+01    0.2225846    0.1621556  75.36 0.0005363483    1.357    0.263
        43  -9.3725    204.3011      1.3129   5.3078338250e+01   3.3583495204e+01    0.1183477   0.08908808  50.51 0.0002328221    1.610    0.379
        44  -9.3416     67.4061      1.4815   7.6285101759e+01   6.5987140214e+01    0.1245731   0.09867985  27.38 0.0001123208    1.041    0.040
        45  -9.1701     34.3663      1.2520   8.9691748639e+01   7.1676957128e+01    0.1206681   0.07108365  15.22 0.0003229752    1.626    0.385
        46 -10.7024    248.2041    129.2209   7.7187259860e+01   5.5741416071e+00    0.2221248    0.1480929 -65.94   0.00107606    2.176    0.540
        47 -12.2585      5.2349    240.8378   1.4607552262e+02   2.3628772468e+01    0.4883225    0.1929515  48.09  0.002864673    1.863    0.463
        48 -10.8423      1.6925    248.6800   1.4700540662e+02   2.2501823982e+01    0.3394438    0.1254253 -85.03  0.001886039    2.431    0.589
        49 -13.2641      8.5237    246.0195   1.4571948158e+02   2.2320154066e+01      1.36859    0.3127758  37.21  0.006428503    3.222    0.690
        50 -13.4891      9.9590    229.7570   1.4471389814e+02   2.5323247374e+01    0.7956477    0.4305016  70.88  0.005003554    1.470    0.320
        51 -10.5913      4.3248    113.6681   1.3718984686e+02   5.2179021354e+01    0.3145168    0.1515329  -4.05  0.001472622    3.191    0.687
        52 -10.6963     65.5247    111.2435   1.1656424778e+02   4.6791005733e+01    0.3960176     0.167211 -54.69   0.00154666    2.140    0.533
        53  -9.6025     42.0154    113.1760   1.2481966222e+02   4.9241134357e+01    0.2106324    0.1286329 -44.88 0.0006720597    1.605    0.377
        54  -9.3773     35.4611    130.5188   1.2982071028e+02   4.5623799323e+01    0.1357448    0.1157689 -62.92  8.64489e-05    1.089    0.082
        55 -10.0049    249.1960    111.6078   7.3255266935e+01   8.2776715119e+00     0.170841    0.1249692  40.51 0.0009122834    1.634    0.388
        56 -10.9002      4.1668    109.2221   1.3669511200e+02   5.3247421385e+01    0.2862721    0.1605855  24.04  0.001600132    2.115    0.527
        57 -10.1619     57.8345    107.8138   1.1837947965e+02   4.8674323571e+01    0.2589585    0.1687233   8.52  0.001191328    2.072    0.517
        58 -10.3108     12.4432    108.3697   1.3388035385e+02   5.2948426089e+01    0.2732138    0.1071866  26.07  0.001255678    2.830    0.647
        59  -9.6192     93.3376    104.3233   1.0576879591e+02   4.3883378105e+01    0.1577491     0.119605 -11.96 0.0004072097    1.717    0.418
        60  -9.8083    113.5108    102.4971   9.9114659757e+01   4.0298263522e+01    0.1545018    0.1523792  -4.89 8.185515e-05    1.024    0.023
        61 -11.0326     57.6054    101.7417   1.1706947295e+02   5.0166065709e+01    0.2759244    0.2347535  53.74  0.001545737    1.321    0.243
        62 -10.0584     24.8331    101.8375   1.2861860116e+02   5.3609738978e+01    0.1724337    0.1419009  83.65 0.0003508736    1.318    0.241
        63 -10.8556     21.1682     98.9866   1.2940469572e+02   5.4578287354e+01    0.2663131     0.133002 -61.46   0.00111427    1.623    0.384
        64 -11.1382     18.2342     94.4186   1.2964590109e+02   5.5875554990e+01    0.4196236    0.2235131 -48.39   0.00206103    1.622    0.384
        65 -10.0000     62.0378     98.2809   1.1468027126e+02   5.0388023754e+01     0.198086    0.1879331 -51.10  0.001159044    1.039    0.037
        66  -9.3544    129.4941     97.5292   9.3211273105e+01   3.7862836589e+01    0.1558796     0.153905  54.77 3.440036e-05    1.002    0.002
        67  -9.6183    101.0452     95.9138   1.0101680659e+02   4.4309092466e+01    0.3399483    0.2135739 -74.41  0.001246098    2.783    0.641
        68 -10.9531     78.8602     94.9864   1.0798960459e+02   4.8579397570e+01    0.2235926    0.2096353  19.61 0.0002880972    1.101    0.092
        69 -10.9100     27.3250     91.1629   1.2568017215e+02   5.5936444657e+01    0.5230007    0.2506806  44.43  0.002379197    2.631    0.620
        70 -10.7307     58.3623     91.3415   1.1422930513e+02   5.2509075987e+01    0.3211782    0.2373836 -17.63  0.000994908    1.575    0.365
        71 -11.2156      1.8310     90.0746   1.3486461449e+02   5.7864308369e+01    0.2634704    0.1360791 -67.28  0.000267727    1.525    0.344
        72 -10.4117     17.9772     88.4738   1.2864415110e+02   5.7285471126e+01    0.5257451    0.2571152 -11.82  0.002317509    3.082    0.675
        73 -10.6621     11.0010     89.8505   1.3148722231e+02   5.7419788345e+01    0.3994338    0.1664958 -48.67   0.00191902    1.990    0.498
        74 -10.6457     10.5995     85.2157   1.3082172410e+02   5.8516121275e+01    0.2853694    0.1659894 -59.89  0.001605371    1.366    0.268
        75 -10.5111     76.3854     89.1197   1.0719741893e+02   5.0314252200e+01    0.2539775    0.2348957  10.83 0.0005074712    1.106    0.096
        76 -10.1280     43.5239     89.3169   1.1920351235e+02   5.4794389220e+01    0.4407269    0.1814523  46.65     0.001649    3.455    0.711
        77  -9.8627    107.6883     89.3236   9.7044892216e+01   4.4378383545e+01    0.1541968    0.1237022 -89.55  0.000703936    1.656    0.396
        78 -11.0975     98.9019     89.1994   9.9728274972e+01   4.6197359516e+01    0.2895015    0.2182952  18.82   0.00131005    1.558    0.358
        79  -9.3106     33.0012     88.0588   1.2288075571e+02   5.6157078419e+01    0.1653144    0.1169324 -57.81 0.0004338026    1.231    0.188
        80  -9.5499    124.1854     86.8401   9.1524907214e+01   4.1276140458e+01    0.2160527    0.1871128   8.10 0.0006570832    1.317    0.241
        81 -11.4187     54.7896     85.1027   1.1389610056e+02   5.4406536411e+01    0.3152826    0.2456539 -73.27 0.0008872626    1.503    0.335
        82  -9.8138     25.3121     84.8988   1.2512780376e+02   5.7558733430e+01    0.1853296     0.138237 -59.62 0.0006469353    1.163    0.140
        83  -9.6206     72.5141     83.7706   1.0701187637e+02   5.2126638236e+01     0.270584     0.176284 -13.13 0.0006589751    2.207    0.547
        84 -10.6527      3.5538     83.1593   1.3313211245e+02   5.9369189690e+01    0.2903537    0.2113546  76.02  0.001552089    1.637    0.389
        85 -11.2942     64.0444     79.8539   1.0894712592e+02   5.4286339355e+01    0.4680637    0.3188889 -50.11  0.002289861    1.399    0.285
        86 -10.0816    250.3786     80.8199   6.6425896966e+01   1.2935375028e+01    0.1840741    0.1148835 -29.96 0.0006693525    1.661    0.398
        87 -10.3381     89.7549     79.5647   9.9753280919e+01   5.0003877605e+01    0.4554098    0.2814624 -26.72   0.00194532    1.978    0.494
        88  -9.4268    124.4680     78.9901   8.9045658112e+01   4.2756246537e+01    0.2099562     0.131745 -64.03 0.0005742309    2.323    0.570
        89 -10.5361    177.0439     77.1571   7.6496164180e+01   3.0230346471e+01    0.3760813    0.2465528  50.57  0.001398107    1.538    0.350
        90  -9.3058     78.1672     83.3497   1.0488575197e+02   5.1284618750e+01    0.1995198    0.1313985  46.91 0.0002472819    1.677    0.404
        91 -11.4803     56.3701     75.4389   1.1055089178e+02   5.6329680898e+01    0.5063596    0.2956696  18.41  0.001851158    2.053    0.513
        92 -10.7840     16.3392     75.6095   1.2666592664e+02   6.0337402016e+01    0.3876375    0.1934651   3.40  0.001890471    2.583    0.613
        93  -8.9416    160.6599     75.2584   7.9221432405e+01   3.4646773443e+01    0.1544949     0.117491 -84.76 0.0002217275    1.583    0.368
        94  -9.5483     70.2969     75.3337   1.0525362530e+02   5.4290790079e+01    0.1472607    0.1050649 -16.41 0.0003552855    1.646    0.392
        95 -11.2818     34.4857     73.2489   1.1867443886e+02   5.9364960857e+01    0.5186529    0.3050201  28.83  0.002730345    1.868    0.465
        96  -9.4879    136.5050     74.4803   8.4512866611e+01   4.0748337589e+01    0.1531226    0.1480538  56.96 0.0001138634    1.003    0.003
        97 -11.7157    105.8914     71.6312   9.2035820155e+01   4.8311832066e+01    0.2852809    0.2588997   8.28 0.0004142592    1.127    0.113
        98  -9.3682     92.4802     72.4646   9.6563052594e+01   5.0910747828e+01     0.145188    0.1401672   2.87 0.0002255804    1.031    0.030
        99 -10.3633     76.1454     71.2119   1.0179873822e+02   5.4169626395e+01     0.186721    0.1727417 -78.86 0.0007402615    1.323    0.244
       100 -10.0449     10.3568     68.5816   1.2760136437e+02   6.2272749399e+01    0.2680427    0.1245091 -58.75  0.001381718    1.692    0.409
       101 -11.0938      3.6194     73.5944   1.3140674336e+02   6.1523664186e+01     0.310307    0.1767037 -11.12  0.001695842    2.087    0.521
       102  -9.5764    114.9362     66.8011   8.7780964716e+01   4.7203800028e+01    0.2485718    0.1804399  82.59  0.001085896    2.029    0.507
       103 -10.7993     34.4698     64.9316   1.1635971605e+02   6.1157641125e+01    0.3283229    0.2055624 -37.09 0.0006874336    1.436    0.303
       104 -11.4288     39.2805     62.1597   1.1346493086e+02   6.1229667169e+01    0.6877452    0.2630738 -35.06  0.001328759    3.128    0.680
       105 -10.7430    131.4922     64.4368   8.2595502910e+01   4.3729011468e+01      0.40172    0.2909592  53.29   0.00148347    1.320    0.243
       106 -10.0883     14.3173     63.7139   1.2476672469e+02   6.3084239157e+01    0.2643788    0.1514714 -78.82   0.00132656    2.292    0.564
       107 -11.2033      4.4688     62.2365   1.2872778891e+02   6.3968910045e+01    0.4250193    0.2427967  71.28  0.001907215    3.206    0.688
       108 -11.3432      9.7553     60.3985   1.2596763228e+02   6.4075905795e+01    0.3899323    0.1970645 -39.73 0.0001006266    1.684    0.406
       109  -9.6337     72.2242     63.1770   1.0053365989e+02   5.6420591148e+01    0.1783698    0.1665468 -71.43 0.0004286944    1.329    0.248
       110 -10.3430     62.7994     62.0391   1.0374421767e+02   5.8157571774e+01    0.2937435    0.1724721 -35.14  0.001407467    1.671    0.402
       111  -9.5952     66.5071     60.5692   1.0179360761e+02   5.7861035054e+01    0.1994925    0.1258624  24.96 0.0005806644    1.694    0.410
       112  -9.6548    100.9924     61.9316   9.0266636887e+01   5.1137457596e+01    0.2199783    0.1819298 -82.95 0.0005703751    1.648    0.393
       113 -13.0878     20.8375     57.5854   1.2023926895e+02   6.3911528234e+01      0.56885    0.3611452 -68.93  0.003152344    1.824    0.452
       114 -12.7085      5.2740     51.4875   1.2578622806e+02   6.6189177125e+01    0.4882429    0.2361673 -36.32 0.0007799318    1.783    0.439
       115 -11.8857     16.0324     45.5821   1.1889875863e+02   6.6698648295e+01     0.696524    0.4072589  -4.62  0.003946797    1.888    0.470
       116 -11.0800     54.6163     57.8489   1.0558214670e+02   6.0171671458e+01    0.5293129    0.4289059 -86.84  0.002875966    1.983    0.496
       117  -9.8973    118.8615     59.0496   8.4096673973e+01   4.7638113143e+01    0.2167429    0.1990328 -77.33 0.0003350349    1.234    0.190
       118  -9.6024     83.5278     56.9782   9.4254713757e+01   5.5536656458e+01    0.2387454    0.1353683 -41.77 0.0003762409    1.799    0.444
       119 -11.9889     88.3245     53.4822   9.1337965929e+01   5.5209113273e+01    0.4971706    0.3781732  26.82 0.0007594777    1.308    0.236
       120  -9.4739     71.5402     57.1614   9.8664224614e+01   5.7667176438e+01    0.1958685    0.1308157 -41.06 0.0005776115    1.481    0.325
       121 -10.5100    225.1705     54.6984   6.3519364811e+01   2.2221261176e+01    0.3977313    0.2798095 -12.22  0.001991762    2.120    0.528
       122 -11.9741    114.3287     54.0498   8.3617576876e+01   4.9504656094e+01    0.3402666    0.2993722  41.82 0.0006178885    1.069    0.065
       123  -9.9639     34.3052     53.5534   1.1288897827e+02   6.3500152054e+01    0.2982063    0.1378427 -29.48  0.001291206    2.536    0.606
       124 -12.0859     66.5312     52.5351   9.8885053271e+01   5.9344537848e+01    0.5018518    0.2252141  33.27  0.001662376    2.332    0.571
       125  -9.2038    175.9866     52.0299   6.9688655243e+01   3.4504667992e+01     0.175472    0.1573812  80.67  0.000371281    1.035    0.033
       126  -9.0175    232.3002     51.7109   6.2028935738e+01   2.1053025574e+01    0.1375354   0.08694907 -65.77  0.000220429    1.561    0.359
       127  -9.9276     75.4667     50.0223   9.4559435266e+01   5.8239228280e+01    0.2900408    0.1827716  -8.51 0.0008787191    2.174    0.540
       128 -10.4935     78.5070     46.1203   9.1960960267e+01   5.8325937626e+01    0.2989117    0.2067379  36.88 0.0006443499    1.380    0.276
       129 -10.1753     60.0494     58.2177   1.0350595176e+02   5.9312166092e+01    0.2273497    0.1811596 -36.14 0.0005039389    1.184    0.155
       130  -8.9665    212.0000     48.7927   6.3691205210e+01   2.6107679417e+01    0.1690284    0.1039765  69.81 0.0003198308    1.593    0.372
       131 -10.7650    103.0473     47.3916   8.4451843192e+01   5.3093856730e+01     0.380194    0.1833807  35.28 0.0007627986    2.405    0.584
       132  -9.0021     47.3092     47.3061   1.0487386421e+02   6.3145174906e+01     0.134257   0.08979543 -13.03 0.0004770184    1.612    0.380
       133 -10.0381    135.6725     46.1539   7.5636797945e+01   4.5562031850e+01    0.2344324    0.1870069  69.36 0.0003676244    1.247    0.198
       134  -9.4876     65.0025     46.2945   9.7108464306e+01   6.0683787604e+01    0.1838768    0.1542238  20.06 0.0002850382    1.127    0.113
       135  -9.7995     30.6768     45.8271   1.1191803812e+02   6.5367622482e+01    0.2020198    0.1281639 -33.28 0.0004285742    1.375    0.273
       136 -11.1447     26.0980     43.6579   1.1334251271e+02   6.6225049685e+01    0.2575127    0.2281359 -16.33  0.000632602    1.132    0.117
       137  -9.5549     91.0500     44.6846   8.7139923992e+01   5.6074857492e+01    0.1926366    0.1680238  29.66 0.0004232673    1.057    0.054
       138 -10.1337     95.0116     42.1693   8.4925334899e+01   5.5620890513e+01    0.2064762    0.1891751  25.14 0.0006374797    1.018    0.018
       139 -10.1085     69.7837     41.5828   9.3389364997e+01   6.0640376102e+01    0.2749875    0.1958402   0.62  0.001149335    1.557    0.358
       140 -10.5559     36.4616     41.4392   1.0757072010e+02   6.5549005131e+01    0.2316447    0.1850523   0.01 0.0009904489    1.159    0.137
       141 -10.8508      5.7195     39.3830   1.2213658785e+02   6.8581873098e+01    0.2391506    0.1144614 -39.45 0.0001619001    1.656    0.396
       142 -10.7253    139.4078     40.5276   7.2985807717e+01   4.5406604990e+01    0.3001735    0.2345683  87.43  0.001202108    1.420    0.296
       143  -9.3831     51.0058     39.8049   1.0032879321e+02   6.3943435026e+01    0.1749761     0.136641 -51.71  0.001018631    1.615    0.381
       144  -9.5469     43.0266     40.3891   1.0411993614e+02   6.4932943071e+01    0.2016667    0.1389241  -2.23 0.0009438854    1.509    0.337
       145 -10.4288     12.6210     38.6449   1.1834388588e+02   6.8281776550e+01    0.3667243    0.1246222 -57.37  0.001617569    2.801    0.643
       146 -10.2698    132.5409     38.6186   7.3815122406e+01   4.7373218628e+01    0.4071928    0.2445415  83.20  0.001682413    2.355    0.575
       147 -12.2357    121.7664     36.7433   7.5623020511e+01   5.0256592450e+01    0.5723599    0.4478016  67.33  0.001993049    1.288    0.224
       148  -9.1273    101.6625     39.6673   8.1980775628e+01   5.4533414095e+01    0.1506867    0.1013242  21.71 0.0005585311    1.741    0.426
       149 -10.5071     22.7691     38.5901   1.1316151436e+02   6.7475308660e+01    0.2097171    0.1796793  23.88 0.0007566664    1.393    0.282
       150 -11.3550     26.5105     35.2773   1.1002438844e+02   6.7716504182e+01    0.3625709    0.2117387 -23.90  0.001226487    1.651    0.394
       151 -11.2616      2.5066     34.4243   1.2226156615e+02   6.9708650226e+01    0.4300415    0.1715095 -47.57  0.002306621    1.834    0.455
       152 -10.0163     91.1666     34.1609   8.2995844113e+01   5.7565717176e+01     0.269632    0.1606265 -11.95  0.001229787    2.145    0.534
       153  -9.5197     38.8572     35.4991   1.0408189460e+02   6.6295761747e+01    0.1918421    0.1589201  46.06 0.0002716401    1.667    0.400
       154  -9.6159    229.5334    248.0633   1.0303796475e+02  -9.3642192815e+00    0.1567061    0.1038502 -25.90 0.0007991109    1.536    0.349
       155 -10.4185    181.2200     40.6982   6.5725071656e+01   3.4762296232e+01    0.2608775    0.1907234 -80.19 0.0006506555    1.409    0.290
       156 -11.1947    134.3038     34.0196   7.1892506084e+01   4.7524603694e+01    0.2389627    0.1787141  51.87 0.0003199972    1.218    0.179
       157  -9.2156     54.9955     34.4659   9.6394832817e+01   6.4208091291e+01    0.1757099   0.09981349  13.76 0.0004190414    2.277    0.561
       158 -10.1713     15.8370     33.8237   1.1496650702e+02   6.8934476236e+01    0.1896221    0.1452029 -27.55 0.0008132916    1.029    0.028
       159 -10.7446     19.9744     31.7999   1.1202046322e+02   6.8947077565e+01    0.3265339    0.1865357  -3.47  0.001118945    1.937    0.484
       160 -10.4841    145.0320     32.9495   6.9420792571e+01   4.4959998933e+01    0.2058358    0.1847238  65.77  0.001181852    1.007    0.007
       161  -9.1870     71.6720     33.7252   8.9449586375e+01   6.1487950120e+01    0.1363981   0.09286593  14.66 0.0001421531    1.589    0.371
       162  -9.2048     50.4362     33.5214   9.7962615077e+01   6.5045117822e+01    0.1257855    0.1097578  -4.25 0.0001057742    1.081    0.075
       163 -10.3834    166.1955     31.2758   6.5314424763e+01   3.9774646110e+01    0.2350167    0.1922366 -45.02 0.0003530325    1.285    0.222
       164 -10.2560    127.0794     30.9389   7.2379731544e+01   4.9690313356e+01    0.3148369    0.1995134  42.56  0.001090846    1.541    0.351
       165 -10.0124    205.1115     30.8138   6.0093980929e+01   3.0132584547e+01    0.2208973    0.1618363 -70.64  0.000839985    1.263    0.208
       166  -9.7741    188.0086     29.7099   6.1840573837e+01   3.4458133310e+01    0.1987288    0.1710013  76.64  0.001172243    1.091    0.083
       167 -10.1582    149.5265     29.6996   6.7575031339e+01   4.4211250682e+01    0.3853385    0.1302175  70.79  0.001212725    3.577    0.720
       168 -10.1934     69.8584     27.9860   8.7669569729e+01   6.2618094050e+01    0.3062873    0.1618865 -31.86  0.001120089    1.937    0.484
       169 -10.6226      7.3495     28.0498   1.1741340580e+02   7.0594127471e+01    0.2666411    0.1956131  46.82  0.001716306    2.152    0.535
       170 -10.0045    139.9693     27.2083   6.8510831036e+01   4.6919382142e+01    0.3110378    0.1486289  63.28  0.001100994    1.868    0.465
       171 -10.7148     76.8692     25.8823   8.4250149365e+01   6.1558360207e+01    0.3647336    0.2169237  31.39  0.001353306    1.640    0.390
       172 -10.8937     78.2577     21.9591   8.2081453147e+01   6.1763062643e+01    0.4243002    0.2223286 -14.30  0.001680721    2.378    0.579
       173  -9.5353    224.6883    246.6723   1.0368848786e+02  -8.5332118828e+00    0.1231034   0.07544838   4.81 0.0007041797    1.665    0.400
       174 -10.4903    100.6160     25.5665   7.6834130908e+01   5.6577866026e+01    0.2280571     0.222743 -85.78 0.0007466121    1.205    0.170
       175  -9.2370     18.3392     26.3070   1.1067266323e+02   7.0040553166e+01    0.1255639   0.07233273 -19.19 0.0007042317    1.682    0.405
       176  -9.8221    153.8962     25.4996   6.5532673605e+01   4.3585436191e+01    0.2144732    0.1260403  69.02  0.000759075    1.544    0.352
       177 -10.7530    113.9757     24.1015   7.2893526259e+01   5.3650080837e+01    0.3033925    0.2498186  17.96  0.001005744    1.298    0.229
       178 -10.2025     59.3724     24.1997   9.0053337996e+01   6.4981082997e+01     0.260465    0.1734866   3.59  0.001429366    1.620    0.383
       179 -10.5832    219.4225     23.3493   5.6862170535e+01   2.7665898736e+01    0.2299175      0.12754 -11.62 0.0009614546    3.463    0.711
       180  -9.4544    136.4957    245.5610   1.2072531594e+02   5.0819282293e+00    0.1295383    0.1036245  42.54 4.127992e-05    1.037    0.035
       181 -11.0788     37.1790    241.5306   1.4025935366e+02   2.0043689921e+01    0.3037362   0.09488251  49.11  0.001440942    2.371    0.578
       182  -9.5279    202.4386    240.3181   1.0681949957e+02  -4.4868889719e+00    0.2012897    0.1138492 -31.40  0.000839548    1.947    0.486
       183  -9.6753     60.8931    241.0113   1.3562335020e+02   1.7176442186e+01    0.2285901    0.1114716  33.64  0.001171193    2.057    0.514
       184 -11.9578      3.9051    232.3356   1.4594598689e+02   2.5404008508e+01    0.4227764     0.178616  72.86 0.0003944174    2.020    0.505
       185  -9.1172    158.7150     23.7366   6.4236245651e+01   4.2556745203e+01    0.1342325   0.09679817  43.60 0.0002253777    1.489    0.328
       186  -9.8672     21.8147     22.4848   1.0713660856e+02   7.0340217628e+01    0.1758003    0.1457597   1.41 0.0005451462    1.174    0.148
       187 -12.3426     26.3028    235.8659   1.4197431017e+02   2.2394584492e+01    0.3326353      0.26981  85.04  0.001561518    1.214    0.176
       188  -9.2236    210.6963    235.7005   1.0451095488e+02  -5.0735604982e+00    0.1257749   0.08223034   6.14 0.0002929636    1.588    0.370
       189 -10.4197      2.0454     21.3596   1.1790232512e+02   7.2108976830e+01    0.2839437    0.1631484 -42.70  0.001826459    1.362    0.266
       190  -9.6773     89.4982     22.5392   7.8777315303e+01   5.9368984213e+01    0.1355722    0.1152378  31.00   0.00020465    1.029    0.028
       191 -10.2495     85.1753     20.9495   7.9423605582e+01   6.0464588434e+01    0.3504114    0.1474571  36.22  0.001311006    2.532    0.605
       192  -9.9536    249.2218    234.0748   9.7304140511e+01  -1.0228684471e+01    0.1743284    0.1231341   0.94   0.00043409    1.154    0.133
       193 -11.1695     38.5939     30.9438   1.0229151334e+02   6.7079269111e+01    0.2506314     0.174198   0.06 0.0002260524    1.405    0.288
       194  -9.9013     31.0340     20.4478   1.0132104684e+02   6.9639181850e+01    0.2167863    0.1319962 -22.36 0.0005415828    1.509    0.337
       195 -10.1521    230.3594     20.1512   5.5185459040e+01   2.5565005610e+01    0.1796083   0.09286249 -46.95 0.0001570402    1.678    0.404
       196 -10.2753    175.2258     20.6084   6.1011598798e+01   3.8715989363e+01    0.1971708    0.1097942  61.19 0.0005608062    1.611    0.379
       197  -9.6889    131.9968     20.5001   6.7781918929e+01   4.9648998372e+01    0.2128226    0.1209764  61.96 0.0006419186    1.531    0.347
       198 -10.7935    100.2110     19.1485   7.4403085850e+01   5.7380809053e+01    0.3304911    0.2584981 -73.53  0.001144424    1.769    0.435
       199  -8.9725    148.6927     18.7095   6.4269373014e+01   4.5640930594e+01    0.1392332   0.09410796  41.75 0.0002841099    1.577    0.366
       200 -10.4375    199.9465     17.0660   5.7259212488e+01   3.2991716520e+01    0.2038481    0.1689889 -82.68 0.0005064415    1.014    0.014
       201 -10.3727     49.2895     16.2767   9.0576433543e+01   6.7660795071e+01    0.2061006    0.1823266  10.78 0.0004244322    1.188    0.158
       202  -8.8895     80.2886    231.6854   1.3082956963e+02   1.6320086264e+01    0.1320195   0.08050833  64.31 0.0004605656    1.588    0.370
       203 -10.3955     20.1420     16.8208   1.0545330106e+02   7.1393132232e+01    0.1801954    0.1340574   0.01 0.0003013159    1.150    0.131
       204  -9.0597    200.2824    235.6835   1.0649587110e+02  -3.4979456053e+00    0.1101026   0.09698197  55.44 0.0006990674    1.580    0.367
       205 -10.6246    154.6801     15.0108   6.2212611338e+01   4.4500257761e+01    0.2981764    0.1756188  72.12 0.0007655399    1.509    0.337
       206  -9.6353    140.1772    227.1746   1.1747926087e+02   7.6994276273e+00    0.1919793    0.1426258  55.43   0.00107461    1.368    0.269
       207  -9.9820    174.0132     14.0168   5.9344163348e+01   3.9719297801e+01    0.2244215    0.1406362 -67.55 0.0006439351    1.682    0.405
       208 -10.1643    162.0367     13.4402   6.0713558456e+01   4.2795121379e+01    0.2102362    0.1157361  68.72 0.0006038282    1.562    0.360
       209  -9.8901     68.5585     13.3983   8.1564404313e+01   6.4621085778e+01    0.2343451    0.1366692  43.83 0.0008007407    1.504    0.335
       210  -9.9798     33.0569    225.2676   1.3999658006e+02   2.3769467750e+01    0.2948959   0.07770786  45.79   0.00127795    2.758    0.637
       211  -9.7323    241.6475     11.3233   5.2457935189e+01   2.4117138851e+01    0.1353617    0.0688701 -64.58 0.0007047635    1.756    0.431
       212 -10.2692     25.3659    225.3074   1.4152206908e+02   2.4619441790e+01    0.1610363    0.1336044 -52.05  0.001114743    1.715    0.417
       213 -11.6303     23.0877    120.7638   1.3222146173e+02   4.9156204102e+01    0.5406355    0.2565418  86.97  0.001919807    2.902    0.655
       214 -12.3011      7.6513    217.2220   1.4452201429e+02   2.8095042454e+01    0.4157466    0.2429157  75.82  0.002646315    1.363    0.267
       215 -10.7825     16.2028    212.2785   1.4255194382e+02   2.8296594179e+01    0.2751677    0.2009998 -36.05  0.001697849    2.297    0.565
       216 -10.6098     20.5662    209.7407   1.4150179244e+02   2.8395420536e+01    0.2185412    0.1614012  67.57 0.0002537588    1.072    0.067
       217  -9.4177    209.4923    211.5038   1.0060588555e+02  -1.2999975984e+00    0.1322551    0.1114719   9.27 7.486041e-05    1.008    0.008
       218  -9.5781    246.6473    207.1777   9.3031255870e+01  -6.3259054404e+00    0.1784461    0.0979681 -24.18 0.0009513363    1.729    0.422
       219 -10.0273    123.9919    206.0073   1.1794965160e+02   1.4583243933e+01    0.1970276    0.1758125  44.67            0    1.032    0.031
       220 -10.5557      2.9271    205.5016   1.4484440741e+02   3.0993686071e+01    0.1612987    0.1019027  38.75  0.001042051    1.617    0.382
       221  -9.4940    197.0150    204.0063   1.0170983000e+02   1.9968833351e+00    0.1655505    0.1456824   8.71 0.0006169199    1.020    0.020
       222 -11.4363      9.4373    203.5730   1.4341455710e+02   3.0815619789e+01      0.21586    0.1764534  86.63 0.0008201447    1.153    0.133
       223  -9.6488    180.8191    199.3346   1.0419342826e+02   5.6619225796e+00    0.3015613    0.1149986  46.02  0.001109882    2.728    0.633
       224  -9.5180     23.0354    197.4780   1.4013024889e+02   3.0827651402e+01    0.1671873    0.1123813  37.39 0.0004546212    1.554    0.357
       225 -10.2633      7.0719    192.2255   1.4323015559e+02   3.3515962037e+01    0.2944946    0.1014438  63.31  0.001261893    2.964    0.663
       226  -9.0118     13.7056    192.7176   1.4182868789e+02   3.2804433096e+01    0.1070476   0.08492102 -56.91 0.0002388533    1.537    0.349
       227  -9.4425     15.3466    185.1789   1.4093535537e+02   3.4354652948e+01    0.1801352   0.09262262  88.48 0.0009406622    1.737    0.424
       228  -9.6193      1.3757    182.9988   1.4390164767e+02   3.6057366113e+01    0.1743418   0.09160315 -82.67 0.0004640787    1.552    0.356
       229  -9.9695    100.9918    176.0027   1.1875796814e+02   2.5229419399e+01    0.2026146    0.1894194  65.49            0    1.026    0.025
       230 -11.1700      5.2985    167.7621   1.4198967827e+02   3.9232323686e+01    0.2870167    0.1934426  60.15  0.001321328    1.367    0.268
       231 -10.2790      2.8547    160.1529   1.4201564140e+02   4.1194336301e+01    0.1678278    0.1198534 -64.92 0.0007205024    1.340    0.254
       232  -9.2857     41.3238    157.6798   1.3184037873e+02   3.8265845804e+01    0.1430688   0.08965426  68.35  0.000525642    1.676    0.403
       233  -9.2059    247.4721    155.5203   8.2826460615e+01   1.4020662507e+00    0.1325759    0.1134503 -21.25 7.173205e-05    1.002    0.002
       234 -10.3508      2.2920    153.5678   1.4164862673e+02   4.2783174425e+01    0.2092385    0.1054814  32.95  0.001139706    2.139    0.533
       235  -9.8173     23.7033    150.6722   1.3577893554e+02   4.1764687445e+01    0.1292229   0.08647461 -48.62 0.0004000734    1.632    0.387
       236  -9.7433     22.1755    143.1918   1.3536428840e+02   4.3728516811e+01     0.181573    0.1332056  78.12 0.0006378363    1.297    0.229
       237 -11.2861      5.5026    141.9711   1.3982143637e+02   4.5317925443e+01    0.2194024    0.1459529  51.20 0.0005106398    1.561    0.359
       238 -11.4253      3.2747    138.5712   1.4011327777e+02   4.6280581310e+01    0.3137806    0.1703918  34.61  0.001753335    2.022    0.506
       239 -11.2062      8.9168    135.3885   1.3823756516e+02   4.6664197140e+01    0.2191033    0.1424029 -85.94 0.0004352703    1.324    0.245
       240  -9.5490    212.3336    133.7060   8.4104663240e+01   1.1755214707e+01    0.1432322    0.1144659 -76.55 0.0003401964    1.639    0.390
       241 -11.6696     11.4292    129.3625   1.3686396225e+02   4.7945727295e+01    0.5498969    0.2429866  61.33  0.002340332    2.907    0.656
