#   1 NUMBER                 Running object number                                     
#   2 MAG_AUTO               Kron-like elliptical aperture magnitude                    [mag]
#   3 X_IMAGE                Object position along x                                    [pixel]
#   4 Y_IMAGE                Object position along y                                    [pixel]
#   5 X_WORLD                Barycenter position along world x axis                     [deg]
#   6 Y_WORLD                Barycenter position along world y axis                     [deg]
#   7 A_WORLD                Profile RMS along major axis (world units)                 [deg]
#   8 B_WORLD                Profile RMS along minor axis (world units)                 [deg]
#   9 THETA_WORLD            Position angle (CCW/world-x)                               [deg]
#  10 FWHM_WORLD             FWHM assuming a gaussian core                              [deg]
#  11 ELONGATION             A_IMAGE/B_IMAGE                                           
#  12 ELLIPTICITY            1 - B_IMAGE/A_IMAGE                                       
         1 -14.8821      7.0515    152.3253   1.4559144497e+02   4.2386331337e+01     8.825481      3.82861  69.90  0.002112811    2.443    0.591
         2 -13.4525    195.3485     28.3226   6.9539596778e+01   3.2730485054e+01     1.503892     1.424993  -8.75  0.007391149    1.184    0.155
         3 -13.4661    209.6640      8.9158   6.2590760060e+01   3.1278421727e+01     1.229439     0.974854  33.03  0.007030475    1.562    0.360
         4 -12.0888      2.9667     10.2977   1.1991885194e+02   7.2551307094e+01    0.9584032    0.2477895 -40.83  0.004450119    2.789    0.641
         5 -12.1960      2.7662     22.4313   1.2475683333e+02   7.0458376656e+01    0.7421458    0.1509647 -54.78  0.003050134    3.436    0.709
         6 -10.2889    162.0902    249.1380   1.2506485585e+02   2.9171311899e+00    0.1815325    0.1366456  29.11 0.0007311966    1.264    0.209
         7 -10.6476    249.1648    249.6538   1.1037932093e+02  -1.0224374694e+01    0.2520066    0.1625385  35.76  0.001754125    1.398    0.285
         8 -12.4215    137.9570    248.3072   1.2921950423e+02   6.8113365761e+00    0.5872048    0.3460839  46.19  0.003631113    1.319    0.242
         9 -11.5141     98.4837    249.5191   1.3624100560e+02   1.2534858521e+01    0.4098449    0.2003894  39.61  0.002352604    1.810    0.448
        10 -10.9977     81.2556    249.2621   1.3916256434e+02   1.4976959230e+01     0.255912    0.1779274  50.85  0.001559493    1.165    0.142
        11 -10.4794     29.6733    249.6211   1.4759725193e+02   2.1258613337e+01     0.297976    0.1856637 -89.07  0.002143258    1.426    0.299
        12 -10.7509     15.9312    249.2529   1.4969415897e+02   2.2778008093e+01     0.283245    0.1306996  67.60  0.001928126    1.636    0.389
        13 -10.6660      2.7948    248.7640   1.5164180651e+02   2.4161651247e+01    0.2679572    0.1750073  81.31  0.002086502    1.186    0.157
        14 -12.1558     35.1926    246.3696   1.4655492544e+02   2.1188015147e+01    0.5945341    0.4358441  74.46  0.004100978    1.107    0.097
        15 -11.5746     12.7535    240.6445   1.4980272683e+02   2.4547864729e+01     0.360214    0.1594319  67.01  0.002361936    1.734    0.423
        16  -9.6084     69.2280    236.3564   1.4019672694e+02   1.8749050481e+01     0.317197    0.1675409 -82.41  0.001895859    2.040    0.510
        17 -11.4621    238.5184    248.2834   1.1189131855e+02  -8.6081036201e+00    0.3222007    0.1779587  26.24  0.002025577    1.477    0.323
        18 -10.2849    173.8665    222.6040   1.1931557889e+02   4.7635265129e+00    0.3729243    0.2676288  71.33  0.002084153    2.048    0.512
        19  -8.8965    152.5010    213.0199   1.2196284893e+02   9.9385728489e+00    0.1601614    0.1288968 -52.09 0.0003546417    1.458    0.314
        20 -11.4960     62.1586    199.4568   1.3826450645e+02   2.6582860420e+01    0.2786669    0.2271288 -47.90 0.0005870462    1.701    0.412
        21 -10.7591     18.6947    199.1764   1.4658732109e+02   3.1590156176e+01     0.193762     0.141472  71.60 0.0003185195    1.064    0.060
        22  -9.4904     15.0242    197.2278   1.4714165988e+02   3.2330976710e+01    0.1652536    0.1215094  77.89 0.0003399837    1.015    0.015
        23  -9.6086    191.7940    192.9781   1.1102500362e+02   6.1640066305e+00     0.525017    0.2770845 -63.67  0.001602569    6.260    0.840
        24 -11.7286     68.2212    191.2422   1.3619278883e+02   2.7452236167e+01    0.2499496    0.2244435 -79.82 0.0005037516    1.242    0.195
        25 -12.6316      9.0797    207.3731   1.4879021971e+02   3.0922154031e+01    0.6638894    0.5889033  33.35  0.003642108    1.674    0.403
        26 -13.0343     65.0157    176.3983   1.3519470131e+02   3.1010996863e+01    0.4549844     0.267665 -47.74   0.00147407    2.173    0.540
        27 -10.7082     78.2301    178.3006   1.3253371730e+02   2.8778184419e+01     0.222773    0.1965615  88.69 0.0003401964    1.086    0.079
        28  -8.8411    100.2138    176.9182   1.2748674521e+02   2.5714325710e+01     0.202886    0.1562056  75.41 0.0005084263    1.289    0.224
        29 -11.6222     86.1168    168.8961   1.2948618099e+02   2.9646920153e+01    0.6539482    0.5510272  17.76  0.003861428    1.598    0.374
        30  -9.8478     98.2945    152.8429   1.2406234437e+02   3.1270132305e+01    0.2754205    0.2405835 -66.88  0.000735286    1.122    0.109
        31 -11.8738     86.7727    152.0160   1.2671945837e+02   3.3299865796e+01    0.2764206    0.2425853 -49.21 0.0005652611    1.276    0.216
        32  -8.8700    101.0426    148.6682   1.2264825654e+02   3.1745418810e+01    0.1864712    0.1740372  57.21 0.0003808051    1.104    0.095
        33 -12.2120     67.2296    143.7573   1.3022978012e+02   3.8015436571e+01    0.6844423    0.4291825  64.12  0.003434582    1.767    0.434
        34 -12.6536     35.8430    233.9065   1.4573105229e+02   2.3261740393e+01    0.2790068    0.2251794  77.72  0.000776844    1.210    0.173
        35  -8.4678    192.2130    144.0779   1.0099902966e+02   1.4484987135e+01    0.1857533    0.1175753 -36.00 0.0004343254    1.602    0.376
        36  -8.4040    181.4514    144.5397   1.0329776479e+02   1.6693812015e+01    0.1452247    0.1420134  74.46 0.0008052438    1.104    0.094
        37  -9.5843    109.4557    137.9090   1.1847901773e+02   3.2693954940e+01     0.374221    0.2676895 -18.90  0.001367295    2.196    0.545
        38 -14.3813     41.2992    226.3102   1.4432094944e+02   2.3999416620e+01     2.419536     1.448026  32.60  0.006338456    2.088    0.521
        39 -10.6282     34.7751    133.5832   1.3702170367e+02   4.4152508909e+01    0.2543215    0.1868246  65.22 0.0007220848    1.377    0.274
        40  -9.2161     81.0308    132.9586   1.2482680219e+02   3.8542648547e+01    0.2032842    0.1820935 -85.17 0.0003312555    1.036    0.035
        41 -10.3752     96.9465    134.8588   1.2104786068e+02   3.5565345678e+01    0.2334098    0.2073048 -48.41 0.0003169924    1.180    0.152
        42  -8.9913    106.7549    124.0645   1.1621161540e+02   3.6304646828e+01    0.1908396    0.1773303 -57.44 0.0002520316    1.055    0.052
        43  -8.9572    134.0000    147.0122   1.1438799886e+02   2.6054915596e+01    0.2426078   0.08328046 -49.16 0.0008067812    2.973    0.664
        44 -10.7126    140.4917    231.0117   1.2669920446e+02   9.0362656583e+00    0.2427795    0.1549096  31.84  0.001394667    1.608    0.378
        45  -9.7371    203.1829    111.8064   9.1124577584e+01   1.7871100750e+01    0.2076788    0.1756077   9.13 0.0004805336    1.316    0.240
        46  -9.6682    167.6320    112.8301   9.8586565505e+01   2.5898255144e+01    0.2841989    0.2441298  78.81 0.0008673462    1.336    0.252
        47 -10.5738    241.1776     83.3538   7.7841815688e+01   1.3953399216e+01    0.2018282     0.175411 -23.02  0.001148043    1.137    0.121
        48  -8.9709    157.0158     76.5060   9.0764840178e+01   3.5303623755e+01    0.2362599    0.1515529  52.94  0.000590995    1.559    0.358
        49  -9.3266     35.1480     63.7971   1.2364239989e+02   5.9878476880e+01    0.2165255    0.1618558  42.01 0.0008166839    1.660    0.398
        50 -10.6188     16.5590     56.0346   1.2871267273e+02   6.3040817409e+01    0.2123283    0.1755573  25.45  0.000858645    1.498    0.332
        51 -11.8543      2.1477     47.6844   1.3244141259e+02   6.5622850669e+01    0.7931946   0.09843425 -63.81  0.002359845    6.083    0.836
        52 -11.2900     47.2156    247.7422   1.4470253543e+02   1.9566399600e+01    0.2923627    0.2695089  75.94  0.002505662    1.497    0.332
        53 -12.5133    126.0772    248.1735   1.3129881174e+02   8.6588521518e+00    0.6369342    0.4272237  26.24  0.003919917    1.869    0.465
        54 -10.4084     23.0358    245.6278   1.4843358923e+02   2.2641931126e+01    0.2043329   0.08486735  48.18 0.0009934948    1.796    0.443
