#   1 NUMBER                 Running object number                                     
#   2 MAG_AUTO               Kron-like elliptical aperture magnitude                    [mag]
#   3 X_IMAGE                Object position along x                                    [pixel]
#   4 Y_IMAGE                Object position along y                                    [pixel]
#   5 X_WORLD                Barycenter position along world x axis                     [deg]
#   6 Y_WORLD                Barycenter position along world y axis                     [deg]
#   7 A_WORLD                Profile RMS along major axis (world units)                 [deg]
#   8 B_WORLD                Profile RMS along minor axis (world units)                 [deg]
#   9 THETA_WORLD            Position angle (CCW/world-x)                               [deg]
#  10 FWHM_WORLD             FWHM assuming a gaussian core                              [deg]
#  11 ELONGATION             A_IMAGE/B_IMAGE                                           
#  12 ELLIPTICITY            1 - B_IMAGE/A_IMAGE                                       
         1 -14.8621      6.5365     70.9892   8.1910772469e+01   6.3119588827e+01     1.211873    0.8098667 -62.01  0.004673401    1.318    0.241
         2 -15.8041     11.2791     23.3195   6.6639979279e+01   7.4721879420e+01     2.100127     1.076009 -36.94   0.01009514    1.892    0.471
         3 -13.4433    218.1057     28.8955   6.3425137035e+00   2.7404316770e+01    0.7858181    0.3713908 -65.49  0.003651998    2.361    0.576
         4 -14.6785    216.9424     13.4004   2.5808114569e+00   2.9324875712e+01     1.252663    0.8546754 -46.14  0.006083066    1.176    0.150
         5 -13.2144    187.6143     11.6330   4.0910886339e+00   3.6118712371e+01     0.677761    0.4250948 -16.56   0.00350666    1.838    0.456
         6 -13.1429      8.9381      2.9372   5.7108969987e+01   7.9175814158e+01    0.8145135    0.3838501  42.08  0.003754754    2.761    0.638
         7 -13.8220    122.3223     36.9102   2.1342182892e+01   4.9814627676e+01     1.048606    0.5546392  40.05  0.003444346    2.360    0.576
         8 -13.2201    242.7283     35.0748   6.0405073880e+00   2.1816840567e+01    0.5422577     0.523502  63.53  0.002989002    1.341    0.254
         9 -14.1599    166.7441     29.5301   1.1472191235e+01   3.9248549803e+01     1.010038    0.7708623  78.39  0.003750272    1.295    0.228
        10 -15.1189     98.5288     12.1358   1.5953681789e+01   5.9235984607e+01     1.716122    0.8634275  63.21  0.006404964    1.794    0.443
        11 -12.1035     60.0457     15.3480   2.9872803268e+01   6.8356807276e+01      0.55199     0.312031  35.71   0.00247454    1.916    0.478
        12 -14.3211    189.9628     24.6082   7.5515053865e+00   3.4166932616e+01     1.350536    0.7838172 -50.51  0.005763436    1.525    0.344
        13 -11.6883     46.6747     13.1475   3.5006542843e+01   7.1510420912e+01    0.3006136     0.260877  44.35   0.00150646    1.161    0.139
        14 -12.0254    122.9310     10.9287   1.0873149580e+01   5.2838376478e+01    0.3960257    0.2333948 -50.51  0.001213676    1.746    0.427
        15 -13.8707     41.8037      4.6229   3.1683510215e+01   7.3686046416e+01    0.7879947    0.6029815  10.64  0.003532401    1.367    0.269
        16 -11.5351     75.0173      9.9898   2.1090515411e+01   6.5496523553e+01    0.2275224    0.2000797  40.90  0.001217858    1.083    0.076
        17 -14.1087    147.7976     29.4491   1.4008460557e+01   4.4123252130e+01     1.307257    0.7417275  73.32  0.005052343    1.759    0.432
        18 -11.8201    152.9204      8.5760   6.2042801985e+00   4.5095275227e+01    0.3062763    0.2205233  52.72  0.001520043    1.509    0.337
        19 -14.3362     26.6982     12.2706   4.7515786980e+01   7.5188687390e+01    0.9425496    0.6438954  -9.87  0.004953377    1.724    0.420
        20 -13.1536    223.7186     20.8546   3.9817654620e+00   2.7122736695e+01    0.3575119    0.3317945 -27.40  0.001709937    1.264    0.209
        21 -10.7324     80.5099      7.1437   1.7857737772e+01   6.4425006258e+01    0.1986616    0.1394272 -23.52 0.0009198174    1.524    0.344
        22 -12.2672    232.3043      2.2502   3.5914094485e+02   2.7255706468e+01    0.3949381    0.2593023  51.16  0.002405487    2.096    0.523
        23 -12.0158    119.5578      2.8975   8.0580046424e+00   5.4490487275e+01    0.6777234    0.2737255 -85.05  0.002248493    3.477    0.712
        24 -11.3574     74.8744      2.8297   1.6974975432e+01   6.6270672259e+01    0.2737971    0.2071085  37.66 0.0007373657    1.304    0.233
        25 -11.6766     81.0508      1.4488   1.4534528318e+01   6.4826981563e+01    0.7176144    0.1053505  61.42  0.002081604    4.140    0.758
        26 -11.0469     67.4788      2.9852   1.9335474838e+01   6.8086633859e+01    0.2915629    0.1636449  45.90  0.001373504    1.654    0.395
        27 -11.3261     61.6101      1.4811   2.0385991513e+01   6.9649259846e+01    0.4178858    0.1265917  62.44  0.001456453    3.113    0.679
        28 -12.3241    201.1941    191.2178   4.4651752256e+01   7.1401389789e+00    0.3053545    0.2101387   5.29  0.001494311    1.349    0.259
        29 -12.7435    107.5569    247.1441   7.0656061476e+01   1.1132556089e+01    0.5636327    0.4543127  68.07   0.00409084    1.586    0.370
        30 -13.2028     98.5685    238.7943   7.1756744917e+01   1.3520060286e+01    0.8149986    0.3646109  29.50  0.004300628    1.771    0.435
        31 -14.0152     92.4321    230.2195   7.2286037508e+01   1.5695254181e+01    0.6225061     0.476786  29.39  0.004181711    1.095    0.087
        32 -12.1035     51.0988    248.5849   8.2432014495e+01   1.7297048404e+01    0.3472385    0.2737986  44.35  0.002622064    1.082    0.076
        33 -13.8140      9.7648    245.7188   9.0751261394e+01   2.1754194908e+01     0.838358    0.3271356  45.79  0.003668606    1.675    0.403
        34 -12.8793     99.0359    186.3289   6.5850609050e+01   2.3079431793e+01    0.4794436    0.3186874 -11.37  0.002252943    2.339    0.572
        35 -12.2602    155.6809    184.9175   5.2446328363e+01   1.4733256520e+01    0.2392543    0.1669044  20.42   0.00133348    1.358    0.264
        36 -12.1482     48.7647    181.4582   7.8438684033e+01   3.0764003008e+01    0.3547915    0.2808368 -50.86  0.002091609    1.518    0.341
        37 -13.2825    197.7413    180.3422   4.3387704840e+01   9.1724022592e+00    0.4599616    0.3820291 -72.53  0.002746886    2.262    0.558
        38 -11.3332    122.3254    181.1540   5.9389331621e+01   2.0608206616e+01    0.3891392    0.2368615  73.50  0.001506419    3.571    0.720
        39 -12.0519     84.3827    178.1995   6.8552120579e+01   2.6913479155e+01    0.1871021    0.1304282 -83.96 0.0009567599    1.720    0.419
        40 -12.8885    124.8210    167.9775   5.6632026375e+01   2.2838878929e+01    0.4021743    0.2903955 -64.62  0.002054816    1.700    0.412
        41 -11.2712    102.0930    160.8967   6.1281838084e+01   2.8066744143e+01    0.2741291    0.1901956  29.37  0.001217636    1.403    0.287
        42 -11.8801     23.9206    159.6916   8.3723907416e+01   3.8508194933e+01    0.2290396    0.1721002 -70.20  0.001176521    1.376    0.273
        43 -12.4433    239.3315    159.4548   3.2816075713e+01   6.2571079513e+00    0.3912716    0.1014835  39.01  0.001582187    4.255    0.765
        44 -12.6524    111.7401    156.0414   5.7872532699e+01   2.7546877030e+01    0.4821007    0.3462588  78.59  0.002253351    1.962    0.490
        45 -12.8648     85.5939    153.0812   6.4611184730e+01   3.2476658690e+01    0.7207337    0.5652703  30.61   0.00377943    1.251    0.201
        46 -12.4642     77.3083    156.9024   6.7596019572e+01   3.2813049570e+01    0.5432392    0.3811905  26.35  0.001721352    1.453    0.312
        47 -13.6192     73.9883    153.4890   6.8070177573e+01   3.4115682087e+01     0.869733    0.5306872  35.01  0.003079999    1.523    0.343
        48 -11.7718     54.9961    156.2887   7.4114524884e+01   3.5989469678e+01     0.398579    0.2596987  -7.68  0.001765102    2.421    0.587
        49 -12.8699    208.6703    154.1232   3.6574163189e+01   1.1421292845e+01    0.5970126    0.3767987  27.90   0.00335754    1.646    0.392
        50 -10.8047    133.3213    152.3239   5.1674433674e+01   2.4584013326e+01    0.1475458    0.1106199  -4.84  0.000631228    1.679    0.404
        51 -12.5829      8.8875    149.8698   8.7634453193e+01   4.2184258928e+01    0.7824506    0.3211592  42.67  0.003571274    2.047    0.512
        52 -11.8318    103.5500    149.6911   5.8944012028e+01   3.0353590770e+01    0.3779419    0.2871228 -17.86    0.0015895    1.716    0.417
        53 -12.6482     61.1746    147.1630   7.1058022610e+01   3.7461080864e+01    0.4271467    0.3083936  -4.84  0.002031457    1.938    0.484
        54 -11.2706     38.1006    145.6846   7.8163273145e+01   4.0619433709e+01    0.1947629    0.1747916  44.03 0.0008607037    1.115    0.103
        55 -12.2800    120.9829    156.5243   5.5558152987e+01   2.5865824272e+01    0.2671336    0.1995399  -6.58  0.001297738    1.739    0.425
        56 -12.5143     39.7809    136.6141   7.6608864168e+01   4.2779894196e+01    0.3301803     0.202152  35.99   0.00157251    1.545    0.353
        57 -12.5902    246.6784    133.5581   2.6837974457e+01   8.6215523280e+00    0.3607167    0.2882656 -33.07   0.00252778    1.224    0.183
        58 -13.5692    223.4680    127.9531   2.8903005097e+01   1.2926347470e+01    0.8273204    0.5981311  82.95  0.004312415    2.773    0.639
        59 -14.0962    234.2821    127.1518   2.7202848936e+01   1.1327602549e+01    0.8849706     0.442085 -39.77  0.004635985    1.803    0.445
        60 -12.3426     45.3819    132.9349   7.4259208930e+01   4.3105459509e+01    0.4760268    0.2666876  27.23  0.002138609    1.812    0.448
        61 -10.6235     10.5485    133.9484   8.6180842651e+01   4.6115244891e+01    0.1960994    0.1621249  43.90 0.0003763099    1.184    0.155
        62 -12.7705    136.9061    132.0040   4.6534664545e+01   2.8131746141e+01    0.6253371    0.3000832  36.98  0.002452818    2.150    0.535
        63 -11.1099      5.2910    128.8368   8.7641991146e+01   4.7793929657e+01    0.2532606    0.1548347 -34.62  0.001250648    2.098    0.523
        64 -14.8877    105.8439    104.9199   4.8440571679e+01   4.0375118519e+01     1.375503     1.283246  18.35  0.005732408    1.154    0.133
        65 -13.2022    112.5382    116.7225   4.9443823395e+01   3.6300089836e+01    0.6758796    0.3981749  30.75   0.00230361    1.944    0.486
        66 -12.8845    180.3959    120.6367   3.4451688596e+01   2.1767599708e+01    0.4875533    0.2544406  38.05  0.002134476    2.125    0.530
        67 -13.6102     83.0051    113.8655   5.7947777929e+01   4.2551403800e+01     1.225557    0.8134469  38.84  0.005529833    1.483    0.326
        68 -11.6894     88.3226    109.0712   5.5054170174e+01   4.2789721247e+01    0.5703671    0.2509944 -60.35  0.001979239    2.559    0.609
        69 -12.1728      4.7561    119.3254   8.7251480928e+01   5.0315693718e+01    0.5543981    0.3015435   9.87  0.002659468    2.173    0.540
        70 -11.7543      8.3298    114.4487   8.5591221399e+01   5.1389866610e+01    0.2424808    0.1796035  13.73 0.0009226369    1.540    0.351
        71 -12.8838     32.1463    111.6934   7.6165076341e+01   5.0208806310e+01    0.5948547    0.3324829 -66.27  0.002629915    1.650    0.394
        72 -11.8432     42.4458     90.2678   6.8188816586e+01   5.4843590658e+01    0.3238202    0.2623523 -63.99 0.0004328061    1.167    0.143
        73 -12.9632     20.1942     86.1943   7.7453038144e+01   5.8173994295e+01    0.7146394    0.4626487   8.20  0.003508344    1.805    0.446
        74 -12.6470     36.6698     92.8491   7.1221203516e+01   5.4823183758e+01    0.5130956    0.3641583  14.92  0.001635229    1.607    0.378
        75 -13.4621      2.3875     97.0496   8.6597225602e+01   5.6362585885e+01    0.8949552    0.4186901 -81.74  0.003297159    1.878    0.468
        76 -14.1261     18.3678    111.7981   8.1519639364e+01   5.1398669875e+01    0.8368088    0.7125723 -28.57  0.003322516    1.372    0.271
        77 -14.1335     10.9767    103.1981   8.3584338075e+01   5.4234426324e+01    0.9851578    0.6136023  30.69  0.005026725    1.653    0.395
        78 -14.4821     22.7509     94.8943   7.7621503411e+01   5.5616422095e+01     1.618916    0.8893872   7.81  0.007121163    2.252    0.556
        79 -12.7249     29.7022     89.4220   7.3658993521e+01   5.6468348823e+01    0.5915928    0.3689037  71.37  0.002012945    1.859    0.462
        80 -12.5141    121.3844    111.9758   4.5790971261e+01   3.5571335096e+01    0.3834978    0.3055742  76.26   0.00120905    1.536    0.349
        81 -11.8609     62.2755    110.3465   6.4477223981e+01   4.6820562176e+01    0.5807941    0.3173197  57.93  0.002258033    2.252    0.556
        82 -10.9277     46.1921    109.9860   7.0467917671e+01   4.9104265469e+01    0.2558859    0.1478552 -42.71  0.001080023    1.994    0.499
        83 -11.6002    222.7561    109.0057   2.4918572766e+01   1.5793606070e+01    0.2217979    0.1576508  30.72  0.001246337    1.658    0.397
        84 -10.9927     42.9102    106.5116   7.1139025413e+01   5.0433111020e+01    0.2124797    0.1467488  24.90 0.0007312822    1.545    0.353
        85 -12.7850    136.1172    103.0188   3.9608544305e+01   3.4343624792e+01    0.6772495    0.3479294  47.91  0.001899414    1.973    0.493
        86 -13.6097    120.0952    102.1866   4.3580424219e+01   3.8001618836e+01    0.7141058    0.3521545  42.24  0.002716064    2.059    0.514
        87 -11.0609     64.5187    101.5300   6.1724638752e+01   4.8781752477e+01    0.2748099     0.221485  36.94 0.0005306805    1.256    0.204
        88 -12.0302     61.6714     97.7005   6.1931322423e+01   5.0219935418e+01    0.5381107    0.3816586  64.15  0.001780052    1.619    0.382
        89 -12.3550     49.0359     93.2964   6.6037561288e+01   5.3195971596e+01    0.9099365    0.5169237 -49.80  0.003926115    1.751    0.429
        90 -11.2237     48.6810    100.6629   6.7739566027e+01   5.1283477287e+01    0.4666989    0.2790524  36.76  0.001993234    1.663    0.399
        91 -11.9854     52.7039     97.7222   6.5501231556e+01   5.1525079334e+01    0.6077795    0.3229802 -28.24  0.002078709    3.297    0.697
        92 -12.0608    249.2413     98.5800   1.9386530024e+01   1.2825017514e+01    0.3173948     0.114916 -43.95  0.001405898    2.629    0.620
        93 -12.1423    163.2725     97.9365   3.2164053661e+01   2.9362909307e+01    0.3719072    0.3198183  51.48 0.0005543852    1.221    0.181
        94 -13.0966    137.3223     95.1502   3.7155564411e+01   3.5681589616e+01     0.518623    0.4109676  67.53  0.001448581    1.415    0.293
        95 -14.7374    105.2556    122.5232   5.2922809537e+01   3.6368810518e+01       1.6777    0.9587929  40.04  0.007043271    1.709    0.415
        96 -12.8012     28.4782    121.8481   7.8831591614e+01   4.7835734292e+01    0.5037481     0.341531 -59.04  0.002557542    1.466    0.318
        97 -13.6761    188.3457     82.9900   2.3743860497e+01   2.6453496787e+01    0.7054974    0.6215385  -8.34  0.002657755    1.238    0.192
        98 -13.6319    199.0078     69.9384   1.8807256110e+01   2.6154893635e+01    0.9211282    0.5383127  38.90  0.003330144    2.273    0.560
        99 -11.8971    159.0647     65.1449   2.3684003140e+01   3.6056395773e+01      0.75432    0.2632032 -48.44  0.002382855    3.305    0.697
       100 -13.1821    164.4938     71.3809   2.4551106407e+01   3.3730509256e+01     1.005844    0.4663636  48.96  0.003969924    2.312    0.567
       101 -13.7024    160.7787     80.8074   2.7957531485e+01   3.2994371536e+01     1.201259    0.6734321  29.28  0.004269624    2.993    0.666
       102 -14.2085    169.1382     76.7492   2.5257777899e+01   3.1753482711e+01     1.428728    0.5513825  54.99  0.004899193    2.677    0.626
       103 -12.7137    242.7822     83.5741   1.6864634313e+01   1.5848655484e+01    0.4202484    0.2195387  63.42  0.002245835    2.503    0.600
       104 -13.1405    237.3898     80.0023   1.6647135534e+01   1.7254850361e+01    0.4080419    0.2908015  88.36  0.002430595    1.941    0.485
       105 -10.7828     58.9942    124.9730   6.8378161417e+01   4.3454394424e+01    0.1790423    0.1672116  78.66 0.0004252943    1.010    0.010
       106 -11.9846     40.6839     67.5626   6.3357057456e+01   6.0992338763e+01     1.058245     0.346647  27.39  0.003539917    3.274    0.695
       107 -13.2079     66.1239     49.2158   4.4484374966e+01   6.1099383346e+01    0.8823455    0.6796008 -62.31  0.004265607    1.482    0.325
       108 -13.5063     54.3230     67.3161   5.6671649920e+01   5.9088257201e+01     1.146306     0.882921  31.88  0.005751032    1.345    0.257
       109 -13.4430     91.7248     58.0379   3.8113175467e+01   5.3791070094e+01    0.6902137    0.5304586 -54.39   0.00330176    1.366    0.268
       110 -13.7806     73.9741     73.8407   5.0357126627e+01   5.4070082946e+01     1.536292     0.831084  18.20  0.004826481    3.749    0.733
       111 -13.0647     87.4417     65.2538   4.2296936796e+01   5.3251192175e+01     0.549552    0.4639903  -0.29  0.001042244    1.453    0.312
       112 -12.9956     54.8531     81.4388   6.0633453913e+01   5.5465805892e+01    0.6936297    0.5448431 -53.05  0.003104127    1.232    0.188
       113 -13.7918     61.2283     75.7282   5.6228300556e+01   5.5893973273e+01    0.8003429    0.5691804 -42.48  0.002444107    1.447    0.309
       114 -13.6823    214.5094     78.3359   1.8905768820e+01   2.1757711072e+01    0.8690012    0.7194459  78.49  0.005326001    1.432    0.302
       115 -12.0229    214.4686     71.4951   1.7248249508e+01   2.2730981078e+01    0.3312605     0.216918  60.20  0.001813903    1.754    0.430
       116 -11.8813    114.1567     79.8427   3.8702577103e+01   4.4133388514e+01    0.4926283    0.3485224 -46.97  0.002168739    1.410    0.291
       117 -11.6744     42.7624     79.7289   6.5616239663e+01   5.7588768397e+01    0.4851246    0.2746654 -81.57  0.001950104    2.230    0.552
       118 -11.0473     41.5404     75.9253   6.5225916601e+01   5.8734870866e+01     0.350308    0.2944431  80.08  0.001851364    1.289    0.224
       119 -12.6035    135.5912     79.2051   3.2899563775e+01   3.9225654916e+01    0.7985353    0.3698932  55.73  0.002731552    2.276    0.561
       120 -13.2281     28.6425    246.0133   8.6936345769e+01   1.9982496585e+01    0.4318646    0.2767477  62.85  0.002450639    1.382    0.276
       121 -14.1000      4.1243     63.3363   8.2125016248e+01   6.5247351893e+01    0.7679535    0.6321579 -20.73  0.002099315    1.316    0.240
       122 -11.3781     27.4102     76.1278   7.2149284522e+01   6.0245084092e+01    0.3492971    0.2381407  72.71  0.001382893    1.697    0.411
       123 -10.4239    117.6316     72.2195   3.5259764677e+01   4.4873307753e+01    0.2139987    0.1486138 -32.05 0.0009130731    1.567    0.362
       124 -12.4078    135.0239     66.1445   2.8899735902e+01   4.1788627445e+01    0.5662524    0.4342949  36.50  0.001883593    1.486    0.327
       125 -11.8867    100.1251     65.2162   3.8007888941e+01   5.0405760780e+01    0.2717154    0.2642995  40.58 0.0008624597    1.055    0.052
       126 -11.5000    199.5876     62.0548   1.6681829205e+01   2.7162600612e+01    0.3108446    0.2160811 -42.30  0.001123687    1.255    0.203
       127 -12.9845     79.6003     58.8942   4.2834099247e+01   5.6292498538e+01     0.937229    0.6536486 -24.25    0.0041251    1.807    0.447
       128 -12.0678     36.1114     54.3288   6.1634182254e+01   6.4868562711e+01    0.4632264     0.244052 -45.26   0.00201366    1.843    0.457
       129 -11.2277     34.5568     60.7273   6.4533984082e+01   6.3475874568e+01    0.4150269    0.2665172 -42.78  0.001433821    1.545    0.353
       130 -11.8856     38.8097     59.9736   6.2020043684e+01   6.3137465122e+01    0.3373061    0.2442794  86.00  0.001606738    1.787    0.441
       131 -13.4697    178.0682     57.5721   1.8357542198e+01   3.2681417128e+01    0.7555256     0.532582 -47.30  0.002365368    1.309    0.236
       132 -11.8081     24.8301     59.3172   6.9529557563e+01   6.4870389656e+01    0.4061187    0.2641068 -56.63  0.001735508    1.386    0.278
       133 -14.4332    119.3844     54.5002   2.8639478488e+01   4.7755720816e+01     1.125307    0.6337291  48.38  0.002224019    1.799    0.444
       134 -12.3912    136.0045     50.7822   2.3514597646e+01   4.4147154984e+01    0.5429943    0.4747768 -18.50  0.001857136    1.275    0.216
       135 -12.5910    248.3959     52.0865   9.4141535132e+00   1.8811713675e+01    0.6464778    0.2734741 -28.28  0.003195901    2.026    0.506
       136 -12.8231     62.0153     58.5267   5.0046640330e+01   5.9851209456e+01    0.9558723    0.5295735 -27.59  0.003465982    2.830    0.647
       137 -11.2268     17.7836     55.2512   7.2588058996e+01   6.6518212778e+01    0.3508017    0.1868455 -74.62  0.001577114    1.887    0.470
       138 -11.3691    231.3543     55.0492   1.1533207439e+01   2.1595485091e+01    0.2565747    0.1736284 -89.63  0.001493962    1.801    0.445
       139 -13.4225    103.4014     50.5381   3.1493334120e+01   5.2437912169e+01    0.9029024    0.4778931 -48.09  0.001696332    2.019    0.505
       140 -13.2344     97.9679     49.9833   3.2917649023e+01   5.3862150678e+01     0.611238    0.4255849 -40.55  0.001634433    1.453    0.312
       141 -10.6626     23.5340     49.9935   6.7616547520e+01   6.7337883634e+01    0.2050406    0.1265856 -61.37 0.0004444255    1.492    0.330
       142 -13.1357    157.0868     43.9236   1.7397261919e+01   3.9793716155e+01    0.9340909    0.5272872  41.25  0.003904656    2.257    0.557
       143 -10.9529     38.6363     46.1717   5.7196302264e+01   6.6466534331e+01    0.2061277     0.120426 -45.41 0.0007291361    1.636    0.389
       144 -13.2306      6.3659     42.9700   7.6900539408e+01   7.0360112969e+01    0.9629673    0.4146737  13.93  0.004250113    2.508    0.601
       145 -14.0299    171.1064    242.2750   5.7674056532e+01   4.1442458353e+00    0.7894887    0.4621893  21.21   0.00512856    1.353    0.261
       146 -14.3680    213.0984     40.8061   9.7444511277e+00   2.7056965742e+01     1.847692    0.6781264  77.14  0.007222083    3.567    0.720
       147 -12.3658     57.6988    246.5994   8.0952946452e+01   1.6929443560e+01    0.4842771    0.1354054  28.91  0.002134721    2.769    0.639
       148 -12.1437      2.8522    249.6402   9.2198506398e+01   2.1670558926e+01    0.3325318    0.1918833  46.78  0.001596829    1.175    0.149
       149 -12.5718    147.6203    238.9747   6.1741910900e+01   7.4251088112e+00    0.2203599    0.2000803  67.74  0.001129184    1.641    0.390
       150 -13.7683     26.2763    226.4417   8.6675080652e+01   2.3739257592e+01    0.6762615    0.4049005 -52.42  0.004049833    2.341    0.573
       151 -11.5786    135.1564     39.6187   1.9742590784e+01   4.6062291189e+01     0.477699    0.2740206  75.29   0.00147985    1.921    0.479
       152 -12.3018    109.8491     41.9431   2.6291152278e+01   5.2279259216e+01    0.5472713    0.2298062  56.17  0.001044702    2.263    0.558
       153 -13.8389     20.8218    223.9828   8.7780203321e+01   2.4719363524e+01    0.5179619    0.4707887  27.52  0.002420065    1.324    0.245
       154 -12.7212    113.7191     38.0624   2.3762959272e+01   5.1887420211e+01    0.4142093    0.3744448  77.00  0.001317684    1.077    0.072
       155 -12.5746    131.3264     33.4291   1.8203236149e+01   4.7934700886e+01    0.4924664    0.4180751  17.57  0.001422165    1.427    0.299
       156 -12.0542     40.4320     40.2466   5.3661425962e+01   6.7538322477e+01    0.6292046    0.2976395  36.18  0.002649352    2.143    0.533
       157 -12.4569     33.0448     40.3118   5.8162009675e+01   6.8563993584e+01    0.3291996    0.2942379 -11.90 0.0004422326    1.110    0.100
       158 -12.4791     75.7561     37.0161   3.4992907755e+01   6.1398217862e+01    0.4993401    0.3346587  36.62  0.001344183    1.584    0.369
       159 -11.7742     71.1251     36.3600   3.6527770870e+01   6.2546963952e+01    0.3578209    0.2290025  58.53  0.001215266    1.720    0.418
       160 -12.5387     23.4944    216.1505   8.6873076864e+01   2.5993512943e+01    0.7091631    0.2876272  40.65  0.003748203    1.761    0.432
       161 -10.9142    104.5074     37.0284   2.5685054110e+01   5.4416672184e+01    0.2302951    0.1488858 -34.15  0.001032389    1.590    0.371
       162 -13.0023     43.5704     33.0009   4.8394632254e+01   6.8567152227e+01     1.074618    0.5514212  34.51  0.004693612    2.004    0.501
       163 -13.4306     57.6301     26.8335   3.7637318463e+01   6.7087966586e+01     1.171254    0.3928919  44.72   0.00345571    2.909    0.656
       164 -12.8828    237.6697    229.5750   4.4668703952e+01  -1.8035842246e+00    0.2585005    0.2066722  33.74  0.002035605    1.950    0.487
       165 -12.2142    120.9137     25.7037   1.7214747139e+01   5.1708967002e+01    0.4920954    0.4247995  50.70  0.002657447    1.187    0.157
       166 -11.8757     30.5515     25.4636   5.2734805119e+01   7.2104534218e+01     0.348196    0.2235195  14.76  0.001714579    1.805    0.446
       167 -12.3745     35.6050     23.2811   4.8082910548e+01   7.1776716410e+01    0.3478917    0.2625107  -6.75  0.001780935    1.488    0.328
       168 -13.8697     65.4760    223.1703   7.7696955420e+01   2.0195618912e+01    0.8524871    0.5868259  36.31  0.005398882    1.153    0.133
       169 -11.4150     51.3780     20.3956   3.7075472358e+01   6.9434891434e+01    0.3954385    0.2182217  56.48  0.001726543    2.142    0.533
       170 -11.7637     45.9617     20.5045   4.0080347295e+01   7.0473203735e+01    0.4272054    0.2598033  38.13  0.001860516    1.622    0.383
       171 -11.5762     71.0410     16.5408   2.6177090311e+01   6.5660487425e+01    0.2625267    0.2517587 -51.11 0.0006805232    1.131    0.116
       172 -13.9479     64.4256    213.8674   7.7212896944e+01   2.2088175745e+01    0.5045074    0.3560573  57.81  0.002816938    1.319    0.242
       173 -12.5992     94.4673    218.1877   7.0663111363e+01   1.7551424410e+01    0.3127005    0.1910766  32.48  0.001454607    1.326    0.246
       174 -11.4302    175.9676     13.8971   5.7044576338e+00   3.8708245455e+01    0.2028767    0.1714658 -62.24 0.0002883634    1.027    0.026
       175 -12.4747      4.5797    212.1703   9.1036291606e+01   2.8453631411e+01    0.4116974     0.218562 -72.13  0.002419036    2.120    0.528
       176 -11.0659    136.5127    210.9393   6.0477630777e+01   1.3143457401e+01    0.1666592    0.1246777 -46.56  0.001017171    1.583    0.368
       177 -13.5254     59.5230    212.6822   7.8274203693e+01   2.2893385041e+01    0.5096133    0.3798286 -12.08  0.001253647    1.931    0.482
       178 -10.9705    150.9640    206.6964   5.6827690350e+01   1.1815903342e+01    0.2067535   0.08992852  16.76 0.0007039438    4.212    0.763
       179 -12.8901     57.6088    202.2698   7.7912796959e+01   2.5218158121e+01    0.7117205    0.2853027 -78.92   0.00305433    3.144    0.682
       180 -13.4855     17.1294    195.7269   8.7523767896e+01   3.0801302424e+01     1.218667    0.3487507 -56.23  0.004445798    4.868    0.795
       181 -13.9664     40.1750    195.8947   8.1779475697e+01   2.8514829129e+01    0.8137751    0.3720429  47.90   0.00402073    1.795    0.443
       182 -13.0962     22.3767    166.1631   8.4598967024e+01   3.7076165821e+01    0.4596189    0.2723581  13.41  0.001965758    2.005    0.501
       183 -13.8957     30.0297    169.1781   8.2629365754e+01   3.5630411099e+01    0.9119615    0.7596066 -18.31  0.005453391    1.583    0.368
       184 -13.9277     22.3272    181.0600   8.5485828514e+01   3.3587068290e+01    0.8832843    0.4334614 -61.41  0.004364046    2.260    0.557
       185 -15.2695      8.9969    183.1226   8.9070337349e+01   3.4271111223e+01     1.237654     1.146328  74.61  0.008758147    1.202    0.168
       186 -15.3520     15.4482    175.0524   8.7018177888e+01   3.5581950122e+01     2.375566    0.8177023  51.73   0.01024149    2.391    0.582
       187 -13.3262    164.4594    195.0189   5.2267580664e+01   1.1753631798e+01    0.4898358     0.325575 -66.43  0.002419958    2.919    0.657
       188 -11.0875     80.8103    192.7673   7.1214801947e+01   2.4288085400e+01     0.248577    0.1459915  29.91  0.001119581    1.526    0.345
       189 -12.5839    140.0153     21.2689   1.2267773752e+01   4.7156883660e+01    0.6051671      0.29758  67.25   0.00120365    1.907    0.476
