#   1 NUMBER                 Running object number                                     
#   2 MAG_AUTO               Kron-like elliptical aperture magnitude                    [mag]
#   3 X_IMAGE                Object position along x                                    [pixel]
#   4 Y_IMAGE                Object position along y                                    [pixel]
#   5 X_WORLD                Barycenter position along world x axis                     [deg]
#   6 Y_WORLD                Barycenter position along world y axis                     [deg]
#   7 A_WORLD                Profile RMS along major axis (world units)                 [deg]
#   8 B_WORLD                Profile RMS along minor axis (world units)                 [deg]
#   9 THETA_WORLD            Position angle (CCW/world-x)                               [deg]
#  10 FWHM_WORLD             FWHM assuming a gaussian core                              [deg]
#  11 ELONGATION             A_IMAGE/B_IMAGE                                           
#  12 ELLIPTICITY            1 - B_IMAGE/A_IMAGE                                       
         1 -12.7201    196.0189     33.7062   5.3192868715e+01   3.1864111263e+01     1.569236     1.125107  23.87  0.007420455    1.731    0.422
         2 -12.5138    207.4359     20.6851   4.7879353008e+01   3.0472975483e+01     1.068967    0.8223696  18.05  0.005528932    1.598    0.374
         3 -10.1758     32.7983      3.6564   8.5264323909e+01   7.1974145779e+01    0.4141052    0.1418882 -40.88   0.00183976    2.581    0.613
         4  -9.3930     29.1529      1.8281   8.6172162768e+01   7.2693379695e+01    0.1894272    0.1322208  16.64 0.0007074698    1.471    0.320
         5 -10.7984     96.9414    226.0798   1.1562490239e+02   1.7291817967e+01    0.4410236    0.2089377  48.24  0.001406431    1.648    0.393
         6 -15.1537     52.7547    203.1685   1.2188705831e+02   2.7058736048e+01     6.258807     3.982732  85.16   0.04169885    1.417    0.294
         7  -7.8523    164.3750    205.8169   1.0059982700e+02   1.0057035401e+01    0.1497163    0.1156603 -26.21 0.0003705871    1.591    0.372
         8  -9.0694    194.0197    193.2089   9.3047261528e+01   6.8528954936e+00    0.3035881    0.2070533  41.12   0.00176412    1.303    0.233
         9 -10.3924     71.4819    180.2618   1.1606540634e+02   2.9186230352e+01    0.3482516    0.2704949 -34.58  0.002118089    2.000    0.500
        10 -10.3532     75.7072    174.8495   1.1455887099e+02   2.9724502438e+01    0.3179581    0.2515114 -42.26  0.001083645    1.728    0.421
        11  -8.3173     99.6872    180.5744   1.1009171022e+02   2.5085509156e+01    0.2286175    0.1154843  37.58  0.001109499    1.938    0.484
        12  -8.1016    169.2894    233.6438   1.0351222075e+02   5.3752153711e+00    0.1084204    0.0809957  63.41 0.0005693767    1.681    0.405
        13  -8.5170    195.8501    169.5008   8.8392871681e+01   1.0064617692e+01     0.231119    0.1886161 -25.44 0.0007690589    1.278    0.218
        14 -12.2563    145.9610    230.1897   1.0721429424e+02   9.4320492584e+00    0.9199271    0.3382097  35.79   0.00421179    2.569    0.611
        15 -11.1163     83.7975    164.3837   1.1146276395e+02   3.0777390788e+01    0.6764472    0.3939738  59.95 0.0006329529    1.735    0.424
        16 -11.9902     72.3375    160.6824   1.1360770710e+02   3.3176594532e+01    0.7166865    0.4104362 -56.89  0.001527591    1.804    0.446
        17 -11.3172     64.8453    141.8894   1.1291371525e+02   3.8340093808e+01    0.4340031    0.3734512 -59.42  0.001013028    1.260    0.206
        18 -10.4206     90.3326    158.1134   1.0908216888e+02   3.1148441307e+01    0.4794734    0.3721762  -4.49   0.00188273    2.142    0.533
        19 -13.5083     10.1538    206.7145   1.2984729631e+02   3.0848731732e+01    0.7001798     0.643354  77.37  0.003202477    1.477    0.323
        20  -8.6529     86.8939    145.5277   1.0798691533e+02   3.4424639209e+01    0.1914661    0.1264986  43.01 0.0003753337    1.503    0.335
        21  -8.6225    134.0000    143.4600   9.6269927386e+01   2.6749972641e+01    0.3099871   0.08143122 -49.23  0.000935687    3.942    0.746
        22  -9.2402    103.6833    142.0988   1.0327661430e+02   3.2504148313e+01    0.5124606    0.3112454 -29.04  0.002096265    2.933    0.659
        23 -10.6235     91.4305    142.2225   1.0632602816e+02   3.4464316104e+01    0.2535521    0.2473064 -63.26 0.0004768945    1.183    0.155
        24 -11.6924     69.8394    144.7345   1.1207292303e+02   3.7037765429e+01    0.6203502    0.4403945 -78.76  0.001877621    1.313    0.238
        25 -11.1973     57.5906    127.2882   1.1267166052e+02   4.2614725587e+01    0.9418808    0.2424408 -69.91  0.002787163    4.859    0.794
        26  -9.3252     99.8653    128.0525   1.0159199987e+02   3.6281802380e+01    0.2900868    0.2358482 -32.58  0.001026854    1.490    0.329
        27 -10.7941     43.4146    126.8737   1.1639598838e+02   4.4324100736e+01    0.4192464    0.2273132  48.24  0.002209051    1.887    0.470
        28  -8.4236    105.8362    130.7482   1.0059039899e+02   3.4652461086e+01    0.2536426    0.1896012 -48.45  0.001314157    1.375    0.273
        29  -8.3071    108.6783    120.0234   9.7611460973e+01   3.6550084471e+01    0.1974959    0.1789673 -58.02  0.000426341    1.082    0.076
        30  -9.4125     84.2358    233.7242   1.1853915451e+02   1.7779708487e+01    0.3097159    0.1872419  76.04  0.002027027    1.718    0.418
        31  -8.6321    205.8179    110.1739   7.3221961757e+01   1.7741076107e+01    0.2216721    0.1999203 -49.95 0.0008463606    1.215    0.177
        32  -9.8688    119.1731    109.9789   9.2513434921e+01   3.6804089267e+01    0.2748985    0.2218712  49.13  0.001401743    1.264    0.209
        33  -8.6420    112.9931    131.3966   9.8909414811e+01   3.3240008353e+01    0.3066875    0.1789293  29.85  0.001311875    2.155    0.536
        34  -9.2331     40.5891    108.2407   1.1451551640e+02   4.8989514510e+01    0.1887373   0.09840982 -59.62  0.000951424    1.628    0.386
        35  -7.5280     95.3107    105.6616   9.7997370368e+01   4.2168511225e+01    0.1492589    0.1108737  85.66 0.0007044933    1.688    0.408
        36 -10.3948     92.2197    234.7690   1.1723038404e+02   1.6548732030e+01    0.2290201    0.1645474  68.63    0.0016634    1.247    0.198
        37  -8.3157    134.4599    102.4723   8.6644662070e+01   3.5282362560e+01    0.1510944    0.1475667 -63.76 0.0006025775    1.020    0.019
        38  -8.9165    167.8609    112.4823   8.1415559594e+01   2.5889598589e+01    0.3156664    0.1979448 -56.39  0.001271814    1.970    0.492
        39  -8.7311    239.9952     99.3284   6.4848827526e+01   1.2009769659e+01    0.2308997   0.08833803  35.61 0.0007049465    4.305    0.768
        40  -8.1168     86.0508     99.3205   9.9178562129e+01   4.5168263427e+01     0.192562    0.1772237  65.26 0.0003904682    1.143    0.125
        41  -9.1112     33.1997     98.3485   1.1517851065e+02   5.2034479278e+01    0.2616171   0.07817049 -65.29  0.001037483    2.597    0.615
        42  -8.8568     61.5051     68.9879   9.9206957197e+01   5.5741802344e+01    0.2397642    0.1882734  59.18 0.0008502902    1.571    0.363
        43  -9.4876    155.2835     58.0811   6.8210506837e+01   3.8888978906e+01    0.4152277    0.2863229 -66.95  0.001646479    1.959    0.490
        44 -12.1695     22.2522    193.9068   1.2703499118e+02   3.2105044898e+01    0.7810573    0.4204181  60.52 0.0005880859    1.464    0.317
        45 -10.5522    163.9595    233.7534   1.0445875873e+02   6.1796777580e+00    0.2651383    0.2005291  76.73  0.001736277    1.948    0.487
        46  -8.5543    158.1835     52.4062   6.5703158301e+01   3.9072846929e+01    0.2845002    0.2240368 -78.90 0.0006622865    1.567    0.362
        47 -11.6316    186.9145     40.5498   5.6648051195e+01   3.3340672644e+01    0.6964177    0.5041952   1.50  0.002201191    1.702    0.413
        48 -16.1710      4.7302    238.1813   1.3187532130e+02   2.5947551537e+01     17.08828    0.9190459 -79.56   0.01093983   13.382    0.925
        49 -11.8254    126.1173    230.4937   1.1080529544e+02   1.2387145691e+01    0.8928401    0.4704276  59.35  0.004934139    2.064    0.515
        50  -9.7533     33.3936     30.8160   9.7948832170e+01   6.7126730774e+01    0.2771499   0.08204181 -46.30  0.001118107    2.623    0.619
        51 -10.4480     32.7717     17.7855   9.2654762633e+01   6.9640496506e+01    0.2665622    0.1517504 -44.21  0.001092619    1.492    0.330
        52  -8.4418    181.3378    233.6798   1.0142338257e+02   3.5205744046e+00     0.110027    0.0803735  58.96 0.0007049922    1.710    0.415
        53 -11.9573    112.9275    229.4160   1.1306311107e+02   1.4487994940e+01    0.9553723    0.2513531  43.97  0.004130082    2.844    0.648
