#   1 NUMBER                 Running object number                                     
#   2 MAG_AUTO               Kron-like elliptical aperture magnitude                    [mag]
#   3 X_IMAGE                Object position along x                                    [pixel]
#   4 Y_IMAGE                Object position along y                                    [pixel]
#   5 X_WORLD                Barycenter position along world x axis                     [deg]
#   6 Y_WORLD                Barycenter position along world y axis                     [deg]
#   7 A_WORLD                Profile RMS along major axis (world units)                 [deg]
#   8 B_WORLD                Profile RMS along minor axis (world units)                 [deg]
#   9 THETA_WORLD            Position angle (CCW/world-x)                               [deg]
#  10 FWHM_WORLD             FWHM assuming a gaussian core                              [deg]
#  11 ELONGATION             A_IMAGE/B_IMAGE                                           
#  12 ELLIPTICITY            1 - B_IMAGE/A_IMAGE                                       
         1 -14.3570    196.1241     14.7847   6.9597659531e+01   3.4058470932e+01     2.840613     1.547418  23.84   0.01183537    2.481    0.597
         2 -10.7687     21.1454     11.9919   1.2106257305e+02   7.2682141065e+01     0.250497    0.1599747  54.34  0.001231349    2.850    0.649
         3 -10.3579     81.7436    248.6768   1.4189209203e+02   1.6750687970e+01    0.2292511    0.1263418  52.03 0.0008787468    1.522    0.343
         4 -10.8859    247.9934    249.6719   1.1430745854e+02  -3.2045747831e+00    0.3502109    0.1084667  33.39  0.001978887    2.422    0.587
         5 -10.7501    124.8798    250.1573   1.3454535580e+02   1.1595699781e+01    0.2842321    0.1021428  36.62  0.001598692    2.005    0.501
         6 -10.7627     95.0434    241.1429   1.3902462895e+02   1.6307308825e+01     0.208827    0.1563037 -38.66 0.0006461273    1.903    0.475
         7 -10.9364     98.8818    249.1667   1.3896622510e+02   1.4771467309e+01    0.2468146    0.1649968  54.36  0.001602842    1.386    0.279
         8 -10.3536     97.1870    245.4172   1.3897582520e+02   1.5470836973e+01    0.1675008    0.1051031  50.30 0.0002748672    1.357    0.263
         9 -11.3989     67.4603    243.4780   1.4403448674e+02   1.9011954769e+01    0.3952657    0.2001356  53.41  0.002039479    1.645    0.392
        10 -10.3984     67.1260    250.3905   1.4449415534e+02   1.8066732596e+01    0.1895799    0.1498484  45.00  0.001214345    1.114    0.102
        11  -9.4744     63.6975    250.7042   1.4509106730e+02   1.8375807035e+01    0.1558161   0.07766117  33.73 0.0004551271    1.623    0.384
        12 -14.6707      7.1067     13.5450   1.3120585358e+02   7.3407362739e+01     20.41585          nan -62.11   0.03153435   19.133    0.948
        13 -13.3675     32.4336    245.4955   1.5008115549e+02   2.2143339976e+01     1.620104     0.493052  33.35  0.009441869    2.515    0.602
        14 -15.5468      7.5030    238.4550   1.5395987211e+02   2.5323351429e+01     8.123752     0.881609 -75.82   0.03370269    7.127    0.860
        15 -12.7536     47.2059    233.0768   1.4700536314e+02   2.2620923245e+01    0.2827544     0.245099  62.07 0.0007903398    1.196    0.164
        16 -14.0791     53.6024    223.4448   1.4532340311e+02   2.3499615940e+01    0.9393063     0.646647  73.97  0.006142266    1.397    0.284
        17 -13.9463     11.3594    206.9244   1.5237009996e+02   3.0129012174e+01     1.131303    0.7806444  61.01  0.004276933    1.085    0.078
        18  -9.9170     35.7043    230.1595   1.4889362467e+02   2.4171269930e+01    0.1911833    0.1366395  56.28 0.0008201831    1.049    0.047
        19  -9.4128     37.4141    226.2709   1.4841334590e+02   2.4628055177e+01    0.1355911   0.08864719 -87.82  0.000940996    1.579    0.367
        20 -11.8111    149.7274    229.3335   1.2800057501e+02   1.1119184531e+01    0.4355254    0.1646562  31.38  0.002200878    2.261    0.558
        21 -11.1691    173.7636    222.1336   1.2276098273e+02   8.8103872261e+00    0.3548262     0.277351  56.62  0.002451996    1.870    0.465
        22 -10.8795     27.9225    221.7245   1.4991335923e+02   2.6231352404e+01    0.3348755    0.1031071  53.71  0.001837577    2.509    0.601
        23 -14.7821     60.0532    213.5340   1.4347862475e+02   2.4455965583e+01     6.789073          nan  41.01   0.02107868    6.502    0.846
        24 -10.6589     83.6362    244.4264   1.4127661842e+02   1.7134072323e+01    0.3358597    0.1492336  61.45  0.001869991    2.891    0.654
        25  -9.3695     77.2164    245.0530   1.4243797149e+02   1.7747816036e+01    0.1600884   0.08628546  62.68  0.001068906    1.961    0.490
        26  -8.7068    152.5219    212.9325   1.2546847430e+02   1.2933025591e+01    0.1374484    0.1139194 -36.25 0.0003689242    1.460    0.315
        27 -10.1771    152.2361    248.3773   1.2965352121e+02   8.4665866153e+00    0.1508037   0.07216425  39.85  0.000386245    1.626    0.385
        28 -11.0889    229.8092    230.4149   1.1441439718e+02   5.9525506043e-01    0.4553395    0.2828242 -49.15  0.002422498    4.625    0.784
        29 -11.6862     70.2316    198.1466   1.4027350132e+02   2.5996511833e+01    0.3560559      0.27974  54.15  0.001314385    1.071    0.066
        30 -10.4767    193.0142    194.9726   1.1525851765e+02   9.4996410218e+00    0.6624297    0.3732773 -59.53  0.002099828    8.725    0.885
        31 -11.7263     75.6191    190.7524   1.3847956427e+02   2.6705758142e+01    0.2449137     0.214953 -31.31 0.0008206876    1.476    0.322
        32  -8.8777    106.9050    182.2547   1.3076663561e+02   2.4231261593e+01    0.1622422    0.1320012  38.33 0.0002967472    1.085    0.078
        33 -10.9813     84.2089    178.2583   1.3530758812e+02   2.7990092581e+01    0.2013745    0.1905755  51.36 0.0003368998    1.095    0.087
        34 -13.2739     71.8709    175.9497   1.3783386127e+02   2.9951755537e+01    0.4287965    0.2586523 -41.34  0.001852513    2.256    0.557
        35 -12.1326     90.7421    168.8828   1.3268874178e+02   2.8955290990e+01     1.137229     0.463812  46.31  0.005098402    2.360    0.576
        36 -13.1595     66.2266    142.8545   1.3534058787e+02   3.7525783189e+01     2.203562       1.0217  81.76  0.003146774    5.112    0.804
        37 -10.0527    102.0046    152.1812   1.2761222538e+02   3.0718580211e+01    0.2773003    0.2419391 -37.47 0.0008019241    1.257    0.204
        38  -9.4739    104.5694    148.2322   1.2633927918e+02   3.1143147030e+01    0.3003793    0.1803543 -32.79  0.001396629    2.243    0.554
        39 -12.0964     91.0892    151.8033   1.3024901883e+02   3.2364475662e+01    0.2582392    0.2348554 -15.37 0.0005176858    1.276    0.216
        40 -11.1292     46.4777    147.4022   1.4098105384e+02   3.8706758359e+01    0.3787606    0.1539408 -60.88  0.001795587    2.300    0.565
        41 -12.9614     30.9412    140.9559   1.4436279728e+02   4.1593131382e+01    0.5932873    0.3388815  84.90  0.003292089    1.703    0.413
        42 -10.8163     90.1430    138.7773   1.2844935778e+02   3.5267775218e+01    0.2602143    0.1997581  50.12 0.0005666501    1.295    0.228
        43  -9.2473    242.0261    138.7560   9.6038860708e+01   8.9571074059e+00    0.1527374    0.1003577  36.65 0.0003880741    1.562    0.360
        44  -9.8768    112.0402    137.2919   1.2252355929e+02   3.2233385163e+01    0.3375774    0.2392505  -9.76  0.001190233    2.024    0.506
        45 -10.6016     99.7943    134.5946   1.2518799389e+02   3.4737713682e+01    0.2653052    0.2251981 -17.64 0.0009229672    1.371    0.271
        46  -8.7543    192.1474    143.8625   1.0585612681e+02   1.6863176282e+01    0.1840845    0.1394461   3.62 0.0003739534    1.261    0.207
        47  -9.3315    108.6876    124.0658   1.2077772560e+02   3.5579069115e+01    0.1859003    0.1716392 -45.00 0.0003060665    1.085    0.079
        48 -10.8458    168.1846    113.3116   1.0370325144e+02   2.6471117266e+01    0.3625103    0.3032897 -70.94  0.001109705    1.700    0.412
        49  -9.4292    203.5005    111.5020   9.6237294158e+01   1.9636768143e+01    0.1452456    0.1229143  -0.89 -9.316566e-05    1.040    0.039
        50  -9.0590     78.0401     89.0065   1.2189826397e+02   4.8395840053e+01    0.1651459    0.1585986  24.18 0.0004582678    1.115    0.103
        51 -10.0109     88.8683    249.2168   1.4070089115e+02   1.5892683953e+01    0.1593536     0.100838  50.04 0.0006216182    1.289    0.224
