#   1 NUMBER                 Running object number                                     
#   2 MAG_AUTO               Kron-like elliptical aperture magnitude                    [mag]
#   3 X_IMAGE                Object position along x                                    [pixel]
#   4 Y_IMAGE                Object position along y                                    [pixel]
#   5 X_WORLD                Barycenter position along world x axis                     [deg]
#   6 Y_WORLD                Barycenter position along world y axis                     [deg]
#   7 A_WORLD                Profile RMS along major axis (world units)                 [deg]
#   8 B_WORLD                Profile RMS along minor axis (world units)                 [deg]
#   9 THETA_WORLD            Position angle (CCW/world-x)                               [deg]
#  10 FWHM_WORLD             FWHM assuming a gaussian core                              [deg]
#  11 ELONGATION             A_IMAGE/B_IMAGE                                           
#  12 ELLIPTICITY            1 - B_IMAGE/A_IMAGE                                       
         1 -10.7422    216.2072     23.0287   4.4289590511e+01   2.8273937547e+01    0.5106598    0.3539316  21.29  0.001381597    2.193    0.544
         2  -9.7495     32.6346      5.6871   8.2205563005e+01   7.0768744758e+01    0.5262071   0.09783182 -38.11  0.001809564    4.813    0.792
         3  -9.7267     33.0000     23.5197   9.0571764786e+01   6.8024828213e+01    0.5651831    0.0582133 -46.00  0.001383398    8.423    0.881
         4 -11.0615    231.1069     11.1103   3.9884509272e+01   2.6068894678e+01     0.688993    0.3484199 -30.06  0.003349857    1.989    0.497
         5 -10.8690    226.6571      8.9931   3.9757873039e+01   2.7352380416e+01    0.6123992    0.3489375 -25.62  0.002361408    1.930    0.482
         6  -8.7388     21.3989      2.7861   8.6442321567e+01   7.2432828428e+01    0.1688724   0.08257899 -28.82 0.0006436708    1.723    0.420
         7 -11.0405     48.7966    235.5768   1.2356021567e+02   2.0341627603e+01     0.357475    0.1559561  60.84  0.001997215    1.947    0.487
         8 -11.6847    121.5240    249.4373   1.1179985608e+02   7.8577314846e+00    0.6605905    0.3751667  25.59  0.003403031    2.554    0.608
         9 -10.5083     83.2936    242.3203   1.1799300756e+02   1.4632611031e+01    0.2809915      0.17806 -46.74  0.001678112    2.474    0.596
        10 -11.7127     81.6730    247.2412   1.1869288415e+02   1.4017649526e+01     0.741529    0.2175242  49.09  0.003420966    2.599    0.615
        11 -14.1618     43.0197    201.9401   1.2214845097e+02   2.7549742156e+01     3.204051      1.44949  73.92   0.01563413    2.406    0.584
        12  -9.1167     96.4947    237.4806   1.1515626143e+02   1.3581890360e+01    0.1200663    0.0931655  58.99 -5.539383e-05    1.004    0.004
        13 -10.2546     67.2678    216.1107   1.1865435541e+02   2.1655741273e+01    0.2847298    0.1664701  75.16   0.00162664    1.671    0.402
        14 -11.4113     83.1540    223.4139   1.1629318018e+02   1.8056713603e+01    0.5392045    0.3811475  87.03  0.003452132    1.381    0.276
        15 -11.0061     74.0246    220.2036   1.1773311184e+02   1.9946115776e+01    0.5672231    0.1616092  46.62  0.002422898    2.769    0.639
        16 -14.9941      6.4118    241.6120   1.3085957251e+02   2.3902168666e+01     12.61376     1.773741 -78.82   0.04661969    6.382    0.843
        17 -11.0305     66.1058    243.6997   1.2113057249e+02   1.6714127406e+01    0.2848617    0.2011324  60.11   0.00127576    1.059    0.056
        18 -11.3047     96.3330    226.9813   1.1413398778e+02   1.5472641183e+01    0.5155444    0.2406319  54.97  0.002602025    1.945    0.486
        19 -10.0400     59.9453    184.1365   1.1699749269e+02   2.9259626864e+01     0.339537    0.2509997 -49.33   0.00124503    1.719    0.418
        20  -9.7622     65.8807    177.7106   1.1496523242e+02   2.9900637049e+01    0.2615068    0.2217403 -58.09 0.0006726042    1.367    0.268
        21 -10.4460     83.3404    235.3341   1.1737122559e+02   1.5850200917e+01    0.2575472    0.1899848  41.55  0.001725772    1.366    0.268
        22 -10.5306     75.2691    166.9133   1.1142152131e+02   3.1046767039e+01    0.4872176    0.2728651 -73.33  0.001161251    1.774    0.436
        23 -11.4708     62.8015    163.8010   1.1395288344e+02   3.3470145375e+01    0.5054548    0.2974916 -45.58  0.001563535    2.160    0.537
        24 -10.7950     82.8633    160.7139   1.0870116770e+02   3.1363259071e+01    0.6025887    0.3780108 -54.31  0.001878991    1.615    0.381
        25 -10.3011     73.6603    155.8827   1.1022486858e+02   3.3836991256e+01    0.3619745     0.203458  81.70   0.00154405    2.424    0.588
        26 -12.7274     10.8158    206.7148   1.2850526295e+02   2.9980702449e+01     1.050802    0.7594616  41.81  0.005414488    1.563    0.360
        27 -10.8162     83.0000    231.5420   1.1708954385e+02   1.6579257579e+01    0.3119799    0.2184181  86.14  0.002039275    1.401    0.286
        28 -10.5333     70.3224    145.3253   1.0943984017e+02   3.6805409476e+01    0.4062179    0.3341418  -8.14  0.001600601    1.761    0.432
        29 -11.1298     67.5229    142.5217   1.0971854080e+02   3.7858811949e+01    0.4730777    0.3952849  55.09  0.001830684    1.228    0.186
        30  -9.1081     97.6278    145.1424   1.0236595363e+02   3.2661378690e+01    0.2581061    0.1941875  56.23  0.001109665    1.346    0.257
        31 -10.1699     85.5274    144.0340   1.0528783918e+02   3.4880773866e+01    0.2891077    0.2418236 -49.89 0.0005028528    1.267    0.211
        32 -10.7664     58.9879    132.4505   1.1036068673e+02   4.1392173311e+01    0.7476552    0.1933432 -67.32  0.002215022    4.389    0.772
        33 -10.6538    132.7587    231.2238   1.0763752987e+02   9.0381831563e+00    0.2613151    0.1622207  39.99  0.001496693    1.379    0.275
        34  -9.4423     33.0000    106.0105   1.1342651428e+02   5.0548986558e+01    0.4828475   0.07671848 -66.94  0.001257142    5.951    0.832
        35  -9.6114     32.8195    131.6196   1.1727188004e+02   4.4464928966e+01    0.5187753    0.0944443 -69.11  0.001565994    4.626    0.784
        36 -10.0711     33.0000    119.0663   1.1548218627e+02   4.7438968427e+01    0.5259984    0.1397771 -69.36  0.001855727    3.335    0.700
        37 -11.6940    112.6845    229.1860   1.1124368251e+02   1.2581861609e+01    0.5524256    0.2528519  41.08  0.002772393    1.857    0.461
        38  -8.6257    109.2308    132.5880   9.6814255037e+01   3.3579142790e+01     0.205197    0.1458855  28.82 0.0009484997    1.661    0.398
        39  -9.0652     95.8715    129.3567   9.9704740536e+01   3.6703042067e+01    0.2647654    0.2333395 -52.25 0.0007164493    1.128    0.114
        40  -7.6224    168.3096    113.6457   7.7520918578e+01   2.5261246493e+01    0.1638093    0.1253507 -77.00 0.0007043546    1.725    0.420
        41  -8.2873     83.0000    112.0107   9.9557911739e+01   4.2947497296e+01    0.2472051   0.07686532 -55.39 0.0008037313    2.951    0.661
        42 -10.3852    124.6599    229.9598   1.0903646014e+02   1.0555228524e+01    0.2856174    0.1533806 -60.85  0.001521191    2.242    0.554
        43 -11.0744    109.8534    245.1106   1.1346728208e+02   1.0313145017e+01    0.2769036     0.196067  41.45  0.001823931    1.269    0.212
        44  -9.1080     33.0000     97.9490   1.1201257132e+02   5.2455713769e+01    0.5134988    0.0615778 -64.79  0.001242893    6.831    0.854
        45  -7.9182     52.3366     89.6805   1.0398758060e+02   5.2415462199e+01    0.1340541    0.1010241  79.37 0.0007049525    1.705    0.414
        46  -9.8164     32.8193     83.6847   1.0925390939e+02   5.5792345027e+01     0.695469   0.07722864 -62.32  0.001682126    6.983    0.857
        47  -8.7744     58.4944     79.9914   9.9470805377e+01   5.3882869422e+01    0.2169632    0.1204015 -54.50  0.001030853    1.585    0.369
        48 -10.4589     33.0000     56.9519   1.0251595854e+02   6.1674424420e+01     1.060686   0.06046144 -56.86  0.001831785   14.644    0.932
        49  -9.8645     32.9275     39.6822   9.6973285888e+01   6.5141345040e+01     0.651693   0.04336591 -51.54  0.001370757   10.453    0.904
        50 -10.1832    201.6488     35.0494   4.9263369545e+01   3.0402744473e+01      0.29427    0.2509095 -42.91  0.000912377    1.161    0.139
        51 -10.8832    209.7149     29.7351   4.6794318236e+01   2.9056937895e+01    0.6028453    0.4324345 -73.25  0.003131272    1.424    0.298
        52 -11.8427    134.4621    246.8721   1.0917219789e+02   6.2610183411e+00    0.4806243    0.4317353 -86.81   0.00355973    1.318    0.241
        53 -11.6206     97.6488    248.1419   1.1595067276e+02   1.1612202794e+01    0.5845483    0.3354345  32.40  0.003355506    1.999    0.500
        54 -13.2497     31.9512    213.0875   1.2506002452e+02   2.6557292517e+01     1.618669    0.6458714 -72.21  0.000952521    2.264    0.558
        55 -11.2389     58.6851    240.6856   1.2219832004e+02   1.8198013886e+01    0.5042468    0.2165622 -79.29  0.002742818    2.513    0.602
        56  -9.5488    119.7423    240.4279   1.1116227732e+02   9.5745259744e+00    0.1651201   0.09894273  36.56 0.0003597377    1.563    0.360
