#   1 NUMBER                 Running object number                                     
#   2 MAG_AUTO               Kron-like elliptical aperture magnitude                    [mag]
#   3 X_IMAGE                Object position along x                                    [pixel]
#   4 Y_IMAGE                Object position along y                                    [pixel]
#   5 X_WORLD                Barycenter position along world x axis                     [deg]
#   6 Y_WORLD                Barycenter position along world y axis                     [deg]
#   7 A_WORLD                Profile RMS along major axis (world units)                 [deg]
#   8 B_WORLD                Profile RMS along minor axis (world units)                 [deg]
#   9 THETA_WORLD            Position angle (CCW/world-x)                               [deg]
#  10 FWHM_WORLD             FWHM assuming a gaussian core                              [deg]
#  11 ELONGATION             A_IMAGE/B_IMAGE                                           
#  12 ELLIPTICITY            1 - B_IMAGE/A_IMAGE                                       
         1 -13.3353    200.4449     31.9310   6.2632111847e+01   3.1097810312e+01     1.087994     1.051684  16.58  0.006272392    1.310    0.237
         2 -13.6354    218.2572     14.1248   5.6966264974e+01   2.9226553949e+01    0.9493396    0.8050733  43.56  0.005906748    1.549    0.354
         3 -12.8142      2.2847      8.5473   1.0637592240e+02   7.0237101261e+01    0.9644903    0.2754381 -39.81  0.004799529    3.121    0.680
         4 -11.0986     14.6371     12.7467   1.0248079332e+02   6.8585485191e+01     0.181399    0.1213456 -30.63 0.0007742395    1.487    0.327
         5 -10.2442     55.7134    241.3038   1.3727858108e+02   1.7370959752e+01    0.1868941    0.1284758  82.73 0.0002113111    1.392    0.282
         6 -11.4846    249.6093    247.6799   9.9921447721e+01  -1.2872170537e+01    0.3743592    0.2148043 -35.15  0.002218058    1.740    0.425
         7 -11.4015    139.8234    250.0669   1.2159049173e+02   3.2703585570e+00    0.4694675    0.1503433  38.76  0.001834601    2.708    0.631
         8 -11.7748    148.5967    249.0707   1.1967031341e+02   2.0364187998e+00     0.459798    0.1854424  35.14  0.001964926    2.285    0.562
         9 -12.3533    127.5146    245.1970   1.2341515045e+02   6.1172070821e+00    0.4246311    0.3685372   8.80  0.002660763    1.322    0.244
        10 -11.0928    138.4075    245.2551   1.2119370954e+02   4.3558649812e+00    0.2851537    0.1803983  66.69   0.00136004    2.341    0.573
        11 -13.5502      9.0417    207.8410   1.4331132296e+02   2.9532565836e+01     2.090104     1.319375 -22.85   0.01111099    3.265    0.694
        12 -11.4695    162.2318    249.6860   1.1700507075e+02  -2.6028184067e-01    0.4277225    0.1626614  33.67  0.001753611    2.511    0.602
        13 -15.2940      5.1349    144.0323   1.3779233736e+02   4.4134674263e+01     7.936972     1.569189 -71.55   0.02361746    5.354    0.813
        14  -9.2233    180.2708    232.6362   1.1058572018e+02  -2.9312836051e-01    0.1229251    0.1068778  80.89 0.0006998486    1.657    0.397
        15 -11.8005    109.5733    245.5649   1.2711608173e+02   8.8698864013e+00    0.3316394    0.2587762 -27.41  0.001574875    1.745    0.427
        16 -14.7622     13.3898    240.6768   1.4494434321e+02   2.2351599155e+01     6.115146     3.595116  21.63   0.03596227    2.702    0.630
        17  -8.9177    152.6775    213.0549   1.1303245602e+02   8.0642834659e+00    0.1839275    0.1732484 -19.33 0.0003371969    1.095    0.086
        18 -10.3349     33.2933    204.9703   1.3817524170e+02   2.7726350876e+01    0.3035641    0.1831222  86.34  0.001459855    1.663    0.399
        19 -11.6061     55.3031    194.8133   1.3223697079e+02   2.7432849259e+01    0.3093781    0.2410837 -46.85 0.0005227746    1.435    0.303
        20  -9.4804    191.8120    193.0158   1.0084816652e+02   4.9465917553e+00    0.3892919    0.1819966 -61.08  0.000955892    7.249    0.862
        21 -12.2679      4.3756    185.3087   1.4233237397e+02   3.4857030222e+01    0.5812678    0.3631722  77.28  0.002537165    1.539    0.350
        22 -11.7763     62.1074    186.7955   1.2959711064e+02   2.8408014561e+01    0.2733801    0.2358077 -52.45 0.0004262364    1.212    0.175
        23 -10.7931     73.2260    174.5387   1.2506028613e+02   2.9769679319e+01    0.2459522    0.2176429 -61.40 0.0004131549    1.073    0.068
        24 -13.1244     59.4929    172.1828   1.2808941234e+02   3.2174245662e+01    0.5511382    0.2753516 -43.30   0.00198656    2.301    0.565
        25 -11.7677     81.3000    165.9827   1.2157077305e+02   3.0623221985e+01    0.6183001    0.5463886  -1.46  0.003490102    1.334    0.251
        26 -12.7165     26.4720    227.0617   1.4155539093e+02   2.3732967644e+01    0.2890975    0.2274842 -72.41 0.0007709347    1.261    0.207
        27 -14.2115     32.0725    220.1715   1.3988102898e+02   2.4566865733e+01    0.8656855    0.7416252 -79.03  0.002543417    1.173    0.147
        28 -10.0407     94.9423    150.5748   1.1504167854e+02   3.2125083351e+01    0.2903269    0.2779593  29.76 0.0007620967    1.095    0.087
        29 -11.8799     83.2504    149.4071   1.1793103892e+02   3.4258043931e+01    0.3213893    0.2442708 -42.06 0.0006146611    1.296    0.228
        30  -8.9106    134.3374    148.2188   1.0434778530e+02   2.5490649221e+01    0.2193276    0.1406659 -55.43 0.0005490257    1.673    0.402
        31  -9.0587     98.0924    146.6827   1.1338478287e+02   3.2511086595e+01    0.1997654     0.188813   5.42 0.0004400556    1.114    0.102
        32 -11.8411     68.4726    143.4784   1.2078346871e+02   3.7803098732e+01    0.5588254    0.3926408 -81.34  0.001861061    1.756    0.431
        33 -11.3561     64.9832    142.0049   1.2146026804e+02   3.8622064073e+01    0.4355564    0.2929068 -56.00  0.001105132    1.344    0.256
        34  -9.4825    107.9130    136.0815   1.0839134430e+02   3.3241184074e+01    0.3156775    0.2076581 -12.64  0.001262679    2.382    0.580
        35 -11.6490    173.3714    248.6656   1.1460784053e+02  -1.8717694986e+00    0.3578462    0.2822531  70.45  0.002044131    1.897    0.473
        36 -10.3247     94.6662    133.2588   1.1135600339e+02   3.6194824526e+01    0.2571194    0.2232248 -22.84 0.0003962633    1.191    0.160
        37 -10.0505     50.1536    129.9644   1.2330945981e+02   4.3285816287e+01    0.2089516     0.197249  27.71 0.0006005189    1.197    0.165
        38  -9.0441    105.6381    123.0625   1.0590351940e+02   3.6572309697e+01    0.2008802    0.1730324 -38.86 0.0003123361    1.113    0.102
        39  -9.7082    167.4240    112.6078   8.7954263567e+01   2.6016606669e+01    0.2796291    0.2402095 -72.58 0.0007133965    1.334    0.251
        40 -11.4377     60.1359    242.6237   1.3656051743e+02   1.6536638871e+01    0.3682372    0.2191257  70.55 0.0005101874    1.745    0.427
        41 -11.1025    232.3618    249.6375   1.0337102731e+02  -1.0850547218e+01    0.2995749   0.09859011  31.27  0.001250628    2.978    0.664
        42 -12.2439    200.3702    249.1610   1.0934996380e+02  -6.1561918459e+00    0.6923407    0.1605061  40.29  0.002353054    4.045    0.753
        43 -11.5539     96.9308    248.1907   1.2997218873e+02   1.0289242082e+01    0.4666181    0.2190766  58.20  0.002059288    2.579    0.612
