#   1 NUMBER                 Running object number                                     
#   2 MAG_AUTO               Kron-like elliptical aperture magnitude                    [mag]
#   3 X_IMAGE                Object position along x                                    [pixel]
#   4 Y_IMAGE                Object position along y                                    [pixel]
#   5 X_WORLD                Barycenter position along world x axis                     [deg]
#   6 Y_WORLD                Barycenter position along world y axis                     [deg]
#   7 A_WORLD                Profile RMS along major axis (world units)                 [deg]
#   8 B_WORLD                Profile RMS along minor axis (world units)                 [deg]
#   9 THETA_WORLD            Position angle (CCW/world-x)                               [deg]
#  10 FWHM_WORLD             FWHM assuming a gaussian core                              [deg]
#  11 ELONGATION             A_IMAGE/B_IMAGE                                           
#  12 ELLIPTICITY            1 - B_IMAGE/A_IMAGE                                       
         1 -11.7584    212.7175      2.2226   6.0341411315e+01   3.1817877226e+01    0.8101586    0.4112923  63.03  0.002500699    1.754    0.430
         2 -12.9796    188.9928     26.4594   6.9051373391e+01   3.4894222006e+01     1.465757     1.131388 -14.88  0.006233005    1.656    0.396
         3 -12.8160    195.9989     19.3180   6.6285494947e+01   3.4003321581e+01     1.113284    0.8080363 -65.61  0.004360596    1.392    0.282
         4 -12.2741    202.4733     11.9950   6.3704192540e+01   3.3239778846e+01    0.6552757    0.5767916 -12.73  0.001399996    1.482    0.325
         5  -9.4766     41.3268      4.3182   9.7144694840e+01   6.7771388903e+01    0.1176811    0.0690627   5.58 0.0007045995    1.678    0.404
         6 -11.0165     71.8310    191.9949   1.3492510475e+02   2.6208406136e+01    0.3934804    0.2519531 -46.18  0.001293364    2.030    0.507
         7 -10.8238    249.2249    249.6105   1.0847368178e+02  -1.4125175538e+01    0.5070797    0.1777332  42.54   0.00232598    2.820    0.645
         8 -11.6814    141.2403    248.9358   1.2827554602e+02   3.6216945695e+00    0.5842345    0.2750361  46.40  0.002910355    1.732    0.423
         9 -11.9111    133.8842    247.5196   1.2947770997e+02   5.1063597829e+00    0.4731724    0.3578882  43.03  0.002968201    1.188    0.158
        10 -11.3316    126.8659    249.0790   1.3097999423e+02   6.0178326736e+00    0.5422327     0.322607 -41.95  0.002891663    2.448    0.591
        11 -13.3478     84.2528    238.6567   1.3771717676e+02   1.4703329517e+01     2.126159    0.8999721  68.27  0.008388224    3.573    0.720
        12 -11.6957     68.4554    222.5073   1.3903553960e+02   2.0183472596e+01    0.3714199    0.2476117  80.49 0.0005458714    1.348    0.258
        13 -14.8122     34.2282    247.0881   1.4706071979e+02   1.9858382638e+01     7.904382     1.955449  35.55   0.02843409    6.128    0.837
        14  -9.7733    127.2073    174.4835   1.1976446346e+02   2.0869065659e+01    0.2836601    0.2129437 -57.09  0.001425897    1.351    0.260
        15 -10.6232     84.4466    173.3550   1.2951881468e+02   2.8566718995e+01    0.3533813    0.2476554 -82.53  0.001847801    1.431    0.301
        16  -8.9473    118.3171    174.3293   1.2179744654e+02   2.2573382695e+01    0.1415026    0.1180755 -14.99 0.0006993603    1.682    0.405
        17 -12.5392     72.4135    170.8866   1.3193636580e+02   3.0933055600e+01    0.4866082    0.2774368 -45.63    0.0014315    2.131    0.531
        18 -10.1414    107.5925    173.3268   1.2412084210e+02   2.4737058085e+01    0.4122232    0.1226654  42.33  0.001363228    3.230    0.690
        19 -11.5736     89.7791    165.6514   1.2702969455e+02   2.9519290889e+01    0.9305328    0.5356888  49.98  0.001640861    1.754    0.430
        20 -12.6735     68.6130    145.8429   1.2890280543e+02   3.7353933583e+01     1.412532    0.7427655 -89.90  0.005208631    3.355    0.702
        21 -12.1666     58.8195    133.6648   1.2932982248e+02   4.1510753282e+01     2.517719    0.8142321 -72.16  0.005394726    9.209    0.891
        22  -8.5923    105.0195    145.2412   1.1948690091e+02   3.1742573083e+01    0.2983207    0.1848058 -32.49  0.001231892    2.274    0.560
        23 -11.3224     91.6346    148.4480   1.2351861185e+02   3.3272619545e+01    0.2874378    0.2543306 -40.23 0.0005912421    1.269    0.212
        24 -11.5306     46.3798    147.9157   1.3479925958e+02   3.9645395848e+01    0.5374777    0.2835971 -74.65    0.0026378    1.783    0.439
        25  -8.7936    134.6344    148.8395   1.1286502061e+02   2.5218920348e+01    0.2271608    0.1419213 -61.17 0.0009526192    1.758    0.431
        26 -10.2257     57.6935    145.7577   1.3165344187e+02   3.8806000376e+01    0.2644461     0.176396  50.12   0.00134944    1.609    0.379
        27  -9.1845    112.7150    135.2051   1.1537481340e+02   3.2681795703e+01    0.2846328    0.2147923  25.76 0.0009179944    1.602    0.376
        28 -13.9147     11.6416    206.8027   1.4814927691e+02   3.0218779743e+01     1.277676    0.9110051  63.13  0.005899102    1.254    0.203
        29  -9.8971    100.0577    132.2106   1.1803515352e+02   3.5678009288e+01    0.2986494    0.2221458 -32.48 0.0008730431    1.589    0.371
        30 -10.8210     45.6603    129.8648   1.3217285382e+02   4.3935418449e+01    0.2964793    0.1501875  48.61  0.001418572    2.320    0.569
        31  -8.7201    160.6743    127.3571   1.0163903102e+02   2.4362052243e+01    0.1667725    0.1251983 -84.64 0.0007044852    1.775    0.437
        32  -8.5977    108.9351    122.5385   1.1346775773e+02   3.6316619142e+01    0.2078565    0.1484702  42.11 0.0004537671    1.459    0.315
        33  -9.2745     40.2973    117.3355   1.3147601289e+02   4.7385206625e+01    0.1323008   0.08338002 -40.91 0.0003026738    1.651    0.394
        34 -10.0802    168.2572    113.1383   9.6322115067e+01   2.5606722034e+01    0.3704928    0.2914762 -79.51 0.0009469705    1.557    0.358
        35 -14.9469     56.5659    211.8940   1.4024901788e+02   2.4001923298e+01     6.104382     1.545211  49.61   0.02155729    3.532    0.717
        36  -9.4569    164.4806    157.0532   1.0765574246e+02   1.7094119631e+01    0.2376902    0.1522128 -47.40  0.001032256    1.592    0.372
        37  -8.3285    205.5093    110.4661   8.7958472937e+01   1.7313868914e+01    0.1521037    0.1463127 -64.29 0.0001265216    1.004    0.004
        38  -9.3286    102.7965    148.9043   1.2078392382e+02   3.1273599753e+01    0.3079463     0.265635 -74.40  0.000976429    1.109    0.098
        39 -15.9969      6.9436    240.4443   1.5097369895e+02   2.4115203004e+01     22.01595    0.6760095 -74.48   0.05311757   13.098    0.924
        40  -8.1515    154.6930     76.6830   8.9438954480e+01   3.5931094219e+01    0.1538759    0.1195993  16.25 0.0004285289    1.631    0.387
        41 -10.3502    126.0914     52.9522   8.9016689253e+01   4.6515156699e+01    0.3526798    0.2864119 -88.35  0.000979008    1.646    0.392
        42 -10.0408    230.0661    248.8990   1.1174274857e+02  -1.1192114628e+01    0.2265325    0.1817224  70.62  0.001252397    2.276    0.561
        43 -12.2342     48.8847    231.3625   1.4342369181e+02   2.1044184530e+01    0.5230188    0.4046082  46.88  0.002023842    1.450    0.310
        44 -12.2248     48.3861    224.7104   1.4295526778e+02   2.2429091270e+01    0.4583496    0.3832115 -39.74 0.0007953952    2.008    0.502
        45  -9.6467    227.4487    203.3095   1.0415610037e+02  -4.2411537575e+00     0.276646    0.2227397 -56.09 0.0009286276    1.659    0.397
        46 -10.9228     76.3930    185.2180   1.3305242481e+02   2.7066379699e+01    0.2982195    0.2388652 -53.48  0.000591561    1.420    0.296
        47 -10.1703    193.8548    196.3540   1.0938995027e+02   3.1895022322e+00    0.7315354    0.3542662 -62.36  0.002118545    5.630    0.822
