#   1 NUMBER                 Running object number                                     
#   2 MAG_AUTO               Kron-like elliptical aperture magnitude                    [mag]
#   3 X_IMAGE                Object position along x                                    [pixel]
#   4 Y_IMAGE                Object position along y                                    [pixel]
#   5 X_WORLD                Barycenter position along world x axis                     [deg]
#   6 Y_WORLD                Barycenter position along world y axis                     [deg]
#   7 A_WORLD                Profile RMS along major axis (world units)                 [deg]
#   8 B_WORLD                Profile RMS along minor axis (world units)                 [deg]
#   9 THETA_WORLD            Position angle (CCW/world-x)                               [deg]
#  10 FWHM_WORLD             FWHM assuming a gaussian core                              [deg]
#  11 ELONGATION             A_IMAGE/B_IMAGE                                           
#  12 ELLIPTICITY            1 - B_IMAGE/A_IMAGE                                       
         1 -14.2304    220.8768      5.5116   3.8326428832e+01   2.9442004078e+01     1.969863    0.9579796  69.64  0.004836126    1.912    0.477
         2 -15.3048    194.7423     35.6628   4.9180953084e+01   3.2293744074e+01     3.508694     2.080161  23.89   0.01392044    2.906    0.656
         3 -11.1523    189.7409     14.9228   4.3984327628e+01   3.6045675896e+01     0.304076    0.2176539 -50.08 0.0007757959    1.388    0.279
         4  -9.8707     80.8299     15.4679   6.6344459593e+01   6.1792446039e+01    0.2399043    0.1261558  54.61   0.00113443    2.134    0.531
         5  -9.2831    229.6953    244.3575   9.0407633264e+01  -8.2794158427e+00   0.09869187   0.08990637  50.75 0.0007039909    1.721    0.419
         6 -11.9833    249.1248    249.8806   8.7981570981e+01  -1.1534065600e+01    0.4337659    0.2098726 -30.20  0.002611572    2.186    0.543
         7 -10.4058     29.4457    218.4460   1.2490422507e+02   2.5318337775e+01    0.2014328    0.1218832 -54.68 -3.361344e-05    2.253    0.556
         8  -9.9020     57.0266    210.7362   1.1913852564e+02   2.3642728319e+01     0.322586     0.142117 -62.94  0.001531273    2.276    0.561
         9 -10.6239     43.9011    210.5787   1.2166657774e+02   2.5264663812e+01    0.2399696    0.1573581 -79.90 0.0009317363    1.384    0.278
        10  -9.1257     41.8088    205.7913   1.2169678887e+02   2.6484052541e+01    0.2478318    0.2184209 -25.47  0.001395381    1.859    0.462
        11  -9.5932     43.4743    236.4214   1.2357174746e+02   2.0331440518e+01    0.1085438   0.08394793  68.46 0.0001395325    1.087    0.080
        12  -9.5713     63.5699    209.9349   1.1777746470e+02   2.2968426152e+01     0.286228    0.2065649 -13.53  0.001467756    3.180    0.686
        13 -11.3830     67.0484    204.5323   1.1656002002e+02   2.3619685147e+01    0.3443853     0.219227 -49.63  0.001129412    2.054    0.513
        14 -10.2721     72.0341    202.3054   1.1531080724e+02   2.3411321267e+01    0.3971552    0.2079702  77.65  0.001872029    2.353    0.575
        15  -9.3298    168.9628    234.6932   9.9996504067e+01   2.3110315781e+00    0.1687711    0.1315834  36.40 0.0002614108    1.058    0.055
        16 -13.3449     32.2843    206.5927   1.2358725961e+02   2.7381533560e+01    0.3461931    0.1673251  58.10  0.001678276    1.766    0.434
        17 -13.1874    206.9871    195.4817   8.6210863974e+01   1.9958827272e+00     1.128479    0.6041904  13.44  0.004330913    3.297    0.697
        18 -11.4476    192.2471    193.3679   8.8698530634e+01   4.9573953755e+00     1.318153    0.6922703 -63.68  0.003876962    6.433    0.845
        19 -10.6299     96.2850    201.6901   1.1016790689e+02   2.0024152467e+01    0.4697195    0.2648031 -43.51  0.002241407    2.483    0.597
        20 -13.4805     55.2458    200.0961   1.1853586591e+02   2.6064834177e+01    0.4426335    0.3149576 -70.12  0.001841996    1.392    0.282
        21 -10.8636     58.8110    192.8078   1.1709118897e+02   2.7172011849e+01    0.2563347    0.1435954  57.06 0.0006758805    1.637    0.389
        22 -13.3934     64.8605    187.2146   1.1520389631e+02   2.7609494494e+01     0.827572    0.6529182 -48.88  0.005065821    1.593    0.372
        23  -9.1696    161.0379    199.4894   9.6143543442e+01   9.5122160921e+00    0.1960384    0.1223941  41.36 6.564459e-05    1.443    0.307
        24  -9.8124     34.4024    197.1394   1.2247568603e+02   2.9114584803e+01    0.1332075   0.08683933  78.71  0.000127958    1.272    0.214
        25 -10.2652     82.0732    195.2034   1.1240433847e+02   2.3498916478e+01    0.2156111    0.1963548 -85.08 0.0006402415    1.168    0.144
        26 -11.7234    152.1348    195.0058   9.7260202357e+01   1.1944879400e+01    0.4564133    0.2373371  32.89  0.002001465    2.023    0.506
        27 -10.8041     95.5860    189.0106   1.0867324866e+02   2.2801068233e+01    0.3316635    0.2664924  31.81  0.001335084    1.418    0.295
        28 -17.6882     31.7948    246.8970   1.2615225314e+02   1.9785258385e+01      6.97432     1.934963  32.57   0.02775844    5.298    0.811
        29 -10.6815     19.3037    188.2023   1.2481880369e+02   3.2555118843e+01     0.197964    0.1515489 -58.00 0.0007404434    1.605    0.377
        30 -11.0468     35.9316    229.6632   1.2445622354e+02   2.2452085745e+01     0.247153     0.116232  57.80  0.001117326    1.697    0.411
        31  -8.9631     56.5489    224.4953   1.2037264805e+02   2.0986326632e+01    0.1215253   0.08612581  68.21 0.0008058751    1.120    0.107
        32 -11.5216     60.1384    232.3892   1.2033163586e+02   1.9042865476e+01    0.1860083    0.1314315  72.72  0.000309271    1.159    0.137
        33 -11.1753     99.3045    180.7723   1.0667660102e+02   2.4010502582e+01     0.268783    0.2290552  39.93 0.0006306315    1.241    0.194
        34 -10.7385    188.6085    175.9662   8.6085218549e+01   8.6842593133e+00    0.5723249    0.2577033 -50.91  0.002182909    2.829    0.647
        35 -10.1776     37.4393    176.3455   1.2006679123e+02   3.3316114275e+01    0.3272343    0.1508789  54.68  0.001641404    2.086    0.521
        36 -10.1720    204.3586    175.4159   8.2812764662e+01   5.8001347286e+00    0.2568692    0.2456911 -16.01 0.0008386657    1.143    0.125
        37 -10.3136    196.5848    174.7935   8.4230373999e+01   7.3747927091e+00     0.315588    0.2706255 -70.16  0.001728187    1.565    0.361
        38 -10.6203     58.3248    176.0710   1.1539736983e+02   3.0942313165e+01    0.2607446     0.174338  58.69 0.0005036036    1.401    0.286
        39  -9.4930     53.9962    174.0000   1.1614191564e+02   3.1949194736e+01    0.1874865    0.1090992  52.23 0.0003622283    1.637    0.389
        40 -10.8738     45.6434    173.0303   1.1792119351e+02   3.3155740464e+01    0.3557265    0.2287429  37.54  0.001926641    1.679    0.405
        41  -9.9974     41.2543    170.6071   1.1865779048e+02   3.4199986665e+01    0.2088004    0.1402651  74.42 0.0005578003    1.357    0.263
        42 -10.0898     36.8530    224.3733   1.2395456697e+02   2.3352945771e+01    0.1245897    0.0985093  38.08 0.0003554958    1.554    0.357
        43 -11.5371    195.4716    198.9828   8.9089568128e+01   3.4513065817e+00    0.5830829    0.4607097  71.17  0.002235191    1.912    0.477
        44 -10.2963    186.9245    165.6540   8.4322907508e+01   1.0919233727e+01    0.3169994    0.2106816 -52.22  0.001011739    1.741    0.425
        45  -8.9678     64.2016    222.5783   1.1878169878e+02   2.0380024089e+01    0.1198723   0.07053363  77.50 0.0005420248    1.660    0.397
        46 -12.3496     94.3834    152.7663   1.0336503255e+02   3.1218467965e+01    0.6678689    0.4803369 -28.65  0.003203369    1.963    0.491
        47 -10.4112    187.6970    152.5857   8.1343686518e+01   1.3255580013e+01    0.3294426    0.2277756 -75.99  0.001339935    2.576    0.612
        48 -11.5951    133.8958    145.7258   9.2085440965e+01   2.5731361866e+01     1.293582    0.3358568 -55.28  0.003081961    5.744    0.826
        49  -9.2794     50.3209    220.2739   1.2120185005e+02   2.2571507234e+01   0.09490661   0.09073928 -51.01 0.0006978348    1.573    0.364
        50 -10.9001    174.3429    149.2205   8.3450809659e+01   1.6690132493e+01    0.3142332    0.2988814  48.69  0.001046638    1.087    0.080
        51 -10.6677    143.9216    146.2980   8.9779537638e+01   2.3600133398e+01     0.359895    0.2216736 -64.14  0.001471029    2.058    0.514
        52  -9.4125    108.8808    147.0755   9.8627284176e+01   3.0108429688e+01    0.2200407    0.1829006  81.34  0.000282904    1.281    0.219
        53  -9.3111     49.0197    217.4210   1.2122534783e+02   2.3289259120e+01    0.2544298    0.1595285  28.23  0.001273875    2.121    0.529
        54 -11.5231    106.8770    138.5401   9.7429672182e+01   3.2476266961e+01    0.5446644    0.4347659 -33.89  0.002754199    1.441    0.306
        55 -12.5015     94.3084    138.4573   1.0073325577e+02   3.4643714990e+01    0.2798463     0.261594 -40.88 0.0006036789    1.175    0.149
        56 -11.2761    135.6135    127.3558   8.7484529141e+01   2.9535783103e+01     1.168441     0.207036 -50.36  0.002400481    7.008    0.857
        57 -11.0961    105.8860    130.7251   9.6036535739e+01   3.4507669108e+01    0.3820349    0.3101192 -66.32  0.001272933    1.217    0.178
        58 -10.8357    114.1413    129.5367   9.3566978155e+01   3.3276699036e+01    0.3540208    0.3114006   7.13 0.0008682493    1.360    0.265
        59 -11.4246    119.7612    124.0142   9.0794333426e+01   3.3491688686e+01    0.7192791    0.3454807 -35.86  0.002490428    2.755    0.637
        60 -10.2841    160.7728    127.9748   8.1530340796e+01   2.4018797732e+01    0.3911305    0.2484501 -58.45  0.001609593    1.874    0.466
        61 -11.1202    101.5461    125.4998   9.6066745674e+01   3.6520572540e+01    0.2821342     0.237606 -25.10 0.0007831538    1.392    0.281
        62 -10.2021    109.5977    118.5975   9.2250742262e+01   3.6697439712e+01     0.245905    0.2335865 -52.08 0.0003406989    1.029    0.028
        63 -10.0348    167.4872    112.3084   7.6002405130e+01   2.5791608119e+01    0.3429059    0.2475734 -75.91  0.001250997    1.984    0.496
        64 -10.4787    135.0000    112.0428   8.3794280264e+01   3.3097606251e+01    0.4453902   0.08773705 -45.39  0.001052579    4.946    0.798
        65 -11.7441    118.6518    110.5142   8.7742794748e+01   3.6823035206e+01    0.6172368    0.4370456  69.91   0.00268267    1.895    0.472
        66 -10.3069    205.4232    110.1851   6.7640397827e+01   1.7502453733e+01    0.3112497    0.2500278  44.33 0.0009308108    1.312    0.238
        67  -9.9027    134.4520    105.7559   8.2258652410e+01   3.4601692781e+01    0.3071787    0.1495505 -49.09   0.00110342    2.073    0.518
        68 -10.6628     64.8097    100.0409   1.0112837956e+02   4.8314782804e+01    0.3731891    0.2142027  21.73   0.00166077    2.266    0.559
        69  -9.4711    155.6915     81.4451   7.0033928701e+01   3.4729704326e+01    0.2150929    0.1475783  40.37 0.0009355641    1.544    0.352
        70  -9.0485    184.3441     77.2878   6.2798607046e+01   2.8478309585e+01    0.1566612    0.1198979  21.42 0.0007022156    1.649    0.394
        71  -9.8222     66.4562     70.8947   9.2814810310e+01   5.4720748341e+01    0.2084981    0.1869594  39.58 0.0003579293    1.287    0.223
        72 -16.8912     69.4573    145.3234   1.0851424222e+02   3.6716190423e+01     13.57443     6.790383  78.52   0.04540632    4.065    0.754
        73 -13.2109    179.2299     50.0213   5.5778161455e+01   3.4205293890e+01    0.7916391    0.7292652  23.22 0.0007572829    1.199    0.166
        74  -9.2046    168.1770    248.1071   1.0197159734e+02   4.8116222657e-01    0.1450554    0.1190318  51.42            0    1.265    0.210
        75 -11.2274    156.8923     59.2159   6.2917530310e+01   3.8394230467e+01    0.3366264    0.2753205 -82.79 0.0004971763    1.448    0.309
        76 -11.0585    158.5731    235.6406   1.0210032949e+02   3.8427122786e+00     0.249202    0.1700828  31.26  0.001009231    1.335    0.251
        77 -19.2913      6.1381    104.5524   1.2017037705e+02   5.2705448096e+01      17.4806     1.344146 -72.45   0.03301661   12.973    0.923
