#   1 NUMBER                 Running object number                                     
#   2 MAG_AUTO               Kron-like elliptical aperture magnitude                    [mag]
#   3 X_IMAGE                Object position along x                                    [pixel]
#   4 Y_IMAGE                Object position along y                                    [pixel]
#   5 X_WORLD                Barycenter position along world x axis                     [deg]
#   6 Y_WORLD                Barycenter position along world y axis                     [deg]
#   7 A_WORLD                Profile RMS along major axis (world units)                 [deg]
#   8 B_WORLD                Profile RMS along minor axis (world units)                 [deg]
#   9 THETA_WORLD            Position angle (CCW/world-x)                               [deg]
#  10 FWHM_WORLD             FWHM assuming a gaussian core                              [deg]
#  11 ELONGATION             A_IMAGE/B_IMAGE                                           
#  12 ELLIPTICITY            1 - B_IMAGE/A_IMAGE                                       
         1 -10.7696     41.0339     13.8152   4.2336080709e+01   6.7869317655e+01    0.2011179    0.1548368   8.47 0.0002376899    1.052    0.049
         2  -9.4111     97.6341     12.1198   2.2193661391e+01   5.7803801364e+01    0.2291512    0.1506449   4.00  0.001253959    1.905    0.475
         3  -9.0653     67.5254      1.2977   2.6529653993e+01   6.4824465432e+01    0.1867194   0.09004175  49.76 0.0001592059    1.749    0.428
         4  -9.8892    107.2115    246.9847   7.4425371899e+01   8.3915171036e+00    0.3022811    0.1983142  89.42    0.0016129    2.042    0.510
         5 -10.1789     53.2365    249.5194   8.5705744691e+01   1.5412609590e+01    0.2783395    0.1983491  40.45 0.0009629943    1.324    0.245
         6  -9.1843     57.4588    246.4991   8.4631657332e+01   1.5469461404e+01    0.1693426      0.11079  28.67 0.0007878381    1.738    0.425
         7 -10.6722     20.0072    248.9459   9.1996219330e+01   1.9399275446e+01    0.3985111    0.1928637  61.25  0.002323909    1.688    0.408
         8  -9.9909     13.1689    250.2297   9.3306914184e+01   1.9868640688e+01    0.2515556    0.1056886  44.97  0.001174289    1.848    0.459
         9  -9.8325      4.1860    249.3956   9.4867165307e+01   2.0932717169e+01    0.2160945    0.1258806  67.59 0.0007049936    1.308    0.236
        10  -9.3788     73.4765    244.2754   8.1184144948e+01   1.3781884440e+01    0.1992642    0.1767402 -53.11  0.001335088    1.445    0.308
        11 -11.4055    166.5825    241.8368   6.1256411767e+01   1.1911623122e-01    0.4089453     0.159104  36.82   0.00167248    2.202    0.546
        12  -9.6296     97.8277    241.6898   7.5815506571e+01   1.0808038031e+01    0.2012147    0.1503512  26.72  0.000980087    1.442    0.307
        13 -10.4521     29.3438    244.4856   8.9986853142e+01   1.9255438251e+01    0.3400621    0.1725266  68.06  0.001297859    1.777    0.437
        14  -9.5384    250.4154    241.2781   4.5140572667e+01  -1.1491933831e+01    0.1435468   0.09846281 -35.99 0.0009417069    1.584    0.369
        15  -9.0870    237.2332    239.4726   4.7156975554e+01  -9.6266246507e+00    0.3019011   0.09694786  26.94  0.001180403    3.715    0.731
        16  -8.8433     16.7946    238.0683   9.1990861015e+01   2.1898324099e+01    0.2477311   0.09904779  76.88  0.001166273    2.654    0.623
        17 -10.0155    249.1016    237.1792   4.4695363593e+01  -1.0788405767e+01    0.1893753    0.1303232  -1.42  0.001246119    1.260    0.206
        18 -10.5889     88.7277    222.8180   7.5651590259e+01   1.6017946374e+01    0.3057733    0.1791988 -53.23 0.0007695599    1.931    0.482
        19 -10.2320     90.3295    235.3079   7.6717586750e+01   1.3185335570e+01    0.2462598    0.2131663  37.84  0.001066527    1.182    0.154
        20 -10.1287     91.0972    230.7745   7.6044451915e+01   1.3998212053e+01    0.3735287    0.2077652 -45.53  0.001792027    2.368    0.578
        21 -10.7749     88.3758    227.2316   7.6240615892e+01   1.5137297311e+01       0.3499    0.2224704  42.76  0.001447559    1.370    0.270
        22 -10.3597    231.0659    234.2436   4.7408068366e+01  -8.0900097456e+00    0.2677003    0.2082955  -7.92 0.0009395477    1.092    0.084
        23 -10.5731    162.6891    232.5356   6.0676971937e+01   2.3398513753e+00    0.6440375    0.2124242  45.42  0.002307296    3.275    0.695
        24 -11.7806     98.5370    225.3859   7.3761684205e+01   1.3995336167e+01      0.60913    0.4181686 -83.71  0.001558182    1.712    0.416
        25 -11.5776     95.9680    217.9341   7.3415757745e+01   1.5969552919e+01     0.622563     0.359528  48.71  0.001969042    1.577    0.366
        26 -10.8592    237.8757    230.0866   4.5485476332e+01  -8.3896174119e+00    0.2822918    0.2296644   4.11  0.001701848    1.067    0.063
        27  -8.6803    144.5636    227.5027   6.3821342806e+01   6.2037114375e+00    0.1349344    0.1199161  31.92 0.0001720408    1.018    0.017
        28  -9.7230    116.6060    227.2516   6.9965930817e+01   1.0785872608e+01    0.1683605    0.1274791 -47.49 0.0009348072    1.528    0.346
        29  -9.4703    169.7984    224.8049   5.7959442757e+01   2.5732428605e+00    0.4248075    0.2395567  57.03  0.001804764    2.747    0.636
        30 -11.4590    126.5325    221.2440   6.6911202312e+01   1.0394827657e+01    0.4352731    0.3060869  80.74  0.001091754    1.967    0.492
        31 -10.9313    162.2092    225.4973   5.9688953437e+01   3.6857531999e+00    0.4253831    0.3020996  14.29  0.002260237    1.550    0.355
        32 -10.0565    108.8432    222.4954   7.1077342509e+01   1.2993356127e+01    0.2105192    0.1911176 -21.54 0.0007601873    1.354    0.261
        33 -10.0888    121.1482    222.1777   6.8256796065e+01   1.1084383274e+01    0.2072417     0.187219  13.12  0.001239882    1.230    0.187
        34  -9.0156    157.7200    221.4027   6.0012033592e+01   5.1862425968e+00    0.1930394    0.1200507  27.54 0.0006970316    1.579    0.367
        35  -9.9712    115.0673    220.9392   6.9460002307e+01   1.2322843997e+01     0.205714    0.1666559  -8.41 0.0008385296    1.653    0.395
        36  -8.5481    212.5140    220.5195   4.8563657518e+01  -3.3922554607e+00    0.1286171    0.1094063   3.26 0.0003506938    1.007    0.007
        37  -9.2211    149.3593    219.7802   6.1590358659e+01   6.8910265272e+00    0.2392842    0.1236958 -38.61  0.001039554    2.347    0.574
        38  -9.1648    152.2117    216.0189   6.0362606886e+01   7.1420262151e+00    0.2914465    0.1708182  12.94  0.001176241    2.694    0.629
        39  -9.8885     74.6929    218.8738   7.8358844960e+01   1.8904876063e+01    0.2751751    0.1841255  57.44   0.00104701    1.368    0.269
        40  -9.1025    143.6438    216.5479   6.2357009885e+01   8.4861013426e+00     0.223696    0.1334422 -51.97  0.001071152    1.859    0.462
        41  -9.3007    190.0056    215.2967   5.2145691864e+01   9.8412639890e-01     0.287013    0.1594801 -18.46  0.001193373    2.756    0.637
        42 -10.3060    170.4592    215.2015   5.6241130259e+01   4.2217954516e+00    0.2750542    0.2424159  -9.29  0.000819955    1.154    0.134
        43  -9.7257     99.8219    217.1888   7.2437642106e+01   1.5533501584e+01    0.2418041    0.2160428  41.74 0.0005336518    1.106    0.096
        44  -9.4054    131.1783    214.5406   6.4868242239e+01   1.0993064853e+01    0.2139236    0.1669648 -46.32  0.000583582    1.422    0.297
        45  -9.6527    228.4934    214.0381   4.4422201611e+01  -4.6970103125e+00    0.1853842    0.1130565 -35.45 0.0006749678    1.561    0.359
        46 -10.1834     77.4619    211.4371   7.6883289850e+01   2.0154555268e+01     0.294858    0.2200028  27.16  0.001625379    1.501    0.334
        47  -9.2781    116.2918    210.6471   6.7723210320e+01   1.4295268584e+01    0.1450371    0.1027474  69.85 0.0004751591    1.679    0.404
        48 -10.0935    212.5874    207.6985   4.6293290130e+01  -1.2906773065e+00     0.369978    0.2068614  39.73  0.001858733    1.819    0.450
        49 -10.3387    124.0231    205.9793   6.5212722021e+01   1.4004553248e+01    0.2026055    0.1861112  47.07  0.001171774    1.003    0.003
        50 -10.6333    249.7217    194.6515   3.7190495399e+01  -4.6585834346e+00    0.4795149    0.1969069 -43.80  0.002190315    2.417    0.586
        51 -11.2588    179.5736    190.7870   4.9925729889e+01   7.3248331593e+00    0.3636711    0.2939995 -74.73  0.001889481    1.693    0.409
        52 -11.5343    172.7482    195.6636   5.2314596600e+01   7.5804470877e+00    0.5839304    0.3420911 -45.46    0.0022115    1.777    0.437
        53  -9.9964    180.8354    199.8267   5.1326606551e+01   5.3540522953e+00    0.2251987    0.2074198  12.50  0.001332653    1.011    0.011
        54 -11.3456    177.8862    196.8567   5.1417044493e+01   6.4393853216e+00    0.4312709    0.3348691   0.49  0.001529246    1.453    0.312
        55 -10.8508    166.9131    198.1159   5.4045149028e+01   8.1293406268e+00    0.4457897    0.2563685 -63.08  0.001842717    2.579    0.612
        56  -9.3152      4.5375    200.4870   9.2214438411e+01   3.1081408088e+01    0.1197833   0.09339759  80.53 1.869808e-05    1.007    0.006
        57  -8.7096    212.5235    198.9821   4.4717525713e+01   2.1035792732e-01    0.1886934     0.104793 -19.47 0.0006630003    2.418    0.586
        58  -9.1021    144.7850    197.8676   5.9027233514e+01   1.2121204860e+01    0.2244453    0.1966507   2.11  0.000804252    1.255    0.203
        59 -10.6145    126.0987    196.9141   6.3276279602e+01   1.5622494930e+01    0.3686407    0.2487177  22.94  0.001164362    1.710    0.415
        60  -9.1335    113.0439    194.2703   6.6006506747e+01   1.8458974817e+01    0.2065981    0.1934639  15.30 0.0003885948    1.178    0.151
        61  -9.3577    105.2348    197.6413   6.8429353610e+01   1.8995905535e+01    0.2693387    0.1853957 -47.30 0.0008906651    1.616    0.381
        62 -10.6565     14.7002    193.6561   8.9541826348e+01   3.1714635120e+01    0.4334281    0.2609246 -33.63  0.001232353    2.789    0.641
        63  -9.9090     22.2220    190.8280   8.7615815187e+01   3.1651251827e+01    0.3398472    0.1622594  28.72  0.001692212    2.304    0.566
        64  -9.2291     66.4446    194.6098   7.7489424833e+01   2.5571121582e+01    0.3391184    0.1651091  77.78   0.00121275    3.427    0.708
        65  -9.1046    112.6661    197.9666   6.6677288750e+01   1.7687664502e+01     0.349876     0.212706  71.96  0.001435113    2.447    0.591
        66 -10.1231    155.0498    191.4705   5.5520127775e+01   1.1620346554e+01    0.2453759     0.212332 -51.71 0.0003394576    1.235    0.190
        67  -9.6017    104.2801    188.7901   6.7302919254e+01   2.1191647947e+01    0.3343622    0.2237765  18.61  0.001179621    1.934    0.483
        68 -11.0270     97.9992    188.3102   6.8798889174e+01   2.2335374788e+01    0.5011513    0.3296269  58.93 0.0007237176    1.621    0.383
        69 -10.9718     94.5516    182.4358   6.8760374747e+01   2.4284061202e+01    0.5075352    0.3877629 -69.41  0.001989149    1.335    0.251
        70  -9.8950    138.7653    188.4540   5.8795195527e+01   1.5231409701e+01    0.4744387    0.1746307 -53.25   0.00165419    2.925    0.658
        71 -10.3298    204.5945    188.0281   4.4213748383e+01   3.4733041064e+00     0.306533    0.2435969 -60.26  0.001667809    1.607    0.378
        72  -9.0469    128.6817    188.3234   6.1203895931e+01   1.7077392466e+01    0.2353646     0.170754  70.98  0.001096043    1.733    0.423
        73 -11.3963     10.0147    186.6069   9.0072420435e+01   3.3755217377e+01    0.6126047    0.2616392  53.13  0.003005962    2.227    0.551
        74 -11.3298      3.9230    177.9929   9.0835128885e+01   3.6253619479e+01    0.6747023    0.3244355  26.21  0.003565392    2.383    0.580
        75 -11.4623     19.9070    181.3735   8.7354243561e+01   3.4087710733e+01    0.4143204    0.3867879  75.32  0.001832206    1.183    0.155
        76 -10.1558     10.1556    180.1501   8.9550037120e+01   3.5242628138e+01     0.231873    0.1226518  73.15 0.0004419042    1.850    0.459
        77 -10.1796     13.9772    179.0089   8.8560862115e+01   3.5181305445e+01    0.3488328    0.1930752 -55.10  0.001869539    1.879    0.468
        78  -8.5503     36.4896    192.5238   8.4448019401e+01   2.9768104810e+01    0.1275956    0.1115907  88.30 9.815649e-05    1.079    0.073
        79  -9.7167    162.6343    194.2756   5.4305671521e+01   9.6679812725e+00    0.2752094    0.1882504  70.14 0.0009074998    2.311    0.567
        80 -10.1220    109.4440    184.9521   6.5390887469e+01   2.1217078040e+01     0.414436    0.2923332  46.78  0.001626694    1.354    0.261
        81 -10.4098    175.1013    184.2493   4.9654756997e+01   9.4369774065e+00    0.3588379    0.2610818  78.61  0.001421136    2.262    0.558
        82  -8.8096    120.0000    184.9558   6.2755515209e+01   1.9383732580e+01    0.2353322    0.0845595 -55.12 0.0007804296    2.906    0.656
        83  -9.4400    228.5804    184.2258   3.8930817303e+01   2.0059805794e-01    0.1917421    0.1123984 -29.35 0.0008980418    1.671    0.401
        84  -9.4865    209.6417    184.6946   4.2579921289e+01   3.2250277987e+00    0.1435641    0.1010696  -0.90 0.0007040061    1.725    0.420
        85 -10.2223     44.8095    180.2843   8.1155298013e+01   3.1741763353e+01    0.6097462    0.1424144 -66.56  0.002032738    3.662    0.727
        86  -9.0759    197.6242    182.3156   4.4512584139e+01   5.7483378012e+00    0.1385211    0.1135983  81.34 0.0007029836    1.799    0.444
        87  -9.7440    147.8072    179.7510   5.5036369150e+01   1.5472524559e+01    0.2716006    0.1985217 -86.90  0.001131852    1.995    0.499
        88  -9.4570    138.7234    179.7423   5.7217668441e+01   1.7170761687e+01    0.3108928    0.2131559  73.20  0.001324733    2.118    0.528
        89  -9.5090     88.9823    176.9497   6.9334884774e+01   2.6491411753e+01    0.2875521    0.1840152  82.81  0.001007809    2.076    0.518
        90 -10.2067     88.0304    173.2476   6.8994649696e+01   2.7541311074e+01    0.5791236    0.3027737  14.52  0.001904153    3.906    0.744
        91 -10.2825    204.7589    175.4552   4.1729914291e+01   5.7822066523e+00    0.2749391    0.2524255 -12.87   0.00128404    1.006    0.006
        92  -9.8839     77.2037    175.5060   7.2192541673e+01   2.8639611196e+01    0.3092765    0.1929821  70.59  0.001055344    1.962    0.490
        93  -9.0307    183.3153    175.6666   4.6190297137e+01   9.6467553028e+00    0.1426808    0.1174264  87.08 0.0003578351    1.687    0.407
        94 -10.6630    148.5237    174.4979   5.3855684364e+01   1.6492953306e+01    0.3296423    0.2962629  78.55  0.001751097    1.246    0.197
        95 -10.2107    105.3289    174.6431   6.4700096486e+01   2.4357745089e+01    0.3350982     0.219207  86.38  0.001401645    2.183    0.542
        96 -10.2166     24.0910    174.5289   8.5715474804e+01   3.5321455962e+01    0.2501211    0.1539506  83.02 0.0008972893    1.559    0.359
        97  -9.7467      3.8121    171.8874   9.0405772216e+01   3.7686282050e+01    0.2372907    0.1601144  39.20 0.0007918578    1.576    0.365
        98  -9.7167    177.3090    170.6878   4.6490450435e+01   1.1792173444e+01      0.38697    0.2814871  20.00  0.001856054    1.583    0.368
        99  -9.0532    176.6691    167.6909   4.6019797827e+01   1.2533874841e+01    0.2345423    0.1868115  14.51 0.0007328361    1.415    0.293
       100  -9.0251    135.1762    171.4173   5.6510114374e+01   1.9718402103e+01    0.2177799    0.1365896  49.62  0.000832882    1.635    0.389
       101 -10.4431    206.8690    168.7524   3.9972374257e+01   6.6706230494e+00    0.3955268     0.191346 -39.66  0.001685693    1.986    0.496
       102 -10.3579    121.7848    169.1256   5.9451851370e+01   2.2745834628e+01     0.465845    0.3155475 -75.46  0.002034127    1.885    0.469
       103 -10.0503     28.8603    169.6819   8.4032615418e+01   3.6027919091e+01    0.2312908    0.1554753 -65.83  0.001075955    1.350    0.259
       104  -9.0701     54.8305    169.2347   7.7212256715e+01   3.3235254407e+01    0.2482236    0.1227494  65.77 0.0009502977    2.811    0.644
       105 -11.3457    218.9958    165.3857   3.6990336765e+01   5.1446721051e+00    0.4449773    0.3511843  35.33  0.002343335    1.339    0.253
       106 -10.5381    150.1857    163.9497   5.1349027771e+01   1.8513402271e+01     0.423162    0.3468001 -24.07  0.001696203    1.379    0.275
       107  -9.8393    139.2196    165.0142   5.4245878005e+01   2.0409644056e+01    0.3863193    0.2588269 -87.03  0.001354634    2.470    0.595
       108  -8.9864     99.4199    160.6820   6.3777615505e+01   2.8747996262e+01    0.2331393    0.1475556 -58.94 0.0007420326    1.582    0.368
       109 -10.2081     98.3693    165.1974   6.4878447010e+01   2.7822694999e+01    0.5532428    0.3284585  80.24  0.002019131    2.916    0.657
       110  -9.5210     92.7302    160.0374   6.5483603393e+01   3.0026000167e+01    0.3872675    0.2422138  76.29  0.001302454    2.356    0.576
       111 -11.5490    248.1085    161.7172   3.1244994091e+01   9.5274640973e-01    0.6908579    0.2381058 -40.55  0.002819658    2.519    0.603
       112 -11.9718    248.5691    151.6759   2.9210896326e+01   2.5793715257e+00    0.7124785    0.3767703 -44.02  0.003561425    1.685    0.407
       113 -11.9889    247.2677    143.2365   2.7744246319e+01   4.2341367301e+00    0.8379482    0.3611253 -29.27  0.003260522    2.984    0.665
       114  -9.7993     36.3941    164.5147   8.1503326614e+01   3.6522051778e+01    0.2354362    0.2023859  45.72   0.00144788    1.233    0.189
       115 -10.9135     21.3836    161.2180   8.5077539723e+01   3.8784877798e+01    0.4109969    0.2220796 -21.36  0.001731123    3.547    0.718
       116  -8.8701    177.5618    160.8183   4.4397838419e+01   1.3787225048e+01    0.2059711    0.1405825 -58.15 0.0006794034    1.689    0.408
       117  -9.3715      9.3985    161.1958   8.8152163612e+01   3.9787508395e+01    0.1852893   0.09964013  90.00 0.0009466153    1.729    0.422
       118 -10.3605    146.7522    159.4704   5.1256106993e+01   2.0194490512e+01    0.2788995    0.2634789  80.16 0.0002334759    1.117    0.105
       119 -10.4501    142.4936    158.5061   5.2103001159e+01   2.1254846298e+01    0.6444924    0.2184453  43.67   0.00206809    2.904    0.656
       120 -12.5783    205.8982    153.1296   3.6938285276e+01   9.8368949235e+00    0.9099478    0.6408401  57.30  0.004508501    1.702    0.412
       121  -9.9281    105.2358    157.3691   6.1576630934e+01   2.8548317920e+01    0.3431489    0.2542724  88.62  0.001053189    1.676    0.403
       122  -9.2885    157.5209    155.5854   4.7847702099e+01   1.8907736288e+01    0.2776504    0.1463922 -58.77  0.001029523    2.375    0.579
       123  -9.2407    119.3549    154.5226   5.7221329662e+01   2.6660444288e+01    0.3406347    0.2223798  85.58  0.001295651    2.544    0.607
       124 -10.1813     81.8493    153.9368   6.7415454452e+01   3.3273221432e+01    0.4189909     0.251462  88.83  0.001451459    2.514    0.602
       125  -9.5739     49.4324    154.6339   7.6669721077e+01   3.7518388219e+01    0.3182499    0.1921395  72.97  0.001217275    2.029    0.507
       126 -10.1708    133.4956    152.9563   5.3206323528e+01   2.4306362688e+01     0.534696    0.3435959  78.92  0.001959341    2.775    0.640
       127  -9.9780    134.4426    146.8801   5.1659814235e+01   2.5529288435e+01    0.3533563    0.2547188   5.57   0.00148328    2.053    0.513
       128  -9.2240    152.3713    152.1274   4.8333213077e+01   2.0715343951e+01      0.35472     0.144255 -55.97  0.001127061    3.119    0.679
       129  -9.1048     98.4974    150.5085   6.2100826182e+01   3.1400412426e+01    0.2279219    0.1466329 -71.12  6.64857e-05    1.797    0.444
       130  -8.8008      4.6635    153.3252   8.8658452820e+01   4.2017710968e+01    0.1312804   0.07793494  66.50  0.000705138    1.719    0.418
       131  -9.5341    183.1205    150.5261   4.0999965113e+01   1.4813611912e+01    0.3855357    0.2339885 -59.37  0.001609364    2.056    0.514
       132  -9.7796    182.7329    141.9245   3.9194646225e+01   1.6664070297e+01    0.3560975    0.2550173 -84.76  0.001529244    2.172    0.539
       133 -11.2701    189.7209    149.8774   3.9474569696e+01   1.3625397955e+01    0.5034109    0.3238977 -57.48  0.001608832    1.808    0.447
       134  -8.6628    162.4028    150.2379   4.5548779418e+01   1.9086762342e+01     0.219463    0.1441237 -58.52 0.0007952071    1.728    0.421
       135  -9.5155     28.2923    149.1682   8.1856303699e+01   4.1105130944e+01    0.3702387    0.1664109  77.72  0.001323057    3.661    0.727
       136  -9.7816    223.9644    147.8789   3.2518717722e+01   7.4708531213e+00    0.3513162    0.1985461  44.11  0.001667801    1.935    0.483
       137  -9.6420    167.9666    157.3668   4.5807766429e+01   1.6420954617e+01    0.2735458    0.2167851 -79.23  0.001301586    1.637    0.389
       138  -9.5088     39.4699    147.2564   7.8449033388e+01   4.0469406083e+01    0.4023928    0.1858705  61.75  0.001520161    3.180    0.686
       139 -10.6867    149.0888    144.9093   4.7547679060e+01   2.3001705342e+01    0.5721475    0.3937473 -87.12  0.001799224    2.367    0.578
       140  -9.5333    148.3631    138.4341   4.6265996836e+01   2.4603077388e+01    0.3974028    0.2077574 -36.12   0.00147773    2.264    0.558
       141 -10.2886     56.6561    145.8315   7.3267024063e+01   3.8839652714e+01    0.5590763    0.2774939  59.52  0.002144725    2.837    0.648
       142  -8.6138    175.5318    146.0036   4.1651675246e+01   1.7297592393e+01    0.2118495    0.1315362 -67.86 0.0007159867    2.460    0.593
       143 -10.5853    106.7920    143.2354   5.8306414016e+01   3.1706096317e+01     0.868463    0.3932169 -61.76  0.003030415    2.642    0.621
       144 -10.4324     68.2615    153.5566   7.1191871191e+01   3.5365539751e+01    0.4833903    0.2906451  78.46  0.001582195    2.344    0.573
       145  -8.8972     13.3136    145.6952   8.5603024146e+01   4.3220996829e+01     0.129803   0.08401076  68.08 0.0002997947    1.619    0.382
       146  -8.9155    165.7925    143.9875   4.3386659597e+01   1.9741017981e+01    0.2530789    0.1808569 -78.84  0.001069898    2.041    0.510
       147  -9.1983     95.2924    154.5191   6.3762464381e+01   3.0959415015e+01    0.2058796    0.1484094  20.31 0.0009444308    1.669    0.401
       148 -10.1094    124.8082    141.9872   5.3111949450e+01   2.8584902729e+01    0.6482155    0.3336775 -68.28  0.002094875    3.275    0.695
       149 -10.3903     87.9881    143.4748   6.3706820346e+01   3.4897529493e+01    0.4393314    0.2504572 -78.99  0.001644371    2.613    0.617
       150  -9.8860    188.6507    156.8846   4.1195409612e+01   1.2419369163e+01    0.3511039    0.1726356 -49.76   0.00139564    2.134    0.531
       151  -9.1935      3.3160    142.6607   8.8023412919e+01   4.4657379467e+01    0.1296401   0.07948937  68.69 0.0007048217    1.703    0.413
       152 -10.3571     69.2627    139.9094   6.8527703017e+01   3.8637671009e+01    0.4392944    0.2489046  89.86  0.001632076    2.908    0.656
       153 -11.1278    197.5974    136.4175   3.4945421745e+01   1.4729845853e+01    0.4602046    0.3643098  -6.87  0.002305243    1.584    0.369
       154 -10.6477    202.7346    136.4427   3.3959790596e+01   1.3688277271e+01    0.3292663    0.2668047  46.37 0.0008059364    1.306    0.234
       155 -10.7615    188.1783    135.5691   3.6640358724e+01   1.6834016946e+01    0.5793149    0.2392763 -48.13  0.002097115    2.458    0.593
       156  -9.4310    186.8239    128.6965   3.5359220343e+01   1.8503602464e+01    0.3560841    0.1846614 -47.12  0.001450496    1.894    0.472
       157 -10.0165    188.2931    123.5534   3.3880591413e+01   1.9219485278e+01    0.3596323    0.2162051 -51.62  0.001352049    1.704    0.413
       158  -9.2659    172.5968    138.3194   4.0579432008e+01   1.9526163305e+01    0.3240972    0.2169846 -86.50  0.001153172    2.698    0.629
       159  -9.2972     81.4225    139.2451   6.4794072090e+01   3.6993246694e+01    0.2095187    0.1402983 -72.54 0.0009426133    1.648    0.393
       160  -9.6597     23.6684    138.2701   8.1804173112e+01   4.4197458995e+01    0.4189954    0.2078783  67.56  0.001769025    2.787    0.641
       161  -9.2008    138.5713    137.3342   4.8469074578e+01   2.6886859806e+01     0.299267    0.1521341 -53.72  0.001122882    2.096    0.523
       162  -9.2853    162.6518    136.1433   4.2331860106e+01   2.2092357123e+01    0.2454779    0.1922102 -68.04 0.0008373217    1.479    0.324
       163 -11.1756     41.5660    132.6052   7.5644009090e+01   4.3887395325e+01    0.6565568    0.3796141 -79.21  0.002288152    1.855    0.461
       164  -9.4116    179.8900    133.3636   3.7869546497e+01   1.9020940671e+01    0.3499471    0.2097061 -58.75  0.001437501    2.010    0.502
       165 -10.5850    132.3384    130.0825   4.8401797404e+01   2.9830101710e+01    0.8252784    0.3785871 -53.99  0.002945669    2.377    0.579
       166 -11.5076    111.9503    128.5586   5.3611769349e+01   3.4257930050e+01     0.678689    0.4688386 -40.43  0.002274128    1.523    0.344
       167 -11.0158    116.6025    122.0761   5.0766705517e+01   3.4864132651e+01     1.055236    0.4419097 -49.57  0.003740083    2.386    0.581
       168 -10.6033     83.6445    131.4555   6.2551448016e+01   3.8563418577e+01    0.4904356    0.3341808  82.91  0.001452745    2.099    0.524
       169  -9.4913    142.9754    131.3280   4.5959360864e+01   2.7326305091e+01    0.3407927    0.2150484 -57.28 0.0008552285    1.742    0.426
       170  -9.3445     22.6294    131.1678   8.1176113498e+01   4.6022932878e+01    0.2962021   0.09639939 -49.50   0.00114362    2.878    0.653
       171  -8.4397    205.3123    130.6238   3.2195121948e+01   1.4293660417e+01    0.1510482    0.1107642 -73.52 0.0005944395    1.791    0.442
       172  -9.8827    169.0186    129.3634   3.9313148616e+01   2.2175853581e+01    0.3483827    0.2467056 -67.71  0.001106454    1.767    0.434
       173 -10.1573    152.9308    128.3845   4.2812896825e+01   2.5855116108e+01      0.58043    0.2514251 -53.10  0.001982672    2.625    0.619
       174 -10.4219    103.0236    118.5126   5.3820101907e+01   3.8309007997e+01    0.2808273    0.2569968  62.65 0.0008531663    1.147    0.128
       175 -10.9269     98.7843    127.1161   5.7085394206e+01   3.7046032138e+01    0.7445733    0.4470495 -76.65  0.002323741    2.623    0.619
       176 -10.1382     98.7943    119.8068   5.5387281175e+01   3.8782845941e+01    0.4110169    0.2752658 -15.78  0.001659954    2.323    0.569
       177  -9.4543     12.7673    128.9803   8.3841522652e+01   4.7308072243e+01    0.3856487    0.1710529  68.53  0.001482077    3.612    0.723
       178  -9.3486    192.5230    129.5087   3.4398962917e+01   1.7142226213e+01    0.1468834    0.1403688 -52.30 0.0008101375    1.014    0.014
       179  -9.8623     73.0192    128.5871   6.5199270697e+01   4.0903330989e+01    0.3653381    0.2326471 -88.24  0.001520898    2.285    0.562
       180  -9.3659     80.4839    164.4777   6.9592327470e+01   3.0864244692e+01    0.3397225    0.1922771  83.18   0.00124732    2.918    0.657
       181 -10.3567     59.6341    124.0165   6.8476110598e+01   4.3882950475e+01    0.6096106    0.3390196  75.59  0.002134446    3.632    0.725
       182 -10.6943    185.8699    114.6927   3.2296028817e+01   2.1494526439e+01    0.4804673     0.319292  57.86  0.002220728    1.607    0.378
       183 -10.6555    181.1478    119.7648   3.4450023258e+01   2.1519150207e+01    0.5870726    0.3204606 -27.54  0.002188291    2.584    0.613
       184 -10.5683     44.0504    122.5338   7.3168913649e+01   4.6103547585e+01    0.6630127    0.3614345  77.77   0.00251616    3.280    0.695
       185 -10.5041    249.5320    123.8712   2.3533170555e+01   7.1555168613e+00    0.2505159    0.1771086  78.78  0.001346647    2.014    0.503
       186 -10.8647    106.3180    122.8488   5.3890149251e+01   3.6674971353e+01    0.5274283    0.3527596   9.86  0.002023223    2.314    0.568
       187  -9.9321     29.7145    123.9570   7.7955255744e+01   4.7174808423e+01    0.3065569     0.178281  60.18  0.001456729    2.188    0.543
       188  -9.5560     26.8486    121.1374   7.8424168397e+01   4.8112479574e+01    0.2622474    0.1989802 -41.94 0.0008245269    1.314    0.239
       189  -9.5513    158.4918    120.9083   3.9701050535e+01   2.6254942924e+01     0.361504    0.2592887 -79.09  0.001165834    1.950    0.487
       190  -9.3948    172.8118    120.5362   3.6394987062e+01   2.3185947910e+01    0.3125809    0.1943376 -59.01  0.001305681    1.883    0.469
       191 -10.7417    141.5933    117.9326   4.3073106800e+01   3.0587175392e+01    0.8164504    0.3267364 -53.45  0.002627615    2.980    0.664
       192 -10.1584    130.6449    117.6264   4.5834593000e+01   3.2996056975e+01    0.5671914    0.3054566 -64.47  0.001956467    2.839    0.648
       193 -10.1573     71.0242    119.0233   6.3817983879e+01   4.3530380530e+01    0.4140883     0.207102 -68.36  0.001578224    2.498    0.600
       194  -9.9541      2.9276    116.7464   8.5327789967e+01   5.0853045726e+01    0.4734071     0.209115  77.54  0.001883194    3.534    0.717
       195  -9.9521     12.1695    117.0845   8.2483198013e+01   5.0205709040e+01    0.1935993    0.1435061 -50.60 0.0003412176    1.229    0.186
       196 -10.7767     15.0171    112.2861   8.0889160268e+01   5.1155320310e+01    0.5057367    0.2622218  84.93  0.002243147    2.660    0.624
       197  -9.0421     22.3451    110.3078   7.8169529513e+01   5.1086574683e+01    0.2583572    0.1595098  76.29  0.001117701    2.159    0.537
       198 -11.2912     17.2112    104.7526   7.8990868675e+01   5.2783066002e+01    0.6394714    0.3627779 -32.03  0.002742862    1.943    0.485
       199  -9.8860    192.9418    113.8541   3.0721641198e+01   2.0118054171e+01    0.3979776     0.201088 -48.69  0.001620724    1.968    0.492
       200 -10.5541    189.3049    107.2610   2.9866151921e+01   2.2177751176e+01    0.4295881    0.2113365 -49.37  0.001714336    2.059    0.514
       201 -10.3850     92.7241    112.0966   5.5373551648e+01   4.1674473810e+01    0.5885826    0.3661739 -72.25  0.001829106    2.290    0.563
       202  -9.5725     92.7051    104.4332   5.3455532325e+01   4.3435717983e+01    0.4279988    0.2789338  -5.52  0.001669885    2.629    0.620
       203 -10.8368     79.3823    112.7780   5.9736306347e+01   4.3751724039e+01    0.5900963    0.3754688 -85.02  0.002181781    2.625    0.619
       204 -10.5051    122.1823    111.0752   4.6474723914e+01   3.6221778597e+01    0.6226491    0.2749945 -45.69  0.002265269    2.279    0.561
       205  -9.5560    174.8255    110.6686   3.3588773808e+01   2.4734415461e+01     0.411201    0.1906162 -46.09  0.001565538    2.135    0.532
       206  -9.6751    159.2634    110.8253   3.7041586976e+01   2.8191713138e+01    0.4288564    0.1941211 -46.78  0.001579196    2.229    0.551
       207 -10.6043     66.1017    109.4533   6.3297576263e+01   4.6527488283e+01    0.5902444    0.3076775 -65.85  0.002418571    2.222    0.550
       208  -9.9553    133.3669    108.3488   4.2763100670e+01   3.4444618967e+01    0.4344151     0.245021 -51.44  0.001758181    1.866    0.464
       209  -9.3355    182.8682    108.3374   3.1379860197e+01   2.3397886058e+01    0.2707023    0.1953326 -52.50 0.0009111723    1.383    0.277
       210 -10.4298     60.6854    106.4305   6.4425751162e+01   4.7982653738e+01    0.4221509     0.245996 -20.60   0.00170978    2.639    0.621
       211 -12.2539    249.2809    103.7366   1.9506219263e+01   1.0580126895e+01    0.7955342    0.2439048 -36.71  0.002871624    3.284    0.696
       212 -10.7095     45.9682    102.2786   6.8566405603e+01   5.0759318089e+01    0.7026458    0.3734055  65.96   0.00243657    4.258    0.765
       213  -9.6037    166.8752    102.5834   3.3281304448e+01   2.8130226243e+01    0.4002281    0.2046916 -44.65   0.00159939    1.944    0.485
       214 -10.2300    150.0166    101.0786   3.6714056979e+01   3.2266456549e+01    0.7059275    0.2312293 -47.73  0.002177916    3.268    0.694
       215 -10.9188     23.4851    102.1395   7.6388978884e+01   5.2927479672e+01    0.6165912    0.3009194  63.71  0.002298712    4.096    0.756
       216 -10.1046    175.4803    100.6332   3.0988737081e+01   2.6549704068e+01    0.4072815    0.1820417 -40.95  0.001539158    2.231    0.552
       217 -10.4867    128.6178    100.3130   4.1906744858e+01   3.7178204965e+01    0.5742588    0.3069449 -45.10  0.002317113    1.898    0.473
       218 -10.7392    109.1655     98.7073   4.6933434279e+01   4.1579333371e+01    0.5779356    0.4258038  67.67   0.00191448    1.736    0.424
       219  -9.8667    107.9557     92.0333   4.5457037594e+01   4.3236330391e+01    0.3302789    0.2478591 -18.14  0.001355924    1.639    0.390
       220  -9.2361    159.5518     99.4977   3.4106352468e+01   3.0410415243e+01    0.3236431    0.1481052 -42.82  0.001211512    2.193    0.544
       221  -9.7227     81.9464     99.2360   5.5562288427e+01   4.6462093297e+01    0.4306407    0.2538771 -71.18    0.0016751    2.659    0.624
       222 -10.0265     33.2209    106.0167   7.3736879419e+01   5.1178368818e+01    0.4855519    0.2238939  56.12  0.001787322    3.856    0.741
       223 -10.5045    183.7288     96.1279   2.8249984449e+01   2.5525228861e+01    0.3707755    0.1648736 -45.92  0.001423092    2.210    0.548
       224 -10.2191     94.9895     96.5370   5.0656435138e+01   4.4775306674e+01    0.3812155    0.2447084 -64.58  0.001392376    2.002    0.501
       225 -10.6384     63.8337     95.7223   6.0794034950e+01   5.0027174544e+01    0.4769259    0.3135718 -89.97   0.00181145    2.726    0.633
       226  -9.0003    164.7784     92.9809   3.1286465030e+01   3.0468591336e+01    0.2078102    0.1225637 -41.40 0.0008850627    1.713    0.416
       227  -9.5261    176.5235     91.9988   2.8626822590e+01   2.7939288175e+01    0.2331007    0.1433694 -42.42 0.0009902762    1.614    0.380
       228  -9.7815    138.5672     90.4124   3.6653964665e+01   3.6984919531e+01    0.4993149    0.2342353 -46.83  0.001895962    2.222    0.550
       229 -10.5914    124.8465     88.4703   3.9674222333e+01   4.0416894825e+01    0.8902237    0.3853095 -40.88  0.003279907    2.408    0.585
       230  -9.8754     43.8198     91.8514   6.7005093830e+01   5.3400725276e+01    0.2667131    0.1846724  -0.06 0.0008692107    1.706    0.414
       231  -9.7776      5.9842     92.1598   8.0853785077e+01   5.6395288389e+01    0.1897713    0.1229283  52.64 0.0007832941    1.981    0.495
       232 -10.2545     34.8487     89.0540   6.9673036264e+01   5.4953299623e+01    0.5395857    0.2832997 -78.65  0.002207832    3.014    0.668
       233  -9.8006     35.7921     81.7928   6.7630637577e+01   5.6475891231e+01    0.3014445    0.1141467 -34.01  0.001061809    3.608    0.723
       234  -8.7396    158.0000     89.9929   3.1978446728e+01   3.2605363049e+01    0.2509665   0.08565647 -40.82  0.000807831    2.980    0.664
       235 -11.1855    108.8101    112.5664   5.0653925129e+01   3.8578043753e+01    0.9009198     0.375641 -54.73  0.003092095    2.684    0.627
       236 -10.4671     86.9010     86.6872   5.0525408867e+01   4.8343371264e+01    0.4596457    0.3283578  79.33   0.00157907    2.367    0.577
       237  -9.7581     64.2786     87.2926   5.8456667826e+01   5.1836371430e+01    0.3427919    0.1808044 -18.13  0.001142651    3.951    0.747
       238  -9.9734    139.5928    103.1739   3.9814550059e+01   3.4174513147e+01    0.5619743    0.2852941 -50.56  0.002161988    2.102    0.524
       239 -10.0363     48.6640     84.2679   6.3367209836e+01   5.4538428239e+01    0.3375053    0.2348973  69.07  0.001479015    2.318    0.569
       240  -9.3421    116.7535     83.4876   4.0484584954e+01   4.3142775119e+01    0.2769679    0.1928766 -24.03  0.000423224    1.750    0.429
       241  -9.4828    119.3554     79.0538   3.8472402784e+01   4.3437561797e+01    0.4715519    0.1807728 -42.22  0.001671553    2.694    0.629
       242 -10.5596    104.4317     82.5287   4.3795138483e+01   4.5880249626e+01    0.5430233    0.2934881 -58.15  0.002104126    2.531    0.605
       243  -9.6792      7.5895     84.2353   7.8913301007e+01   5.8089592377e+01    0.1835894   0.08582143 -54.67 0.0009446355    1.653    0.395
       244  -9.7045    140.7671     81.4116   3.3626199297e+01   3.8201599845e+01    0.4377004    0.1973623 -39.44  0.001658443    2.321    0.569
       245  -9.1331    158.4933     81.4780   2.9611270316e+01   3.4065364115e+01    0.2719615    0.1477736 -27.34  0.001039645    2.504    0.601
       246  -9.3598     74.5086     80.0066   5.2807212187e+01   5.1828167792e+01    0.3200102      0.13848 -55.28  0.001197742    2.758    0.637
       247 -10.0090     24.5393     80.4817   7.1674620593e+01   5.7769692851e+01    0.2976906    0.2280159  80.04  0.001455812    1.784    0.439
       248  -9.1314    150.3247     79.7817   3.0947290259e+01   3.6284616530e+01    0.3152054    0.1242683 -47.13  0.001095102    2.746    0.636
       249  -9.9813     87.4572     80.0311   4.8416181917e+01   4.9614044304e+01    0.4120118    0.1922545  24.67  0.001377992    3.463    0.711
       250  -9.5806      8.7372     80.6247   7.7811646061e+01   5.8824436509e+01    0.1543844    0.1085289  28.56 0.0007253053    1.676    0.403
       251  -9.8648     48.8483     77.5187   6.1521260345e+01   5.5969400609e+01    0.4277853    0.1953271 -25.88  0.001478283    3.849    0.740
       252  -9.1591    183.9995     76.7109   2.3400749307e+01   2.8919560161e+01    0.3105784    0.1337119 -49.27  0.001179003    2.442    0.591
       253  -8.2078    167.6534     76.3158   2.6356659322e+01   3.2821829507e+01     0.154693    0.1111652 -80.07 0.0007047892    1.721    0.419
       254 -10.1371    128.1625     73.5944   3.4528478697e+01   4.2499067122e+01    0.7134969    0.2774878 -40.31  0.002576916    2.680    0.627
       255  -9.6390    248.6504     74.4441   1.3672237438e+01   1.5386875087e+01    0.2262614    0.1039606 -40.73  0.001082567    1.914    0.478
       256  -9.6219    140.3788     74.4238   3.1750858204e+01   3.9559576425e+01    0.3545098    0.1316165 -44.72  0.001225728    2.847    0.649
       257 -10.0936     82.3942     72.2141   4.7754456673e+01   5.2058228910e+01    0.4057178    0.2535653 -65.07  0.001553938    2.534    0.605
       258 -10.1314     10.4956     74.1038   7.5829563343e+01   6.0142813927e+01    0.2885991    0.1647985  15.84  0.001344054    1.965    0.491
       259  -9.2831    115.6352     71.4722   3.7248315402e+01   4.5644256086e+01    0.3610769    0.1409265 -36.03  0.001265315    2.909    0.656
       260  -9.7771     95.1117     70.4767   4.3041994837e+01   5.0037998413e+01    0.3782233     0.197435 -57.00  0.001452871    2.810    0.644
       261  -9.8544    105.6873     71.1275   4.0002057165e+01   4.7804613166e+01    0.2279423    0.1841855 -60.39  0.001176967    1.467    0.318
       262  -9.9697     28.9712     70.1102   6.7421121705e+01   5.9618159258e+01    0.5276815    0.2162563 -19.13  0.001534683    6.367    0.843
       263 -10.2939     51.3095     69.0271   5.8168910403e+01   5.7417821258e+01    0.4438027    0.2423051 -68.50  0.001761766    3.341    0.701
       264  -9.1890     16.5177     70.0190   7.2496714865e+01   6.0626369443e+01    0.1602725    0.1035943  88.26 0.0008094998    2.469    0.595
       265  -8.6339    157.0000     68.9774   2.6544378920e+01   3.6593503163e+01    0.2343897   0.08341144 -37.78 0.0008018782    2.939    0.660
       266  -9.7199    147.0118     66.1034   2.7873489997e+01   3.9436286282e+01    0.5374718     0.207238 -35.55  0.001931202    2.859    0.650
       267  -8.7477    234.6776     66.3299   1.3632206130e+01   1.9404624354e+01    0.1387948   0.08552533 -67.95 0.0007049422    1.696    0.410
       268  -9.6979    138.5769     64.5585   2.9335688079e+01   4.1670587048e+01    0.4047762    0.1425412 -37.92  0.001411284    2.994    0.666
       269  -8.6075    157.5888     75.1522   2.8101756118e+01   3.5400175332e+01    0.2043895    0.1445624 -25.94 0.0009523029    1.707    0.414
       270  -9.3928    110.2026     63.6083   3.6356197960e+01   4.8193239997e+01    0.2942095    0.2248635 -70.49  0.001136843    1.788    0.441
       271  -9.5207     37.2848     63.6738   6.2243972483e+01   6.0125213599e+01    0.2284641     0.152558 -62.71  0.001003259    1.768    0.434
       272  -9.2476     95.3344     63.3462   4.0719107535e+01   5.1286304236e+01    0.1492703    0.1075095   6.11 0.0007049143    1.770    0.435
       273  -9.8775     17.9417     61.7512   6.9885092770e+01   6.2241082719e+01    0.2852013    0.1236986 -44.51 0.0009430213    1.876    0.467
       274  -9.7060    100.3076     58.8915   3.7748538219e+01   5.1056421266e+01    0.5862958    0.2271003 -45.76  0.002166453    2.970    0.663
       275  -9.8777     73.0758     58.1173   4.6499922280e+01   5.6270466215e+01      0.60291    0.2304081 -49.44  0.002251322    3.184    0.686
       276  -8.2751    164.3107     59.6502   2.2570119179e+01   3.6356370449e+01    0.1506376    0.1054146 -74.06 0.0007045097    1.716    0.417
       277  -9.3712    110.8357     58.7456   3.4642470053e+01   4.8874093863e+01    0.2414663    0.1492402  13.87  0.000948029    2.769    0.639
       278 -11.1157    249.2058     55.6447   9.8719269781e+00   1.8069872106e+01    0.4384047    0.1111107 -48.95  0.001622348    3.452    0.710
       279  -9.9261     83.4787     64.7637   4.5043579221e+01   5.3266139980e+01    0.4026379    0.2403674   3.47  0.001529377    3.150    0.683
       280  -9.5269    121.5270     64.0737   3.3405611815e+01   4.5645129385e+01    0.4929216    0.1440375 -38.42  0.001573097    3.625    0.724
       281  -9.7212     62.8246     54.5558   4.9107240897e+01   5.8543321941e+01    0.2107921    0.1535428 -43.32 0.0007269577    1.426    0.299
       282  -9.6489     53.8853     53.0290   5.2094405278e+01   6.0118231189e+01    0.2878712    0.1792844 -67.71  0.001240088    3.256    0.693
       283  -9.5632     31.2789     51.4454   6.1120232306e+01   6.3107990794e+01    0.1896911    0.1532037 -72.24 0.0007630336    1.761    0.432
       284  -9.6595     92.5327     50.5555   3.7371184498e+01   5.3974927236e+01    0.3259372    0.1619529 -47.47  0.001384772    2.457    0.593
       285 -11.5825     45.5085     48.8691   5.4126833810e+01   6.1967881935e+01    0.2732618    0.2087708 -31.13  0.001681264    1.197    0.165
       286  -9.4103    130.2554     46.6930   2.5909974780e+01   4.6365779721e+01    0.2070653    0.1229715 -18.29 0.0008567736    2.340    0.573
       287  -9.1984     82.0175     46.5350   3.9398580531e+01   5.6620091865e+01    0.1984819    0.1232775  42.26 0.0004560854    1.516    0.341
       288  -9.0673     23.2613     46.6066   6.3202273900e+01   6.4760285405e+01    0.1637159     0.103031   2.34 0.0009493271    1.636    0.389
       289  -8.7704      1.4286     45.7897   7.3163658856e+01   6.6417119155e+01    0.1587807   0.08042023 -46.77 0.0002587667    1.507    0.337
       290  -8.9584    150.0000     44.0023   2.0951422960e+01   4.2079924060e+01    0.2117933   0.08028162 -33.49 0.0007553819    2.896    0.655
       291  -9.4263     16.4153     44.2646   6.5655441478e+01   6.5756121221e+01     0.156577     0.106628 -60.50 0.0009505081    1.683    0.406
       292  -9.3102     58.5122     42.9883   4.6721271757e+01   6.1154635939e+01     0.164723    0.1146707 -64.09 0.0008098605    2.545    0.607
       293 -10.4490      5.0686     41.2349   7.0174265535e+01   6.7081955135e+01    0.3339578    0.1886339 -73.98  0.001741946    2.754    0.637
       294  -9.4345    113.9347     41.3471   2.8171747627e+01   5.0825319513e+01      0.22693    0.1773839  19.02 0.0003442804    1.443    0.307
       295  -9.1763    123.5170     40.4346   2.5520053936e+01   4.8788450018e+01    0.2380398    0.1696601  26.52 0.0005130568    1.649    0.394
       296  -9.5790    106.0000     40.9954   3.0158352404e+01   5.2608500191e+01    0.2866122    0.1341706 -43.63 0.0009841403    2.500    0.600
       297  -9.3531     83.7484     40.3162   3.6606290903e+01   5.7230130651e+01    0.2968438    0.1806833   6.53  0.001315293    2.506    0.601
       298  -9.3606     68.8978     40.7719   4.1941618478e+01   5.9835501232e+01    0.2272691    0.1764588 -66.74  0.001138392    2.111    0.526
       299 -10.5558      7.3698     56.5804   7.3187441901e+01   6.3977118384e+01    0.2969989    0.1682591 -79.02  0.001510003    2.603    0.616
       300  -9.1119     95.5133     37.5352   3.1946242523e+01   5.5291127536e+01    0.2284345    0.1190974 -45.04  0.001030323    2.347    0.574
       301  -9.2288     26.3346     36.4785   5.8369519923e+01   6.6272122811e+01    0.2030235   0.09980489 -47.34  0.001075645    1.939    0.484
       302  -9.3047    111.4933     33.5599   2.6204196151e+01   5.2396372581e+01     0.232117      0.11652 -43.97  0.001032482    2.373    0.579
       303  -9.1061    119.4642     33.0229   2.4087255998e+01   5.0675284476e+01    0.1905277    0.1345656 -31.46 0.0007474269    1.581    0.367
       304  -9.7461      6.4982     33.6588   6.7162012899e+01   6.8371842567e+01    0.1759951   0.09641037  12.58 0.0008775615    1.854    0.460
       305  -8.8005     60.5270     32.4990   4.1977049895e+01   6.2438781906e+01    0.1254783    0.1089139  10.51 0.0001064521    1.055    0.052
       306  -9.2622     12.8320     30.8195   6.2996917894e+01   6.8419710570e+01     0.139672    0.1311641 -17.52 0.0006006795    1.353    0.261
       307  -8.8144    101.2050     28.1570   2.7025691459e+01   5.5302133277e+01    0.1989818   0.09136695 -41.30 0.0008688054    2.575    0.612
       308  -8.5576     81.6312     27.3262   3.2485682654e+01   5.9389663951e+01    0.1228668    0.1028308 -89.56 0.0007034522    1.810    0.448
       309  -9.0603    222.4683     32.4734   7.8481739379e+00   2.6748136634e+01    0.1293438    0.1003763 -74.04 8.506458e-05    1.079    0.073
       310  -9.0785    110.4219     24.6869   2.3464192337e+01   5.3699573148e+01    0.1666013    0.1267318  -4.93 0.0009439572    1.564    0.360
       311  -9.4918     44.3358     25.1766   4.5729840719e+01   6.5900243188e+01    0.1916366    0.1382756  14.26  0.000394989    1.229    0.186
       312  -8.5885    118.4990     24.5025   2.1518337720e+01   5.1905595750e+01    0.1338837    0.1153287  49.93 0.0008105711    1.024    0.024
       313  -8.4647     84.6941     21.3214   2.9240706028e+01   5.9507766482e+01    0.1165581    0.1009872 -82.97 0.0003544648    1.638    0.390
       314  -8.4628     40.8217     21.3648   4.5702496108e+01   6.6910536889e+01    0.1612875   0.09493731  21.66 0.0003459989    1.601    0.375
       315  -9.9411     13.0805     21.0006   5.9227383447e+01   7.0005859414e+01    0.2263046    0.1428407  22.04 0.0006741716    1.598    0.374
       316  -8.7409     30.6696     18.7197   4.9319901607e+01   6.8563870613e+01    0.1197035   0.07481378  -2.27 0.0002865996    1.604    0.377
       317  -8.8895     50.0503     15.4832   3.9188930231e+01   6.6336072437e+01    0.1780116   0.08393951  23.01 0.0008094016    2.573    0.611
       318 -11.5867    166.8567    247.6234   6.2042054612e+01  -8.8335054293e-01    0.5197704    0.2414873  26.56  0.002339567    2.240    0.554
       319  -9.6015    247.5831    247.8322   4.6687453763e+01  -1.2010011620e+01    0.1909226    0.1372836  37.90 0.0007935921    1.771    0.435
