#   1 NUMBER                 Running object number                                     
#   2 MAG_AUTO               Kron-like elliptical aperture magnitude                    [mag]
#   3 X_IMAGE                Object position along x                                    [pixel]
#   4 Y_IMAGE                Object position along y                                    [pixel]
#   5 X_WORLD                Barycenter position along world x axis                     [deg]
#   6 Y_WORLD                Barycenter position along world y axis                     [deg]
#   7 A_WORLD                Profile RMS along major axis (world units)                 [deg]
#   8 B_WORLD                Profile RMS along minor axis (world units)                 [deg]
#   9 THETA_WORLD            Position angle (CCW/world-x)                               [deg]
#  10 FWHM_WORLD             FWHM assuming a gaussian core                              [deg]
#  11 ELONGATION             A_IMAGE/B_IMAGE                                           
#  12 ELLIPTICITY            1 - B_IMAGE/A_IMAGE                                       
         1 -12.5267     10.6017     15.4317   8.1214940547e+01   7.2053445722e+01    0.2798616    0.2003734  -7.92  0.001402957    1.051    0.049
         2 -14.0737     18.0962      6.1443   7.2076870522e+01   7.2507701854e+01     1.079978    0.4535526  27.53  0.005724654    2.098    0.523
         3 -10.9582    144.8254      4.0198   3.3195202815e+01   4.7405342867e+01    0.2191269    0.1533717  60.28 0.0006940878    1.250    0.200
         4 -10.1747     67.6650      1.7044   4.8110520134e+01   6.4777165872e+01    0.1307328   0.07133773  32.99 0.0003581706    1.646    0.392
         5 -11.7975    210.6761      8.5024   2.7601763250e+01   3.2321715680e+01    0.3177757    0.1292017 -56.92  0.001599407    2.299    0.565
         6 -11.4794    173.6582    219.2020   7.9770906233e+01   2.7109210703e+00    0.2214793    0.2152414  -7.93 0.0009043804    1.252    0.202
         7 -10.2661     88.8628    250.8286   1.0363513224e+02   9.0453514889e+00    0.1546947   0.08584372  30.66            0    1.623    0.384
         8 -11.0261     69.8323    250.5644   1.0779488156e+02   1.1616036279e+01    0.3570448    0.1022642  38.63 0.0007685771    2.661    0.624
         9 -11.3059     64.6196    249.6552   1.0884528943e+02   1.2464221569e+01    0.3096115    0.2411517  54.83  0.001132778    1.111    0.100
        10 -13.8835     86.2253    233.4655   1.0231024678e+02   1.2996617317e+01     1.335969    0.6364082  48.62  0.004686973    2.069    0.517
        11 -13.0708     24.8398    233.7869   1.1617687234e+02   2.0423676415e+01     2.285287    0.3724817  42.81  0.008274214    3.776    0.735
        12 -14.4131     40.5829    233.8497   1.1277058711e+02   1.8704656728e+01     1.622827    0.6621919  59.37   0.00689665    2.697    0.629
        13 -16.6362     55.6770    226.4475   1.0870535501e+02   1.8567733458e+01     2.504875     1.669074  70.62   0.01357117    1.538    0.350
        14 -17.8091     68.4814    194.4429   1.0189083807e+02   2.4546550237e+01     4.266668     4.097761  88.34   0.02523474    1.041    0.039
        15 -11.4267    193.9822    219.4818   7.5453265482e+01  -3.5896879013e-01    0.2029118    0.1219976  27.30  0.001029641    1.587    0.370
        16 -11.1867     20.8858    240.4002   1.1742468786e+02   1.9408000007e+01    0.2993907    0.1446355 -72.90  0.001201954    2.001    0.500
        17 -11.1662    119.7203    216.3661   9.1941128160e+01   1.1758186742e+01    0.3712751    0.2395838  78.82  0.001514006    2.780    0.640
        18 -10.3738    117.5609    213.4859   9.2028739241e+01   1.2732007005e+01    0.2407913    0.2031597  84.92 0.0005930412    1.446    0.308
        19 -11.7422     22.3892    217.6222   1.1559325711e+02   2.4292918763e+01    0.3931576    0.2750387  -5.33    0.0016245    2.228    0.551
        20  -9.7967     21.3862    213.7939   1.1554208059e+02   2.5277292914e+01     0.186007    0.1804761 -48.11  0.001064814    1.297    0.229
        21 -11.8108    157.9811    212.5903   8.2162890550e+01   6.4550464899e+00    0.2945611    0.2366758 -14.20 0.0008771883    1.251    0.200
        22 -13.1798    154.2485    209.7172   8.2528610640e+01   7.6432169176e+00     0.867622    0.5173998 -12.13  0.002795441    2.573    0.611
        23 -10.7473     29.5509    214.5499   1.1372412901e+02   2.4279042738e+01    0.2710175    0.1170531 -77.06  0.001217864    2.239    0.553
        24 -12.4077    183.2413    213.7058   7.6701712915e+01   2.2883603052e+00    0.3722498    0.1878483  21.09   0.00157344    2.260    0.557
        25 -11.1254    124.6039    213.0300   9.0221694241e+01   1.1718284871e+01    0.4034845    0.1672662 -49.79  0.001559972    2.500    0.600
        26 -11.2210    104.3212    213.9421   9.5384483785e+01   1.4681958564e+01    0.4614641    0.1882256  35.58  0.001355627    2.210    0.547
        27 -10.9626     24.5772    209.0392   1.1444400235e+02   2.6079680452e+01    0.3782587    0.1845761  84.60  0.001731198    2.203    0.546
        28 -11.0173     14.7725    211.9657   1.1691266344e+02   2.6330014251e+01    0.2301352    0.1540749  48.37  0.001363983    1.367    0.269
        29 -11.0307    143.4685    211.0239   8.5310438549e+01   9.1165812268e+00    0.2141112    0.1415427 -47.16 0.0007975312    1.584    0.369
        30 -12.9857    167.9120    206.3907   7.8774641800e+01   6.1122218011e+00    0.5668116    0.3840861   0.58   0.00269055    1.744    0.427
        31  -9.9166    110.2633    209.3385   9.3209177122e+01   1.4811553330e+01    0.1441503    0.1095285 -21.84 0.0002601449    1.589    0.371
        32 -11.2725    229.5064    206.4838   6.6114309268e+01  -3.0420648254e+00    0.2169572    0.1093325 -38.07 -2.664523e-05    1.739    0.425
        33 -10.8854    220.0737    206.4736   6.7874496281e+01  -1.7679280294e+00    0.1841658    0.1215478  27.50 0.0005474126    1.553    0.356
        34 -10.4545    124.1044    206.1400   8.9227560696e+01   1.3328622068e+01    0.2183978    0.1905542   2.93  0.000410952    1.180    0.152
        35 -10.3218     18.8819    204.7329   1.1544638082e+02   2.7651568100e+01    0.3243871    0.2081864 -60.77  0.001813899    1.573    0.364
        36  -9.1548     10.6232    206.4871   1.1748333326e+02   2.7984371720e+01    0.1235937    0.1029893  89.30 0.0002104599    1.073    0.068
        37 -12.5603    147.0326    202.9493   8.3042247083e+01   1.0254880275e+01    0.5184896    0.3559548  44.94  0.001480255    1.553    0.356
        38 -11.5515     32.7518    249.1404   1.1554093700e+02   1.6329967748e+01    0.1961314    0.1465821 -79.19  0.000750949    1.364    0.267
        39 -10.0540     14.6638    202.4404   1.1626556606e+02   2.8585248174e+01    0.2104906    0.1048616 -78.45  0.000692166    1.798    0.444
        40 -11.2810     26.0840    200.7760   1.1340810300e+02   2.7911657279e+01    0.3507953    0.1978718  63.29  0.001749926    1.775    0.437
        41 -10.7757    121.2661    200.5261   8.9004990279e+01   1.5068178825e+01    0.2431488    0.2039753 -49.86 0.0005897518    1.244    0.196
        42 -11.0340    212.3094    200.0267   6.8167873729e+01   4.6217929573e-01    0.1948628    0.1535632 -28.28 0.0005706061    1.134    0.118
        43 -10.7099     14.2072    237.2459   1.1860936035e+02   2.0742205366e+01    0.2822352      0.15002 -68.19  0.001590384    1.875    0.467
        44 -10.6006    226.3272    199.6695   6.5436360513e+01  -1.4600772674e+00    0.1164624    0.1053579 -67.19 0.0007051159    1.709    0.415
        45 -12.8998    138.8167    197.6450   8.4094781366e+01   1.2794457631e+01    0.5065957    0.3899089 -21.26  0.001867946    1.427    0.299
        46 -13.4304    191.0968    195.6403   7.1650069158e+01   4.5136414083e+00    0.5188005    0.4213054  38.83  0.002888059    1.392    0.282
        47 -10.6224     15.5752    197.9006   1.1571059490e+02   2.9595077660e+01    0.2649473    0.1674407  69.13  0.001451514    1.488    0.328
        48 -12.0380    124.4499    195.4438   8.7318567630e+01   1.5714105123e+01    0.4181334    0.3597945   6.85  0.001469107    1.203    0.169
        49 -10.8357    212.8607    194.5240   6.7013529843e+01   1.3728998739e+00    0.2179765    0.1781519 -47.55 0.0008271764    1.431    0.301
        50 -15.9224     93.1272    190.9645   9.4794218728e+01   2.1853597337e+01     2.258472     1.406428  88.83   0.00907378    2.439    0.590
        51 -10.3353      6.1893    193.9728   1.1766192486e+02   3.1339936612e+01    0.1608993    0.1380998  86.96 0.0002262898    1.054    0.051
        52 -11.9945    163.7919    192.8150   7.7179818101e+01   9.5955439977e+00    0.3920716    0.1061873  33.99  0.001143344    3.908    0.744
        53 -11.3179    180.0131    244.2653   8.2562163357e+01  -2.6786378182e+00    0.2072489    0.1737266 -21.50 0.0005736855    1.211    0.175
        54 -10.7992     77.5946    244.4951   1.0548917593e+02   1.1843278776e+01    0.2717313    0.1995676 -45.36 0.0009532313    1.656    0.396
        55 -10.0367      1.3276    190.4464   1.1857675131e+02   3.2569520160e+01    0.1250037   0.09802452 -89.78 3.300798e-06    1.059    0.056
        56 -11.7537    173.4456    188.9820   7.4217863934e+01   8.7554058245e+00    0.3164265    0.1828465  52.86  0.001281663    2.476    0.596
        57  -9.9331     20.6871    189.7015   1.1378893914e+02   3.1142791810e+01      0.12845   0.09287713 -44.84 0.0007014006    1.604    0.377
        58 -10.3369      8.0022    188.2133   1.1681275992e+02   3.2595427023e+01    0.3546056    0.1213748  46.63  0.001482047    2.775    0.640
        59 -10.2700    116.6220    240.0679   9.6058505726e+01   7.2646061487e+00    0.1715183    0.1657006  26.17 0.0005110105    1.103    0.094
        60 -12.7870    135.1648    184.8996   8.2646284253e+01   1.6323738438e+01    0.4376187    0.3254799 -86.13  0.001934846    2.008    0.502
        61 -12.9130    127.4185    185.1378   8.4684683389e+01   1.7619192377e+01    0.6048172    0.3829538  11.62  0.001830466    2.117    0.528
        62 -10.3136    248.2782    185.7677   5.8997188735e+01  -2.0615096163e+00    0.1775532   0.09539447  21.63 0.0006506278    2.367    0.578
        63 -10.6880    186.4561    185.4942   7.0653946284e+01   7.2713208482e+00    0.1469787    0.1282869 -13.02 5.697898e-05    1.032    0.031
        64 -10.2781    213.6943    184.6804   6.4942534830e+01   3.0495626032e+00    0.1421858   0.09583683 -11.52 0.0003308084    1.634    0.388
        65 -10.9963    176.4702    183.4670   7.2441681517e+01   9.3821410442e+00    0.1492895     0.133081 -10.66  9.80046e-05    1.028    0.027
        66 -10.4127     16.9786    183.4629   1.1418671870e+02   3.3026639062e+01    0.1826575     0.129834  25.48  0.001028226    1.588    0.370
        67 -12.7269    144.5194    181.6538   7.9653947206e+01   1.5414961345e+01    0.5746198    0.2099261  35.25  0.001926017    2.737    0.635
        68 -11.7374    148.6908    179.9841   7.8285949659e+01   1.5047720739e+01    0.2310002    0.2026793  25.55 0.0003447042    1.119    0.106
        69 -13.4471    118.4719    179.3701   8.5959101640e+01   2.0550164332e+01    0.5796964    0.3432261 -55.93   0.00244232    1.755    0.430
        70 -10.4284    108.3226    238.3455   9.7752769184e+01   8.8228284522e+00    0.3275008    0.1563985 -38.41   0.00133334    2.933    0.659
        71 -11.6271    191.5283    178.2896   6.8122627961e+01   7.8618852525e+00    0.2486769    0.2048046 -53.80 0.0007499553    1.398    0.285
        72 -12.3949    136.7865    177.3466   8.0758841430e+01   1.7795435769e+01    0.3412349    0.2094565 -39.47  0.001449787    1.684    0.406
        73 -10.7296    132.2896    178.3492   8.2118095848e+01   1.8365145315e+01    0.1612187    0.1177551 -17.32 0.0003221432    1.665    0.399
        74 -11.7120    126.9310    178.4955   8.3546977985e+01   1.9281627367e+01     0.235643    0.1502042  33.84 0.0006250024    1.548    0.354
        75 -11.5213    112.9620    176.3432   8.6875949132e+01   2.2240032819e+01    0.2493037    0.2120511 -69.73 0.0002360087    1.283    0.221
        76 -10.3259    108.6724    235.3085   9.7278063399e+01   9.3956398320e+00    0.1923078    0.1425211 -66.54  0.001035213    1.576    0.365
        77 -10.2623     17.2797    174.9980   1.1334599896e+02   3.5135611285e+01    0.1746335    0.1461349 -78.72 0.0002600431    1.055    0.052
        78 -12.1143    174.9221    173.4590   7.0744368175e+01   1.1755103332e+01    0.2659458    0.2023876 -21.04  0.001310553    1.354    0.262
        79 -14.2941    106.7099    169.9514   8.7386176077e+01   2.4900541222e+01    0.7453154    0.6442187 -74.31  0.003751551    1.261    0.207
        80 -12.3854    103.8809    165.2106   8.7266417034e+01   2.6578509334e+01    0.4782352    0.2830551 -39.20  0.001167216    1.860    0.462
        81 -11.1495    186.7766    244.6353   8.1202844033e+01  -3.6601727960e+00    0.1790345    0.1049643  34.81 0.0004030127    1.661    0.398
        82  -9.9032    205.3645    235.6780   7.5931090583e+01  -4.6727515569e+00     0.114433    0.1019698  52.33 0.0007039807    1.786    0.440
        83 -14.4219    130.3936    167.4315   8.0416522226e+01   2.1309802626e+01     1.199822     0.446033  46.81  0.003631609    3.229    0.690
        84 -13.3889    139.3509    164.3785   7.7429536986e+01   2.0371415260e+01    0.7396843    0.2929931 -39.82  0.002327035    2.848    0.649
        85 -12.2760    152.9122    168.5687   7.4898762543e+01   1.6862468989e+01    0.3545814    0.2231525 -46.37  0.001001334    1.565    0.361
        86 -10.8897    160.2849    169.5833   7.3327266316e+01   1.5265218843e+01    0.2117539    0.1452615  24.81 0.0009466921    1.573    0.364
        87 -11.6246    112.9734    229.0402   9.5419652946e+01   1.0067371810e+01    0.5042236    0.3168724 -79.23  0.002295747    2.380    0.580
        88 -10.7906     32.9451    168.0439   1.0831068147e+02   3.5500260479e+01    0.2126867    0.1881924 -74.54 0.0004455084    1.035    0.034
        89  -9.9431    118.5094    232.4630   9.4586398540e+01   8.5256638017e+00    0.1385751    0.1227889  15.85 0.0008077444    1.093    0.085
        90 -10.5725     94.4935    231.5386   1.0013391976e+02   1.2244694720e+01     0.229044    0.1274067  19.19 7.903667e-05    2.164    0.538
        91 -10.3786    154.8289    230.3997   8.5864761905e+01   3.4404658034e+00    0.2032829    0.1191791  20.34 0.0009509894    1.723    0.420
        92 -12.8628    186.9378    225.4203   7.7974815169e+01  -3.9940356404e-01    0.3587638    0.2718057 -29.71  0.002076555    1.272    0.214
        93 -13.1704    170.6065    159.4682   6.8741561956e+01   1.5552249523e+01    0.4468002    0.3108432 -58.32  0.002023246    1.680    0.405
        94 -11.9943    123.9179    160.7763   8.0767442820e+01   2.4116067710e+01    0.2928146    0.2315869 -57.46 0.0004198361    1.319    0.242
        95 -11.6173     27.9408    160.3716   1.0883303790e+02   3.7976356222e+01    0.2733525    0.2350536  12.06 0.0006476798    1.359    0.264
        96 -14.0238     22.6576    153.1767   1.0952509449e+02   4.0318387210e+01    0.9059973    0.7639074 -26.31  0.003711492    1.358    0.263
        97 -13.5600    111.9415    155.8426   8.3063144391e+01   2.7525685247e+01    0.5516013    0.4180321 -35.71  0.002013472    1.378    0.274
        98 -12.5541     99.4336    155.8824   8.6689499671e+01   2.9711982394e+01    0.3947825    0.3008618  15.10  0.001792053    1.487    0.327
        99 -12.8803     97.9534    152.3041   8.6390618184e+01   3.0880143003e+01    0.3989654    0.3048555  20.17   0.00121684    1.425    0.298
       100 -10.4893     13.4939    157.4698   1.1267101619e+02   3.9928626066e+01    0.2192887    0.1146086 -88.85 0.0006438431    1.936    0.483
       101 -11.3083    125.1719    221.8328   9.1453885328e+01   9.7303088483e+00      0.35363    0.2131195 -57.72  0.001663779    1.887    0.470
       102 -12.3942     16.5965    241.9875   1.1839310321e+02   1.9503858158e+01    0.2978198    0.2004805  62.52  0.001219515    1.221    0.181
       103 -11.6373    212.3079    154.0937   5.8982637438e+01   9.0546856231e+00    0.2435247    0.2110482  48.05 0.0006274407    1.365    0.267
       104 -14.0951    108.5978    147.7241   8.2275578010e+01   3.0166892224e+01    0.8863271    0.5563222 -31.03  0.003438954    1.930    0.482
       105 -13.5733    111.8148    141.0811   7.9842400587e+01   3.1231000233e+01    0.6753675    0.4792406  61.86  0.001195919    1.811    0.448
       106 -13.5105    145.0125    149.4561   7.2686472240e+01   2.2773556935e+01    0.6042442    0.3551777  38.45  0.002042864    1.734    0.423
       107 -11.2014     45.2716    152.6489   1.0259588024e+02   3.8266560699e+01    0.3415986    0.1657467 -70.91   0.00101687    2.034    0.508
       108 -13.2387    128.6334    147.5513   7.6575747605e+01   2.6436361055e+01     0.572235    0.3985109 -81.06  0.001174187    2.249    0.555
       109 -10.0518    102.7800    157.9958   8.6143885371e+01   2.8598953938e+01    0.2174435     0.186083 -86.11 0.0004305658    1.343    0.255
       110 -11.7570     59.8035    150.8855   9.7802953498e+01   3.6997391628e+01    0.3790688    0.2405747 -57.28  0.001003895    1.456    0.313
       111 -11.7418    180.0874    150.6453   6.4685103808e+01   1.5631572957e+01    0.2620061    0.2032051 -51.27 0.0006425414    1.318    0.241
       112 -12.2259     91.0111    149.9558   8.7988289388e+01   3.2648486582e+01    0.2424949    0.2271417 -42.60 0.0004351721    1.044    0.042
       113 -10.5981     12.5398    149.9671   1.1215573584e+02   4.1936558483e+01    0.2408289     0.164496  46.87 0.0006913822    1.587    0.370
       114 -12.9278    157.3865    157.7175   7.1464887729e+01   1.8467304407e+01    0.5515521    0.2289581  32.35  0.001823132    2.897    0.655
       115 -13.1111     71.0362    154.1017   9.4895319984e+01   3.4628860851e+01    0.5267074    0.3115379  16.49  0.002166026    2.093    0.522
       116 -12.4003    149.0690    152.4961   7.2349151025e+01   2.1273226991e+01    0.2936552    0.2401806 -11.23 0.0006451241    1.367    0.268
       117 -10.6069      4.2996    250.5747   1.2124201856e+02   1.8921559139e+01    0.1106163   0.08209113  73.03  0.000193941    1.081    0.075
       118 -14.0847    103.7636    141.9534   8.2420268554e+01   3.2491878677e+01    0.9483463    0.4913698  40.53  0.003246293    1.957    0.489
       119 -12.3228     11.8788    219.9350   1.1807158780e+02   2.4768838486e+01    0.3730152    0.2678954 -50.21  0.002284223    1.715    0.417
       120 -12.4925    156.2545    144.9912   6.8864457253e+01   2.1552591073e+01    0.4520771     0.210677  49.95  0.001599883    2.523    0.604
       121 -12.4720    140.9504    144.8771   7.2679673458e+01   2.4645343768e+01    0.3065526    0.2483373  34.89 0.0007690025    1.255    0.203
       122 -13.0329    149.9120    142.9319   6.9944913424e+01   2.3294595939e+01    0.4248916    0.3333126 -28.93 0.0008671475    1.327    0.246
       123 -11.9810     93.4197    143.5892   8.5913585999e+01   3.3884749991e+01    0.2680506    0.2550064 -40.38 0.0001857427    1.022    0.022
       124 -10.8230     16.4475    218.4637   1.1697655433e+02   2.4676169417e+01    0.1564143     0.121464  12.41 0.0001990021    1.678    0.404
       125 -11.0368    186.4943    139.0013   6.0715186309e+01   1.6810772630e+01    0.2172623    0.1968365  35.96 -3.242239e-05    1.182    0.154
       126 -13.0601     48.1333    156.9691   1.0237247700e+02   3.6801237752e+01    0.6316205    0.3593954 -28.59  0.002543776    2.447    0.591
       127 -13.6711    143.2123    132.9209   6.9254039198e+01   2.6944831343e+01    0.8384165    0.5163605  19.54  0.003123233    2.382    0.580
       128 -15.3811    154.1412    127.8415   6.5291049577e+01   2.5796889305e+01     1.550218     1.139503  64.95  0.006457997    1.702    0.412
       129 -10.1052     51.2957    138.6284   9.8372455291e+01   4.1289542910e+01    0.1537675    0.1103007  72.77 0.0007027584    1.734    0.423
       130 -10.9230      3.6339    221.4154   1.1992167811e+02   2.5172873291e+01    0.1573956    0.1159705   8.28 0.0003929181    1.900    0.474
       131 -10.1332     27.2971    138.6279   1.0618365409e+02   4.3736610307e+01    0.1463981   0.09912362  70.55 0.0007028254    1.738    0.425
       132 -11.5753     96.1557    135.9198   8.3366341876e+01   3.5365511694e+01    0.3457354    0.2348229  73.63 0.0009897224    2.327    0.570
       133 -10.5132    223.5012    220.4581   6.9757442408e+01  -4.5606398798e+00    0.1279004    0.1035308 -10.17 4.765191e-05    1.051    0.048
       134 -10.7971     59.5031    134.9229   9.4973481290e+01   4.1247569309e+01    0.2368902    0.1386484 -58.13  0.001025428    1.577    0.366
       135 -11.9229    116.0828    130.8232   7.6166220943e+01   3.2923651771e+01    0.2988046     0.229556  64.12 0.0009183332    1.616    0.381
       136 -12.3731    102.8991    133.8736   8.0822293835e+01   3.4671457123e+01    0.3880072    0.2390614  35.40  0.001614477    1.649    0.394
       137 -10.3316     66.9418    134.7445   9.2478033082e+01   4.0291639345e+01    0.1874191     0.133072  24.98 0.0003456143    1.501    0.334
       138 -10.9387     75.7760    133.1935   8.9250709963e+01   3.9404987706e+01     0.218422    0.1748768 -26.16 0.0005095574    1.338    0.252
       139 -12.0358     35.0027    132.4284   1.0270538304e+02   4.4662488463e+01    0.2686009    0.2218254  32.69  0.001489175    1.335    0.251
       140 -12.1868    131.9915    131.9970   7.1987171955e+01   2.9463608026e+01    0.3250358    0.2668786  13.61 0.0008189874    1.371    0.271
       141 -12.0309    137.7022    130.9759   7.0211292522e+01   2.8528327968e+01    0.4667164    0.2307096  45.35 0.0006613943    2.093    0.522
       142 -11.8687    134.0058    127.5089   7.0335731001e+01   3.0089371863e+01    0.3027606    0.2269497 -39.13 0.0004936602    1.329    0.248
       143 -10.6657     91.2253    130.7833   8.3725669669e+01   3.7516966910e+01    0.2223068    0.1807423 -23.90 0.0005670746    1.324    0.245
       144 -12.1508     63.1473    129.1100   9.2580096557e+01   4.2279591830e+01    0.4183759    0.1959651 -46.49  0.001502301    2.034    0.508
       145  -9.9073     29.6608    129.2748   1.0398876588e+02   4.5976664120e+01    0.1392875    0.1020424  62.28 0.0003282446    1.612    0.380
       146 -11.4334     56.3765    128.1531   9.4681931619e+01   4.3414304560e+01    0.2443074    0.2008736  -1.02  0.000411904    1.344    0.256
       147 -14.1967    154.1076    117.8238   6.2806098743e+01   2.7968183607e+01     1.198297    0.5298782  44.42  0.004357028    2.321    0.569
       148 -11.3310     36.1839    126.6865   1.0133411486e+02   4.6047988240e+01    0.3662487    0.2124573  -7.79   0.00100174    2.361    0.576
       149 -11.9189    119.8312    121.3716   7.2716963055e+01   3.4418953665e+01    0.5221919    0.1735131 -45.41  0.001592802    2.971    0.663
       150 -11.8571    107.5460    122.2083   7.6558871445e+01   3.6650893891e+01    0.3064803     0.224186  38.32  0.001135547    1.382    0.276
       151 -10.4266     48.7652    122.3697   9.6149454404e+01   4.5831682101e+01    0.2140027      0.17872  48.32 0.0008394027    1.352    0.260
       152 -10.3687    189.4831    121.5771   5.6111518862e+01   1.9719276498e+01     0.145542    0.1363823 -43.95 0.0001048479    1.012    0.011
       153 -12.1664    100.7741    120.2394   7.8145404108e+01   3.8407905102e+01    0.3608502    0.2820625  60.64   0.00165914    1.544    0.352
       154 -11.2644     59.9960    121.4466   9.2026002290e+01   4.4675456221e+01    0.2186064    0.1478793  26.86 0.0004139437    1.561    0.360
       155 -10.7472     40.5387    120.9915   9.8776445257e+01   4.7087425806e+01     0.301146    0.1733499  -8.09   0.00125149    2.411    0.585
       156 -11.5695     31.1129    118.1614   1.0159932485e+02   4.8722670058e+01    0.3087235    0.2375544   2.97  0.001126872    1.457    0.314
       157 -11.1618     45.4955    118.4881   9.6522438448e+01   4.7199580843e+01    0.2732806    0.1937251  13.61 0.0009787154    1.566    0.361
       158 -11.8552     49.1831    116.3643   9.4760029123e+01   4.7321383829e+01    0.3397935    0.2610711  25.28  0.001139181    1.392    0.282
       159 -10.2051     70.3407    117.1698   8.7450712555e+01   4.4301950190e+01    0.2122749    0.1407603 -65.41  0.000353637    1.673    0.402
       160 -11.6212     23.0857    115.6227   1.0402645491e+02   5.0040121435e+01    0.2424323    0.1901191 -62.28 0.0004561308    1.122    0.109
       161 -11.1053    189.1814    114.6103   5.4539172113e+01   2.1141221603e+01    0.2043913    0.1368292  37.85 0.0009504567    1.732    0.423
       162 -13.4946    138.7098    102.5737   6.2603304671e+01   3.4546890147e+01     1.046596    0.3278601 -51.36  0.002763154    4.492    0.777
       163 -14.0211    143.3475    107.2525   6.2690039022e+01   3.2549852043e+01    0.7544023    0.5096452 -27.34  0.003256635    1.737    0.424
       164 -14.1422    150.8094    107.3505   6.0900379859e+01   3.0883505068e+01    0.7888995     0.658941 -69.05  0.003749716    1.351    0.260
       165 -10.7056     59.3830    108.6947   8.9321169773e+01   4.7962080540e+01    0.2648357    0.1858702  18.60 0.0005477982    1.528    0.345
       166 -11.4613     54.0773    110.3404   9.1649053657e+01   4.8244838356e+01    0.5041536    0.2429154 -32.52  0.001856663    2.617    0.618
       167 -10.8513    105.4809    107.4739   7.3316305984e+01   4.0497810737e+01    0.1557091    0.1511977  -5.89 7.562371e-05    1.015    0.015
       168 -11.0086     51.2076    106.7966   9.1885830442e+01   4.9479188033e+01    0.2059307    0.1556631 -28.66  0.000369232    1.313    0.238
       169 -11.0232    117.4207    103.2521   6.8575437469e+01   3.9004557127e+01    0.3039953    0.1491155 -40.25  0.001129455    2.099    0.524
       170 -11.2995     59.3064     92.1029   8.5072483062e+01   5.1930171686e+01    0.3231561    0.2611805  79.80  0.001615652    1.800    0.444
       171 -12.2224     57.8134     99.7656   8.7680995300e+01   5.0339947311e+01    0.3868612    0.3136724 -60.74  0.001260277    1.309    0.236
       172 -10.7949     60.1549     95.8927   8.5778107924e+01   5.0933197240e+01    0.2298699    0.2009472 -22.76 0.0003607364    1.061    0.058
       173 -11.1093     76.7376     98.1644   8.0297037289e+01   4.7872217065e+01    0.3843718    0.2195224  45.87  0.001259477    2.006    0.501
       174 -12.5026    147.3503    101.3449   6.0139721642e+01   3.2877180273e+01    0.3473523     0.298334 -10.68  0.001453696    1.336    0.252
       175 -11.4234    106.0558    114.2278   7.4951570641e+01   3.8828005207e+01    0.3342991    0.1942896  16.87  0.001169035    2.690    0.628
       176 -10.1509    214.4651     92.4777   4.5228829287e+01   1.9984083710e+01    0.1358726    0.1186878 -56.94 0.0001026011    1.003    0.003
       177 -10.1408    196.4899     92.4566   4.8023290508e+01   2.3697026849e+01     0.140257    0.1279692 -61.57  0.000103734    1.004    0.004
       178 -11.1678      1.8913     91.2918   1.0789597618e+02   5.7346703388e+01    0.2377869    0.1562271 -36.48  0.001360727    1.363    0.266
       179 -11.7944     88.2464    110.8646   7.9766828100e+01   4.2931352541e+01    0.3708408    0.2215835 -23.23  0.001393902    2.371    0.578
       180 -10.0721     21.3015     91.6591   1.0015747103e+02   5.6109690994e+01    0.1290183    0.1024625  70.54 0.0007037784    1.673    0.402
       181 -10.1707     75.1960    110.6498   8.4159972468e+01   4.5165729273e+01    0.2172686    0.1434376  19.12 0.0009495913    1.696    0.410
       182 -10.4457     30.2011     87.8294   9.5638645537e+01   5.6282685218e+01    0.1938656    0.1383227 -30.20 0.0003738661    1.291    0.225
       183 -13.5289     50.4160     82.6422   8.5930488595e+01   5.5259668601e+01     1.004484    0.5847178  52.73  0.004176339    2.742    0.635
       184 -10.6343    206.5936     81.1627   4.3846742557e+01   2.3484073601e+01    0.2863502    0.2048666   9.39   0.00127931    2.646    0.622
       185 -10.9245    152.3694     80.7076   5.3395756846e+01   3.5656149689e+01    0.3445686    0.2163509  32.60 0.0008818717    2.059    0.514
       186 -10.1053    214.2970     78.6887   4.2211195550e+01   2.2293806632e+01     0.136858   0.09113523 -67.62 0.0003026152    1.598    0.374
       187 -10.2687    189.4837     77.2848   4.5559436512e+01   2.7799303338e+01    0.1975583    0.1199685 -51.44 0.0008511078    1.603    0.376
       188 -10.8732     75.4337     75.7716   7.4066980658e+01   5.2925082763e+01    0.2528079     0.193841  29.59 0.0006065656    1.265    0.210
       189 -10.8072    116.0755     74.2092   6.0426572903e+01   4.5096087144e+01    0.2608971    0.2010315 -21.38  0.001286664    1.456    0.313
       190 -12.5100     32.0615     74.6827   9.1446029977e+01   5.9094464535e+01    0.3565943    0.2197334  -3.70  0.001775058    1.790    0.441
       191  -9.9175    177.6434     74.7375   4.6911764421e+01   3.0868777519e+01    0.1374779    0.1085499  30.01 0.0006980497    1.625    0.385
       192 -10.8225    125.0802     73.1078   5.7670172036e+01   4.3276908134e+01    0.2275889     0.214612  32.96    0.0007755    1.038    0.036
       193 -12.2116     35.8556     66.6211   8.7394654192e+01   6.0426165528e+01    0.8796838    0.5473894  70.21  0.002944063    5.646    0.823
       194 -12.7961     25.8511     64.3016   9.1277896769e+01   6.1905401415e+01     1.185294    0.5475442   6.93  0.005127226    2.628    0.620
       195  -9.7629    250.1792     66.3877   3.5526640300e+01   1.7286525851e+01    0.1438278    0.1011626 -86.18 0.0001590302    1.479    0.324
       196 -10.1690     74.0255     65.9831   7.1352411198e+01   5.5065026573e+01    0.1747627    0.1543837  11.97  0.000392577    1.033    0.032
       197  -9.9069    219.6672     61.6713   3.7841659711e+01   2.3808210328e+01    0.1166965     0.101144  20.29 0.0003253502    1.719    0.418
       198 -10.7189    196.6725     67.6843   4.2179263105e+01   2.7754664083e+01    0.1278144    0.1067342  23.14 0.0006142072    1.674    0.403
       199 -10.6289    109.8394     59.8753   5.7615078779e+01   4.8922139943e+01    0.1922951    0.1741657  89.82 0.0005853636    1.314    0.239
       200 -11.6743    100.1065     68.1469   6.3191424281e+01   4.9618148589e+01    0.2776185    0.2048263 -41.52  0.001391078    1.440    0.305
       201 -10.5164      2.4767     59.5189   1.0114451265e+02   6.4530985761e+01    0.2421494    0.1181749 -34.56  0.001214687    1.703    0.413
       202 -11.0150    153.3815     57.5857   4.6790021208e+01   3.9199067764e+01    0.2360133    0.2146092 -57.81 0.0006958729    1.127    0.113
       203 -10.5620    127.4826     56.4700   5.1981381151e+01   4.5447703030e+01    0.1426142    0.1319147  50.55 0.0002609574    1.007    0.007
       204 -10.0654     65.5355     52.4269   6.9796722945e+01   5.8941961510e+01     0.137924     0.119453   9.30 0.0002114304    1.014    0.014
       205 -10.5596     17.1888     51.2176   9.1456000675e+01   6.5299359001e+01    0.1953278    0.1341388 -27.51 0.0005708251    1.203    0.169
       206 -10.6303    175.3595     50.3245   4.1107866064e+01   3.5107015694e+01    0.1356896     0.101184  33.60            0    1.779    0.438
       207 -11.3165    195.9971     44.3732   3.6847418963e+01   3.1257678405e+01     0.311388     0.183094 -80.44   0.00154325    1.963    0.491
       208 -11.2459     51.7641     43.1977   7.1975631415e+01   6.2691669427e+01    0.1892848    0.1365066   1.72 0.0004309934    1.341    0.254
       209 -10.0158    104.5166     39.5876   5.2237523377e+01   5.3056685252e+01     0.137872    0.1201357  42.81 6.243974e-05    1.015    0.015
       210 -11.4689     60.1859     38.3841   6.6517015741e+01   6.2069576365e+01    0.2448021    0.2064616 -19.46 0.0006040939    1.218    0.179
       211 -10.7102     11.4076     36.2076   8.9382043942e+01   6.8578476045e+01    0.1595922    0.1098958 -55.33 0.0009597125    1.719    0.418
       212 -10.6969    106.5751     32.2934   4.9174044473e+01   5.3501132210e+01    0.2264872     0.128024 -34.29 0.0007847613    1.974    0.493
       213 -10.5237     47.7346     32.9299   6.9570406115e+01   6.4884041542e+01    0.1735884    0.1432479  -6.47 0.0002525772    1.107    0.096
       214 -10.4001    215.3174     31.6844   3.1971704253e+01   2.8741727029e+01    0.1292531   0.07474955 -67.68 0.0003952959    1.651    0.394
       215 -10.6635    169.6761     31.0780   3.7036577974e+01   3.8895309911e+01    0.1710941    0.1542364 -78.78  0.000333555    1.082    0.076
       216 -10.2775    139.3132     30.3704   4.1597222916e+01   4.6115486205e+01    0.1383414   0.09368423  33.57 0.0007035217    1.777    0.437
       217 -10.4308    155.7072     29.6751   3.8686410472e+01   4.2323392778e+01    0.1284641   0.09453993  37.87 0.0003306913    1.618    0.382
       218 -10.6758     39.1791     29.1042   7.1901164354e+01   6.6696953281e+01    0.2017673    0.1439255   2.28 0.0007869668    1.245    0.197
       219 -10.9917    101.8237     25.7975   4.8085929878e+01   5.5302797353e+01    0.1795866    0.1526542  82.51  0.001076876    1.378    0.275
       220 -11.1781     84.0144     23.9881   5.2320370742e+01   5.9352038063e+01    0.1908707    0.1615974 -81.10   0.00113454    1.690    0.408
       221 -10.3079     20.4993     23.0009   7.8902265779e+01   6.9925984126e+01    0.1727464    0.1019804 -33.79 0.0007699425    1.556    0.357
       222 -10.2452    177.6164    249.1946   8.3839062716e+01  -3.1691083868e+00    0.1682248    0.1088907 -27.23 0.0003528412    1.579    0.367
       223 -10.2756    173.0273    248.9976   8.4780444089e+01  -2.5090919705e+00    0.2172111    0.1383946  -3.66  0.001133275    1.758    0.431
       224 -10.8920     92.8021    248.2638   1.0247892512e+02   9.0166582020e+00    0.2045218    0.1643126 -87.41 0.0008442834    1.445    0.308
       225 -10.2278    238.3031    248.6561   7.1828323932e+01  -1.0560284224e+01   0.09759621    0.0913481 -11.32 0.0004511571    1.683    0.406
