#   1 NUMBER                 Running object number                                     
#   2 MAG_AUTO               Kron-like elliptical aperture magnitude                    [mag]
#   3 X_IMAGE                Object position along x                                    [pixel]
#   4 Y_IMAGE                Object position along y                                    [pixel]
#   5 X_WORLD                Barycenter position along world x axis                     [deg]
#   6 Y_WORLD                Barycenter position along world y axis                     [deg]
#   7 A_WORLD                Profile RMS along major axis (world units)                 [deg]
#   8 B_WORLD                Profile RMS along minor axis (world units)                 [deg]
#   9 THETA_WORLD            Position angle (CCW/world-x)                               [deg]
#  10 FWHM_WORLD             FWHM assuming a gaussian core                              [deg]
#  11 ELONGATION             A_IMAGE/B_IMAGE                                           
#  12 ELLIPTICITY            1 - B_IMAGE/A_IMAGE                                       
         1 -12.1426    219.1304     25.3586   1.3399780235e+01   2.7590405018e+01    0.8934691    0.6775541 -61.08    0.0051828    1.203    0.169
         2  -9.5462     71.4813      7.4879   3.5584639262e+01   6.4123489123e+01    0.1246472    0.1040128  16.98 0.0001487868    1.029    0.028
         3  -8.5231     94.1941    244.8816   8.5257139596e+01   1.1977841149e+01    0.1301251   0.08882245 -76.47 0.0004397391    1.615    0.381
         4 -12.0202    248.4999    246.8596   5.6906473121e+01  -1.2003518591e+01    0.6000393    0.3245142 -33.26  0.003667308    2.016    0.504
         5 -11.8585    249.0793    231.5201   5.4263288797e+01  -1.0283306026e+01    0.4705918    0.2128309 -24.03  0.002405962    2.361    0.576
         6  -8.5696    190.9838    216.8905   6.2466116979e+01   8.6426062637e-01    0.1493423    0.1331111 -16.38 0.0004853808    1.193    0.161
         7  -8.1264    197.2743    208.6162   5.9797118387e+01   1.1060765926e+00    0.1231615    0.1068236  87.84  0.000487141    1.711    0.416
         8  -8.8231    210.9521    198.6678   5.5314801262e+01   3.2604803722e-01    0.1879201    0.1549855  26.70 0.0004814239    1.109    0.098
         9 -12.0574     82.6728    195.5656   8.2180950905e+01   2.3458594889e+01     0.354505    0.2947052 -73.00  0.001231331    1.213    0.175
        10 -10.6112     34.2151    190.7007   9.2089693430e+01   3.0785393493e+01    0.2138701    0.1482541  74.46 0.0006896021    1.211    0.174
        11 -10.7979     39.5411    187.2130   9.0651978388e+01   3.0965376784e+01    0.3733963    0.1641064  59.54 0.0008754408    2.318    0.569
        12 -10.7836     57.5835    181.4003   8.6079125787e+01   3.0106461679e+01    0.3384398    0.2535592 -37.72  0.001420293    1.904    0.475
        13  -7.9133     53.5324    179.5547   8.6785735089e+01   3.1037959151e+01    0.2413022    0.1312212  67.15 0.0004909145    1.966    0.491
        14 -10.7293     99.0490    180.9742   7.6456909421e+01   2.4143777294e+01    0.3224559    0.2892332  13.67  0.001422721    1.417    0.295
        15 -10.4899     97.1116    176.3501   7.6203272553e+01   2.5509718475e+01    0.3347729     0.233636 -81.27 0.0008694694    1.544    0.352
        16  -9.6795     70.0135    179.4223   8.2997719787e+01   2.8900966878e+01    0.2920628    0.2875779 -43.92  0.001053179    1.311    0.237
        17 -10.6183     48.2402    177.2297   8.7726735246e+01   3.2213326369e+01    0.5312225    0.2433871 -87.85  0.001809539    2.595    0.615
        18  -9.9941    173.2616    177.7295   5.8963143560e+01   1.1094699195e+01    0.3733516    0.2642545 -54.01  0.001824696    1.600    0.375
        19  -9.8130    145.5380    178.5258   6.5267264889e+01   1.6336609195e+01    0.2457843    0.1417566 -62.72 0.0005375099    2.187    0.543
        20 -10.9705    104.1663    172.5244   7.3907149090e+01   2.5211097274e+01    0.3166872    0.2216386  59.75  0.001002959    1.452    0.312
        21 -10.8958     86.8407    171.0241   7.7842845500e+01   2.8373237158e+01    0.4973823    0.4792958  53.38  0.001938485    1.184    0.155
        22 -11.1986     92.9073    169.9728   7.6211418348e+01   2.7660884433e+01    0.4734444    0.4011737 -31.52  0.001445864    1.511    0.338
        23 -11.4109    110.5787    167.1359   7.1436409788e+01   2.5338648885e+01    0.4792388    0.3060743 -70.94  0.001403033    1.764    0.433
        24 -10.1026    179.6097    168.4767   5.5720279564e+01   1.1646479809e+01    0.4657307    0.3035683 -59.09  0.002069606    1.959    0.489
        25 -11.0353    117.5996    168.6263   7.0000655269e+01   2.3742866329e+01     0.410317    0.2473333 -77.18 0.0008928455    2.310    0.567
        26 -10.6644    101.2708    166.7303   7.3640129320e+01   2.7038401073e+01    0.3035156    0.2683975  79.27   0.00099501    1.071    0.066
        27  -9.6996     58.7172    164.6106   8.3751241552e+01   3.3863455833e+01    0.3589894    0.2584068 -45.84  0.001979759    1.653    0.395
        28  -9.2173    100.6948    161.9074   7.2952307085e+01   2.8262613970e+01    0.2375071    0.1873173  60.54 0.0005809257    1.258    0.205
        29  -9.9338     93.5407    157.4909   7.3979484974e+01   3.0495815335e+01    0.2560603    0.1953756 -67.79 0.0005325737    1.263    0.208
        30 -10.3421     92.7107    162.7133   7.5078466288e+01   2.9393678988e+01     0.236159    0.2089699  77.74 0.0004122877    1.060    0.057
        31 -10.7666     96.0834    160.9254   7.3933404368e+01   2.9264671775e+01    0.3100093    0.2803794 -56.66 0.0004775001    1.165    0.142
        32  -8.6386    167.4435    156.4617   5.5838906921e+01   1.6575222625e+01    0.1497753    0.1455306  15.38 0.0001331498    1.021    0.021
        33 -10.6557     89.6206    149.9915   7.3658675870e+01   3.2923824207e+01    0.3327377    0.2948262 -66.06 0.0006132689    1.086    0.079
        34  -9.5814    100.6851    149.7258   7.0731372423e+01   3.1148453205e+01    0.2389034    0.1718428  48.00 0.0006293503    1.397    0.284
        35 -10.4820     98.2342    147.0037   7.0849523498e+01   3.2217931179e+01    0.3567041    0.1991072 -53.08 0.0007324227    1.730    0.422
        36 -12.0233     94.5540    145.2836   7.1488481904e+01   3.3249851134e+01    0.6596412    0.5132229 -31.30  0.001946398    1.593    0.372
        37 -10.6156    133.6766    146.6649   6.1697151942e+01   2.5685062815e+01    0.5952395    0.2519601 -56.84  0.002016066    2.778    0.640
        38 -10.2542    134.8082    143.7974   6.0788374213e+01   2.6109734839e+01    0.4757977    0.3389884 -89.54  0.002022355    2.011    0.503
        39 -10.5619    108.7894    145.3768   6.7768844145e+01   3.0752910100e+01    0.3043951     0.292342  64.46 0.0007110693    1.059    0.055
        40  -9.1390    148.1406    144.9182   5.7774060230e+01   2.3104755689e+01    0.2374143    0.2073416  88.22 0.0006067254    1.290    0.225
        41 -11.4517    106.1979    132.2717   6.5689473556e+01   3.4339782792e+01    0.6809332    0.4426614 -66.41  0.003016707    1.690    0.408
        42 -10.9382     95.3488    131.6545   6.8527493447e+01   3.6398033769e+01    0.3022595    0.2614202 -47.04  0.000924747    1.165    0.141
        43  -9.6646    134.3303    130.3241   5.7817327911e+01   2.9277840120e+01    0.3214649    0.1858605  63.70 0.0009955827    2.507    0.601
        44  -9.5745    114.3342    125.9307   6.2038846637e+01   3.4313955250e+01    0.2660212    0.2189708   0.62 0.0008053363    1.564    0.361
        45 -10.2755     55.2909    238.9032   9.1885910462e+01   1.8419877283e+01    0.1587127    0.1175821  73.11 0.0005819168    1.075    0.070
        46  -9.4738    101.8309    121.0753   6.4356562057e+01   3.7790564481e+01    0.2582934    0.2215318  20.38 0.0008071626    1.337    0.252
        47 -10.3015    160.8982    118.2875   4.8311465688e+01   2.6099895461e+01    0.5040908    0.3727209 -72.64  0.001788364    1.764    0.433
        48  -8.4345    109.9630    116.0030   6.0847521012e+01   3.7470635846e+01    0.1846456    0.1677276 -53.15 0.0003704704    1.061    0.057
        49  -9.9887    115.8413    109.4967   5.7548847027e+01   3.7815661412e+01    0.3195125    0.2060302 -65.59  0.001319012    1.936    0.484
        50 -19.5038     18.7771    145.6909   9.1306125697e+01   4.2566531573e+01     18.20801     3.900535 -73.84   0.06025308    4.199    0.762
        51 -11.0045     38.5465    234.6531   9.4576354065e+01   2.1268126144e+01    0.1488312    0.1183951 -85.52  0.001099946    1.292    0.226
        52  -9.8948    110.9585     98.5558   5.5986299900e+01   4.1239433652e+01    0.3230688    0.2146704  74.75  0.001261899    2.508    0.601
        53 -10.0402     47.2122    233.5404   9.2948488101e+01   2.0442506203e+01    0.1406948    0.1071017  84.25 0.0008252602    1.152    0.132
        54  -8.7432    128.4116     90.2161   4.8744654425e+01   3.9367192730e+01    0.2226762    0.1439939 -53.26  0.000942063    1.677    0.404
        55 -10.9714     58.8707    232.2413   9.0712329410e+01   1.9222309604e+01    0.1632787    0.1324878  81.32 0.0003271507    1.137    0.121
        56 -10.2390    168.0505     69.5191   3.3200696558e+01   3.3858675062e+01    0.2368722    0.1486157  56.68 0.0006619759    1.575    0.365
        57 -11.5598    175.5734     65.4720   3.0542192057e+01   3.2658545670e+01    0.4643932    0.4099152 -45.27 0.0008934443    1.133    0.117
        58 -11.4632     52.9388    231.8353   9.1776508059e+01   2.0058400806e+01      0.19694    0.1370137 -73.66 0.0006920935    1.474    0.322
        59 -12.5071    191.7977     52.0174   2.3916194563e+01   3.0692642736e+01     1.112555    0.8937879  34.56  0.004060069    1.475    0.322
        60  -9.5962     47.2508    229.0762   9.2613635354e+01   2.1298606205e+01      0.17027    0.1051625  70.27 0.0008028607    1.347    0.258
        61 -11.2231    197.5888     46.9132   2.1642034990e+01   2.9990224142e+01    0.4777357    0.3689624  21.92  0.001372422    1.754    0.430
        62  -8.5212     87.4917     47.0259   4.6660932475e+01   5.5859529935e+01    0.1969214    0.1297488 -33.43 0.0003263028    1.474    0.322
        63 -10.1951     51.4568    245.2720   9.3026769998e+01   1.7727575578e+01    0.1244921   0.09588915 -76.49 0.0008972943    1.433    0.302
        64  -9.5492     89.0561    221.0337   8.3802319761e+01   1.7204439555e+01    0.3332906    0.1706596  38.14  0.001683645    1.863    0.463
        65  -9.5072     90.2774    246.9904   8.6183427679e+01   1.2176315623e+01    0.1713846    0.1401883 -60.45 0.0008582874    1.543    0.352
        66 -10.8602    214.8602     29.1548   1.4800024832e+01   2.8138760881e+01     0.401771    0.3010001 -67.65  0.001421464    1.255    0.203
        67 -10.4038     60.5639     21.2197   4.5781101102e+01   6.4362416087e+01    0.2231048    0.1631674  31.57 0.0007482374    1.321    0.243
