#   1 NUMBER                 Running object number                                     
#   2 MAG_AUTO               Kron-like elliptical aperture magnitude                    [mag]
#   3 X_IMAGE                Object position along x                                    [pixel]
#   4 Y_IMAGE                Object position along y                                    [pixel]
#   5 X_WORLD                Barycenter position along world x axis                     [deg]
#   6 Y_WORLD                Barycenter position along world y axis                     [deg]
#   7 A_WORLD                Profile RMS along major axis (world units)                 [deg]
#   8 B_WORLD                Profile RMS along minor axis (world units)                 [deg]
#   9 THETA_WORLD            Position angle (CCW/world-x)                               [deg]
#  10 FWHM_WORLD             FWHM assuming a gaussian core                              [deg]
#  11 ELONGATION             A_IMAGE/B_IMAGE                                           
#  12 ELLIPTICITY            1 - B_IMAGE/A_IMAGE                                       
         1 -12.2882     72.0363      9.3908   5.2130673869e+00   6.5284921681e+01    0.3240419     0.217402 -15.47  0.001718379    1.773    0.436
         2 -11.1514     83.1074      7.2036   1.2997353635e+00   6.2813198121e+01    0.1996223    0.1911454 -41.34 0.0004246003    1.164    0.141
         3 -10.8484    114.3034    248.8030   5.2983519619e+01   8.2956438742e+00    0.1716598    0.1478257 -59.14 0.0006926765    1.483    0.326
         4  -9.9269    238.4938    250.5930   3.0455618934e+01  -4.5512592416e+00   0.09962208   0.06819538  -6.17  0.000803134    1.020    0.020
         5 -11.4098    139.3236    248.5318   4.7735454875e+01   5.5114364613e+00    0.2748177    0.1680208 -43.20  0.001301286    1.833    0.454
         6 -13.5752     20.9275    196.7159   7.1120812947e+01   2.9325688568e+01     0.709551    0.4812308  -6.54  0.003710128    1.998    0.499
         7 -13.8254     11.0797    191.3585   7.3493120840e+01   3.1464572401e+01    0.7204239    0.5740766  32.01  0.001336131    1.221    0.181
         8 -14.0646      3.3962    218.7722   7.6549027701e+01   2.5804209420e+01      1.32444    0.4196904 -79.35  0.003322311    3.175    0.685
         9 -13.5522      4.4438    201.0579   7.5671208945e+01   2.9702056759e+01    0.7446524    0.5957927  88.91  0.004632715    1.239    0.193
        10 -13.9285     20.4928    215.7090   7.2254002475e+01   2.5009968552e+01     1.045021    0.4313069  55.44  0.003621214    2.167    0.539
        11 -12.8064     13.0988    216.1075   7.4097283888e+01   2.5578275930e+01    0.4110664    0.3406854  54.51  0.001834935    1.031    0.030
        12 -11.8570     13.9286    210.3225   7.3639336786e+01   2.6795519385e+01    0.2810456    0.2290526  69.18 0.0002530626    1.121    0.108
        13 -14.7046     15.4356    229.0083   7.4068387843e+01   2.2607402355e+01     1.675898    0.7071885  74.96  0.007963931    2.532    0.605
        14 -14.3978      4.6761    247.4814   7.7100045933e+01   1.9827685817e+01     1.183446    0.4951597  29.50  0.006438973    1.848    0.459
        15 -13.8024     10.8800    239.6634   7.5502923625e+01   2.0832124629e+01    0.6128995     0.479672 -38.47  0.003084913    1.783    0.439
        16 -13.8132      7.0388    234.0178   7.6184592550e+01   2.2295490822e+01     0.553202    0.4700222 -16.95  0.002554153    1.597    0.374
        17  -9.4612     54.3286    249.3134   6.6232357559e+01   1.4816529260e+01    0.1127351   0.08693918 -11.44 0.0007043603    1.671    0.402
        18  -9.9753     49.4917    249.5686   6.7327147545e+01   1.5265584035e+01    0.1202099   0.09477994  37.11 7.947084e-05    1.022    0.022
        19 -12.1095     29.8795    247.0655   7.1561059516e+01   1.7667233051e+01    0.3437173    0.2341745  61.07  0.002195493    1.344    0.256
        20 -11.7202     67.8301    246.7512   6.3025414604e+01   1.3861018035e+01    0.3436798    0.2220394  41.85  0.002001267    1.287    0.223
        21 -10.0134     59.6522    247.7274   6.4933978903e+01   1.4554466326e+01    0.1140783   0.08631615  -4.14 0.0002450583    1.626    0.385
        22 -11.5741     36.0933    246.7237   7.0158417231e+01   1.7136880456e+01    0.3235414    0.1669278  48.24  0.001559875    1.581    0.368
        23 -12.1867     32.4907    240.3167   7.0642300227e+01   1.8730435509e+01    0.3170451    0.1993256  56.19 0.0008232468    1.403    0.287
        24 -13.0017     35.5686    230.6612   6.9401489982e+01   2.0378027793e+01    0.6077422    0.2486408 -72.00  0.002905541    2.674    0.626
        25 -10.6253     99.9166    246.2543   5.5837349238e+01   1.0367525961e+01    0.2021562    0.1251826  -1.16  0.001080625    2.050    0.512
        26 -10.4200    246.3390    245.2143   2.8565441410e+01  -4.5928020934e+00     0.120044   0.07327683 -32.11 0.0002167503    1.556    0.358
        27 -10.5898    204.8061    243.8272   3.4889085298e+01  -7.2842057977e-01    0.1344213    0.1142357   3.29  0.001073813    1.343    0.255
        28 -10.5739    142.9572    242.9695   4.6327987143e+01   5.9662684623e+00    0.1719574     0.136117  50.32  0.001071936    1.677    0.404
        29  -9.9916    186.5412    241.9388   3.7816738906e+01   1.3515185752e+00    0.1607783   0.07423358 -22.01 0.0008088764    2.590    0.614
        30 -11.0185    116.9173    241.3385   5.1613213452e+01   9.2468642769e+00    0.1844608    0.1694779  71.83  0.001300686    1.413    0.292
        31 -10.8932     37.9904    241.9666   6.9475994391e+01   1.7870088321e+01    0.1829413    0.1457358  37.79 0.0004742289    1.053    0.051
        32  -9.7172    178.7090    247.3089   3.9955340735e+01   1.4275235271e+00   0.09570951   0.08195198  33.91 0.0002328444    1.581    0.368
        33 -10.8004    101.7678    238.4717   5.4637724060e+01   1.1526439382e+01    0.1882825    0.1685926 -54.52 0.0004904545    1.344    0.256
        34 -10.2448    137.8612    236.2626   4.6549752073e+01   7.6326261152e+00    0.1958544    0.1170465  55.65 0.0009569358    2.865    0.651
        35 -10.2975    166.3095    234.6283   4.0600513057e+01   4.5953880025e+00    0.1054619    0.0897704  52.34 0.0007033687    1.771    0.435
        36 -10.3956    158.4825    233.4948   4.1982247368e+01   5.6640146326e+00    0.1189713   0.09669717   6.74 0.0002242054    1.013    0.013
        37 -11.0121     72.2579    232.7691   6.0865497432e+01   1.6028190412e+01    0.2483767    0.1670667  14.95 0.0009610661    1.511    0.338
        38 -10.5409     73.3268    229.6349   6.0335050233e+01   1.6523813040e+01    0.2144279    0.1541424  81.20 0.0009156383    1.693    0.409
        39 -11.6717    152.3411    229.8809   4.2729869624e+01   6.9563435113e+00     0.289925    0.1992756  30.49  0.001809339    1.350    0.259
        40 -11.3167     61.3004    231.1445   6.3318739491e+01   1.7579367629e+01    0.2463896    0.1475168  34.48 0.0006002237    1.356    0.262
        41 -10.8101    194.3750    229.5852   3.4689592509e+01   2.2389458869e+00    0.2050522    0.1203467 -33.56 0.0007106375    1.586    0.370
        42 -12.5454    138.2676    228.2752   4.5442130254e+01   8.9177553973e+00     0.226733    0.2025881 -16.55 0.0003747983    1.168    0.144
        43 -12.7020    114.9583    226.0112   5.0265098911e+01   1.2195684794e+01    0.6158526    0.2932471 -53.47  0.001386818    2.352    0.575
        44 -10.9140    119.9872    227.0458   4.9263767718e+01   1.1383367758e+01    0.2160246    0.1549464  26.76  0.001297434    1.193    0.162
        45 -11.5668     30.4511    227.1962   7.0426016156e+01   2.1599162778e+01    0.3121917     0.170066  64.33  0.001643042    1.802    0.445
        46 -10.9002    155.3948    225.7882   4.1549021883e+01   7.2537880475e+00    0.2104316    0.1170192 -51.80    0.0011347    2.172    0.540
        47 -12.4706    147.4587    224.9140   4.3059270501e+01   8.3612269584e+00    0.2663038    0.2146303 -29.32 0.0004348709    1.270    0.213
        48 -10.1564     80.2364    225.9771   5.8347018632e+01   1.6444026656e+01    0.1477847    0.1095259 -68.78 0.0004282882    1.583    0.368
        49 -10.6759     91.9816    225.0192   5.5460992428e+01   1.5220113112e+01    0.1914049    0.1687145  31.75 0.0005102019    1.040    0.038
        50 -12.7403    173.0102    221.2972   3.7425084842e+01   5.8667938923e+00    0.4092396    0.3592876 -58.10  0.001425157    1.661    0.398
        51 -12.3131    159.5667    222.1501   4.0193876114e+01   7.3411042432e+00    0.3968744    0.2013935  42.48  0.001990643    2.346    0.574
        52 -12.4736     48.9953    221.2284   6.5532821112e+01   2.0971951162e+01    0.3251754     0.260715 -54.78  0.002019674    1.477    0.323
        53 -12.9051    124.7739    221.5501   4.7501761088e+01   1.1780334399e+01    0.4475486     0.314202  14.94  0.001956139    1.337    0.252
        54 -11.5079    120.1663    214.1513   4.7571096689e+01   1.3752264040e+01    0.3062049    0.1620213  37.97    0.0012066    1.742    0.426
        55 -11.5494     81.8685    221.8648   5.7544487232e+01   1.7075048488e+01    0.1857012    0.1345825  49.11 0.0005811799    1.331    0.249
        56 -10.1915     67.2485    220.9515   6.1016335010e+01   1.8992597625e+01    0.1459417    0.1113957 -77.12 0.0004097259    1.498    0.333
        57 -11.0279    121.5291    217.4704   4.7699179943e+01   1.2948487639e+01    0.2025676    0.1982593  72.98 0.0008705414    1.243    0.195
        58 -11.2689     76.9849    219.6751   5.8509915041e+01   1.8109982626e+01    0.1907102    0.1463231  34.89 0.0006648038    1.114    0.102
        59 -11.7886    140.0573    207.5980   4.2178689491e+01   1.2347732763e+01    0.2870239    0.2165909 -73.39  0.001255264    1.973    0.493
        60 -12.6183    144.9879    216.4809   4.2401810220e+01   1.0112195779e+01     0.421546    0.2801785  49.09  0.001700082    1.930    0.482
        61 -10.7993    193.9838    216.9579   3.2889253316e+01   4.0962584537e+00    0.1414307    0.1111399 -11.50  0.000381276    1.046    0.044
        62 -10.5541     63.4824    216.4804   6.1544022423e+01   2.0372121944e+01    0.2291488    0.1230588  89.25  0.001043919    2.531    0.605
        63 -12.0176    108.8338    214.5318   5.0256578944e+01   1.5155384790e+01    0.3423041    0.2768928  -3.12    0.0020534    1.305    0.233
        64 -11.8317     85.4047    214.8219   5.5937452721e+01   1.8084875573e+01    0.4816952    0.2196234  42.79  0.002176914    2.011    0.503
        65 -12.5455    127.4906    214.5900   4.5966401776e+01   1.2713112625e+01    0.3300685    0.2730996  78.40  0.001977526    1.717    0.418
        66 -11.0307     29.1197    215.7027   7.0104988241e+01   2.4201575278e+01      0.24503    0.1808409 -28.28  0.001401349    1.848    0.459
        67 -11.5426    156.6056    213.5654   3.9547461540e+01   9.1359041548e+00    0.2432736    0.2128848  75.43 0.0005450225    1.772    0.436
        68 -11.2103    115.1339    213.8022   4.8687728201e+01   1.4477141819e+01    0.1917412     0.161453  41.20 0.0004312036    1.200    0.167
        69 -11.2928     40.4418    212.2225   6.7021385411e+01   2.3838344720e+01    0.2794364    0.2197093   8.43  0.001041179    1.448    0.309
        70 -10.1684    247.4619    212.5854   2.3673949521e+01  -8.4245902588e-01    0.1047263   0.07431795 -14.35 8.055224e-05    1.014    0.014
        71 -11.5989     33.6496    223.5211   6.9445960626e+01   2.2063903667e+01     0.226055    0.1518772 -74.92  0.001325466    1.641    0.390
        72 -11.3869     73.3050    211.9393   5.8642428957e+01   2.0182570592e+01    0.3015048    0.2307037  10.39 0.0007261162    1.403    0.287
        73 -10.5139     72.6990    208.6924   5.8461175713e+01   2.0958742350e+01    0.1822323    0.1624226  15.59 0.0004594819    1.153    0.133
        74 -10.0831     33.4976    212.4824   6.8805456770e+01   2.4486989822e+01    0.1292084    0.1109815  47.72 0.0001184952    1.032    0.031
        75 -11.2223     91.9086    217.1516   5.4612397676e+01   1.6794388409e+01     0.199687    0.1573059  47.29 0.0003789322    1.240    0.194
        76 -11.0480     96.9629    208.6066   5.2371146832e+01   1.7898984616e+01    0.3472491    0.1945053 -65.75  0.001676202    2.138    0.532
        77 -12.2584     25.4973    209.1878   7.0644708225e+01   2.6004937422e+01    0.2735292    0.2341617  80.70 0.0004629995    1.172    0.147
        78 -11.7955    161.5699    208.1462   3.7714505506e+01   9.4233283815e+00    0.2980863    0.2493884  62.41  0.001839808    1.808    0.447
        79 -12.2300    180.1906    207.3776   3.3940891538e+01   7.1983141633e+00    0.2270861    0.1888729   7.48 0.0001909841    1.095    0.087
        80 -11.9804     34.4922    207.5143   6.8223510316e+01   2.5507833250e+01    0.2615952    0.1617976  23.46  0.001172072    1.556    0.357
        81 -11.9161     38.4980    206.4420   6.7107554244e+01   2.5343691487e+01    0.2473489    0.2046156   0.70  0.001475452    1.440    0.306
        82 -11.0390    103.5031    205.9708   5.0435751977e+01   1.7580414534e+01    0.1858568    0.1344035 -59.01 0.0008745789    1.552    0.356
        83 -11.2298     47.0281    206.2830   6.4870320806e+01   2.4473998045e+01     0.195475     0.159205  40.16 0.0009052543    1.072    0.067
        84 -11.2761     20.8981    204.3887   7.1561720295e+01   2.7530417742e+01    0.2428037    0.1781625 -72.66  0.001103481    1.462    0.316
        85 -11.2404     16.4654    204.3172   7.2707493140e+01   2.7944151252e+01    0.3363568    0.1426116  62.42  0.001315215    2.286    0.563
        86 -10.5441    150.4956    203.4997   3.9302278278e+01   1.1695221134e+01     0.205235    0.1214813 -45.36  0.001023532    1.742    0.426
        87 -11.9563    146.1415    201.8506   3.9982774285e+01   1.2584149672e+01    0.3375463    0.3120492  77.05  0.001503081    1.457    0.314
        88 -12.9114     91.5455    198.2794   5.2428207977e+01   2.0817512611e+01    0.9011405    0.3178396 -52.82  0.003055254    2.923    0.658
        89 -12.9668     84.4065    198.7191   5.4322020248e+01   2.1669005838e+01    0.6319855    0.4474774 -69.79  0.003373688    1.593    0.372
        90 -11.8867    135.4244    198.1907   4.1792355825e+01   1.4753619171e+01    0.4462339    0.2851439 -78.64  0.001953287    3.069    0.674
        91 -10.3209    138.4873    196.5308   4.0843798073e+01   1.4643896758e+01    0.1328964    0.1179913   4.17 0.0001738071    1.025    0.024
        92 -13.1588    122.8303    197.4591   4.4595648582e+01   1.6665541160e+01    0.5208884    0.3713787 -34.03  0.002831178    1.507    0.336
        93 -10.8295    102.4096    198.8366   4.9756415439e+01   1.9222305707e+01     0.180625    0.1238955 -43.89 0.0005298118    1.588    0.370
        94 -10.6085     53.6619    199.0253   6.2483416180e+01   2.5400518004e+01    0.1875317    0.1685336  80.31  0.001139448    1.137    0.121
        95 -11.0922    176.7894    198.5986   3.3184387202e+01   9.0624759403e+00     0.167146    0.1088119  38.35 0.0009482612    1.688    0.408
        96 -11.7280     36.7652    196.9424   6.6862323433e+01   2.7733342869e+01    0.2883803    0.1536847  56.45 0.0009951066    1.802    0.445
        97 -12.2021    192.3973    193.6828   2.9461302452e+01   7.8599133787e+00    0.3254675    0.2538732  39.36  0.001360085    1.574    0.365
        98 -10.9593    172.9612    195.9514   3.3494601050e+01   1.0011541262e+01    0.1686095    0.1571979  84.27 0.0004882999    1.590    0.371
        99 -10.4786     52.5718    192.5202   6.2161608975e+01   2.7056978727e+01    0.2269905    0.1955794  65.91 7.800443e-05    1.111    0.100
       100 -10.7084     50.2847    190.3488   6.2584215998e+01   2.7839748688e+01    0.1940642    0.1871346  33.35 0.0004510034    1.119    0.106
       101 -10.3477    160.6652    192.7042   3.5435883009e+01   1.2251209344e+01     0.133761   0.09160155  -7.25 0.0006103489    1.646    0.392
       102 -11.9081    133.3473    191.3317   4.1192256772e+01   1.6393320135e+01    0.3541748    0.2461968  -9.70  0.001325025    1.744    0.427
       103 -12.0002    110.5620    188.5329   4.6240195015e+01   2.0279716675e+01      0.30246    0.2060902 -60.19   0.00138644    1.629    0.386
       104 -10.1062    214.6686    202.3306   2.7061224128e+01   3.8897349083e+00   0.09684418   0.09150639 -56.97 0.0007051965    1.720    0.419
       105 -10.8453    153.4482    188.5266   3.6258485660e+01   1.4036344993e+01    0.1319267    0.1166877  -4.57 6.111268e-05    1.021    0.021
       106 -12.0469     20.2898    188.1972   7.0783624254e+01   3.1438327582e+01    0.2899064    0.1533389  34.09  0.001415109    1.646    0.393
       107 -10.5657    226.4393    186.5447   2.2604566550e+01   4.8190666921e+00     0.114573   0.08816682 -19.09 5.724031e-05    1.005    0.005
       108 -11.4865    163.6262    183.5567   3.3272317766e+01   1.3492312401e+01    0.3819586    0.2424168 -64.98  0.001791862    2.575    0.612
       109 -11.9245    128.1123    185.7317   4.1515578367e+01   1.8293270238e+01    0.2493354    0.2200481  -3.42  0.001469535    1.117    0.105
       110 -12.5051      8.8885    184.0368   7.3735977410e+01   3.3429124098e+01    0.3878118     0.223277 -35.94  0.001823264    2.441    0.590
       111 -12.5907      2.0146    175.6681   7.5294982856e+01   3.6034585539e+01    0.6934879    0.1830025 -87.32  0.002310258    3.851    0.740
       112 -10.3212     33.6600    185.2986   6.6813396871e+01   3.0870784480e+01    0.1516349    0.0853778  54.26 0.0006039963    1.664    0.399
       113 -10.4456    205.5492    183.6556   2.5461582823e+01   7.7752333692e+00    0.1522855    0.1031808 -42.15 0.0009252858    1.466    0.318
       114 -11.8161     94.7518    181.2672   4.9243473606e+01   2.4190716181e+01      0.47633    0.2516549 -55.99  0.001576796    1.965    0.491
       115 -12.4263     25.9137    183.2496   6.8866218694e+01   3.2139997763e+01    0.4288726    0.2365846  28.11  0.002074026    1.688    0.407
       116 -11.8142    105.0588    183.0109   4.6799224371e+01   2.2292550885e+01    0.2110373    0.2059117  22.12 0.0005578894    1.042    0.040
       117 -11.9208     87.1300    179.7024   5.1076439276e+01   2.5646899939e+01    0.5286737   0.09687732  38.67  0.001476965    4.276    0.766
       118 -12.2124      2.5938    184.2981   7.5500412814e+01   3.3848552616e+01    0.3715155    0.2593462  75.89  0.001464652    1.281    0.219
       119 -10.3662    191.5137    178.0143   2.6916819391e+01   1.0534441902e+01    0.1853558    0.1102608 -40.43  0.000586886    1.542    0.351
       120 -12.0395    136.7238    176.5048   3.7931029119e+01   1.8886962559e+01    0.3959569    0.1972516 -52.89  0.001502661    2.134    0.531
       121 -12.0542    130.4778    176.0354   3.9322712519e+01   1.9950923927e+01    0.3442352    0.2275035 -21.32  0.001387504    1.913    0.477
       122 -13.3161    127.1732    173.7960   3.9729797616e+01   2.0939583467e+01     0.715208    0.3633561 -37.85   0.00166128    2.242    0.554
       123 -10.8000     62.8745    177.0462   5.7562212345e+01   2.9571382800e+01    0.2286646    0.1693938 -21.02  0.001098503    1.746    0.427
       124  -9.8056     56.2690    177.7046   5.9557102836e+01   3.0232148001e+01    0.1453655   0.09793308  60.10            0    1.516    0.340
       125 -12.2017    106.8941    175.4019   4.5121220231e+01   2.3726365214e+01    0.2806945    0.2534121  39.83 0.0007797919    1.079    0.073
       126 -11.2644     31.4634    176.1482   6.6699302065e+01   3.3386757526e+01    0.2306258    0.1977924 -20.40  0.001308541    1.423    0.297
       127 -11.3344     35.7437    174.6224   6.5294704541e+01   3.3338453931e+01    0.2852753     0.176026 -50.11   0.00114182    1.830    0.453
       128 -11.8715     90.5291    174.5178   4.9378040211e+01   2.6380477248e+01    0.2690305    0.1973682  50.61 0.0006669072    1.384    0.277
       129 -12.5692     91.6668    170.5271   4.8446309179e+01   2.7160798470e+01    0.3700391    0.3326309 -85.44 0.0004802037    1.191    0.161
       130 -10.8842    164.6142    173.6485   3.1306156187e+01   1.5176675674e+01    0.2699953    0.2018415 -71.71  0.001400397    2.061    0.515
       131 -11.8976    143.6312    172.8376   3.5691871912e+01   1.8560079302e+01    0.3833164    0.2152274  49.79  0.001700171    2.211    0.548
       132 -12.4414     80.2907    173.0204   5.2021983740e+01   2.8215215174e+01    0.4323554    0.2718599  23.53  0.001993841    1.644    0.392
       133 -12.7297     20.4478    172.8049   6.9716136017e+01   3.5283450158e+01    0.3743888    0.2557833 -45.91  0.001926269    1.727    0.421
       134 -12.9217     17.2241    167.3506   7.0304872801e+01   3.6972741679e+01    0.4529988    0.2776183  43.07  0.002280586    1.472    0.321
       135 -12.3762    153.0947    170.3706   3.3139927909e+01   1.7571594891e+01    0.2493839    0.2288446 -54.57 0.0003508602    1.229    0.186
       136 -10.2492    208.6487    170.2965   2.2587126574e+01   9.4755421934e+00    0.1083359    0.0960523 -70.31 0.0005045891    1.686    0.407
       137 -10.7447    197.5466    170.0000   2.4404595942e+01   1.1034148022e+01     0.252011   0.06959916  38.57 0.0009400097    3.977    0.749
       138 -12.1306     29.0640    168.4519   6.6764950687e+01   3.5602598922e+01    0.3667729    0.2195748 -34.42  0.001638331    2.250    0.556
       139 -12.2843    120.7366    168.0618   4.0311707252e+01   2.3203776365e+01    0.3708237    0.1881596  34.00  0.001573709    1.923    0.480
       140 -11.9194    158.6474    171.2501   3.2110964318e+01   1.6539287975e+01    0.3257436    0.2414618   6.77 0.0008992246    1.500    0.333
       141 -11.8567    116.7007    177.8164   4.3003737543e+01   2.1692395065e+01    0.3257375    0.1657835  17.87  0.001236132    2.719    0.632
       142 -10.4639     99.2631    167.6450   4.5884809863e+01   2.6689640221e+01    0.1466448    0.1113799  72.97 0.0006981242    1.623    0.384
       143 -11.8760     82.4704    166.4697   5.0419229844e+01   2.9504318865e+01    0.2978621    0.1806049  62.64 0.0008984375    2.092    0.522
       144 -11.8230     80.1918    163.1691   5.0570508541e+01   3.0654801058e+01     0.213492     0.201147 -16.44 0.0002912047    1.158    0.137
       145 -10.5758    174.7048    166.6980   2.7997675051e+01   1.4931087103e+01    0.1327304   0.09472098 -10.92 0.0003284611    1.576    0.365
       146 -11.9350    170.1862    161.1156   2.7826834956e+01   1.6658716863e+01    0.3899682    0.1944722 -27.51  0.001589468    2.637    0.621
       147 -10.7418    168.6264    156.7860   2.7296031251e+01   1.7720769148e+01    0.2726713    0.1996373 -66.46  0.001045037    1.882    0.469
       148 -11.6101     14.1405    171.1342   7.1490296615e+01   3.6253921954e+01    0.1924736    0.1777877 -55.13 0.0004226308    1.240    0.194
       149 -11.9605    110.7326    165.0232   4.2351823175e+01   2.5491727238e+01     0.317302     0.217209  19.97 0.0007383848    1.618    0.382
       150 -11.1253      7.8031    163.5774   7.2955263884e+01   3.8708540206e+01    0.2038579    0.1294164  25.16  0.001039224    1.581    0.367
       151 -10.4108      1.7021    163.6779   7.4831238933e+01   3.9117961995e+01     0.173694    0.1385332 -14.20  0.000328387    1.564    0.361
       152 -12.1548      5.3103    160.5328   7.3553743408e+01   3.9685676934e+01    0.3841356    0.2450115 -36.78  0.001286037    1.971    0.493
       153 -11.7544     37.3224    160.8220   6.3456273525e+01   3.6757355509e+01    0.2395476    0.1789969  43.28 0.0004941697    1.251    0.201
       154 -11.6314     12.9946    159.9811   7.1107602496e+01   3.9251228180e+01    0.3738225    0.1904137 -54.02  0.000877145    2.111    0.526
       155 -10.2893     49.1687    160.5768   5.9680301501e+01   3.5478021657e+01    0.1899552    0.1407222   6.85  0.000351595    1.604    0.377
       156 -11.8769     25.3694    159.7590   6.7159070435e+01   3.8238315438e+01    0.2512893    0.2296417  25.57 0.0007771908    1.177    0.151
       157 -11.9072    111.5098    158.0413   4.0880095761e+01   2.6974069158e+01    0.3575367    0.2512492 -11.45 0.0009361234    1.986    0.497
       158 -12.0305    104.9715    157.9962   4.2639190416e+01   2.8059738274e+01    0.4433091    0.2597052  69.68  0.001587033    3.135    0.681
       159 -11.7392    132.3341    156.6130   3.5300167365e+01   2.3797436247e+01    0.2946948    0.2322873  51.43  0.001532644    1.393    0.282
       160 -11.7774    118.3907    157.1160   3.8897037361e+01   2.6039330887e+01     0.285546    0.1995061   2.65    0.0012755    1.968    0.492
       161 -11.2269    143.8506    152.8347   3.1831300020e+01   2.2637465187e+01    0.2103101    0.2031483 -39.19 0.0003010915    1.066    0.062
       162 -12.3500     43.1748    153.8447   6.0778856835e+01   3.7963148133e+01    0.5602058    0.2050023 -56.28   0.00147105    2.642    0.621
       163 -11.4066     20.7031    155.1181   6.8261463165e+01   3.9897761534e+01    0.2505988    0.2081877  15.00 0.0006848787    1.332    0.249
       164 -12.9581     74.8025    150.6852   5.0181446767e+01   3.4613225130e+01    0.5709568    0.2686188  38.71  0.002243147    2.000    0.500
       165 -12.0063     81.3420    153.3126   4.8620284289e+01   3.2957591609e+01    0.3021759    0.2335963 -38.35 0.0007745759    1.441    0.306
       166 -12.3516     84.1112    149.9684   4.7201475599e+01   3.3374498719e+01    0.4129491    0.2782796  11.74  0.001219694    1.899    0.473
       167 -10.7228     13.7115    154.0575   7.0455430045e+01   4.0766337551e+01    0.1989559    0.1646201  87.88 0.0004172794    1.114    0.102
       168 -11.6277      1.3107    152.3535   7.4372106201e+01   4.2112591748e+01    0.3921639    0.1349035 -85.98  0.001456711    2.758    0.637
       169 -12.7068      4.8665    149.8785   7.3069255629e+01   4.2535588020e+01    0.4352576    0.2873626 -52.44  0.001099095    1.633    0.388
       170 -11.3010    172.5137    151.9803   2.5571718290e+01   1.7993902201e+01    0.2087896    0.1230552 -42.61 0.0004800974    1.566    0.361
       171 -10.9929    141.4557    155.5523   3.2925757324e+01   2.2477115525e+01    0.2355703    0.2022772 -54.74 0.0007065627    1.220    0.180
       172 -11.3931    108.9345    149.1127   3.9872386853e+01   2.9496019186e+01    0.3310688    0.2468565 -57.07 0.0008049242    1.369    0.269
       173 -11.7498     27.9763    149.8115   6.5361303752e+01   4.0654410623e+01      0.34441    0.2108099 -20.40  0.001482838    2.316    0.568
       174 -11.9519     20.8263    149.0593   6.7690092014e+01   4.1515936645e+01     0.372438     0.279365  39.58  0.001799866    1.284    0.221
       175 -11.6120     96.0532    148.9601   4.3477288819e+01   3.1701705257e+01    0.2255002    0.2226182  46.75 0.0004520623    1.014    0.014
       176 -10.3405     91.2832    149.3541   4.4946497410e+01   3.2385120846e+01    0.1550776    0.1152568 -26.23 0.0002821602    1.662    0.398
       177 -10.8910    170.6635    145.3242   2.4582876538e+01   1.9554427058e+01    0.1334454     0.108757 -81.92 0.0007051139    1.717    0.418
       178 -10.7289    146.9699    145.0060   2.9515227805e+01   2.3723653931e+01    0.2120192    0.1977579 -30.92  0.001218855    1.020    0.020
       179 -12.6642    102.6930    142.3748   4.0277612411e+01   3.2181997805e+01    0.4555375     0.332708  76.49  0.000419025    1.806    0.446
       180 -12.4629     10.9600    142.0073   7.0460205463e+01   4.4225625427e+01    0.2752539    0.2478301  38.84  0.001000846    1.148    0.129
       181 -11.9948     53.6833    143.3595   5.5858277646e+01   3.9493606383e+01    0.4201306    0.2228536 -81.40  0.001469344    2.225    0.551
       182 -11.8272     50.5120    142.4432   5.6795987409e+01   4.0145416654e+01    0.4023534    0.2548989 -41.74  0.001776623    1.819    0.450
       183 -10.7583     47.4372    141.4981   5.7710138269e+01   4.0782642609e+01    0.2547017    0.2384475 -87.01 0.0007875711    1.038    0.037
       184 -10.2465     37.6082    143.1630   6.1324195553e+01   4.1468789286e+01    0.2057406    0.1250975 -59.03 0.0004304087    1.614    0.380
       185 -10.6828    164.7869    141.1173   2.4879329085e+01   2.1369890006e+01    0.1962867    0.1824468 -61.93 0.0009299373    1.181    0.154
       186 -12.3785     96.0176    138.6045   4.1456818719e+01   3.4257763916e+01    0.5112078    0.3156746  16.12  0.002032776    2.254    0.556
       187 -12.9844     69.0468    137.3124   4.9702821571e+01   3.8958514322e+01    0.6409495    0.3001575  46.95  0.001702031    2.243    0.554
       188 -12.0543     67.8471    130.3527   4.8810910051e+01   4.0977802049e+01    0.4844635    0.2696235  88.47  0.001589463    2.973    0.664
       189 -10.8805     41.0199    137.5194   5.9383195016e+01   4.2626652112e+01    0.3353716    0.1473195  65.63  0.001048615    3.559    0.719
       190 -10.9576     19.8914    137.8825   6.6951714192e+01   4.4642068303e+01    0.2175577    0.1872189 -44.12 0.0009596066    1.275    0.216
       191 -11.3158      1.6882    137.7451   7.3386418876e+01   4.6006572752e+01    0.2420291    0.1531072 -79.82 0.0005399262    1.436    0.304
       192 -11.0210    127.3861    134.5288   3.1941872219e+01   2.9546862388e+01    0.2845302     0.189702 -80.67  0.001145016    2.423    0.587
       193 -10.9446    123.3153    135.0296   3.3094611720e+01   3.0191489946e+01    0.2045639    0.1872071 -48.20 0.0002922006    1.074    0.069
       194 -12.6212     19.5394    131.9150   6.6465474751e+01   4.6313691226e+01    0.4427749    0.2641058  34.71 0.0004366641    1.637    0.389
       195 -12.4013     13.3667    134.5423   6.8978231094e+01   4.6085006270e+01    0.3552838    0.2171041 -81.06 0.0009154837    1.523    0.343
       196 -11.8919      9.6242    131.7662   7.0097562446e+01   4.7120037399e+01    0.2829512    0.1613262  82.84  0.001190096    1.728    0.421
       197 -10.9122      7.4801    135.0192   7.1140070261e+01   4.6376786245e+01    0.2105345     0.127989 -85.00 0.0004293391    1.519    0.342
       198 -10.2923    160.3617    132.7805   2.3990346299e+01   2.3791898979e+01    0.2024894    0.1231084 -35.33  0.000588915    1.649    0.393
       199 -10.7727     79.5243    132.4771   4.5338227736e+01   3.8580483380e+01    0.2290005    0.1524952  20.26 0.0007405357    1.768    0.434
       200 -12.4841     82.6924    131.1239   4.4040428074e+01   3.8405325141e+01    0.3720889    0.2825539  89.15  0.001338931    1.560    0.359
       201 -12.2525     50.9027    129.9579   5.4691949875e+01   4.3479846342e+01    0.3741292     0.266135  -8.08  0.001022307    1.874    0.466
       202 -12.8383     56.6345    126.6346   5.2046462363e+01   4.3607064243e+01    0.4026681    0.3726396 -10.74  0.001481946    1.209    0.173
       203 -11.2344    121.5062    128.1363   3.2020236678e+01   3.2096172400e+01    0.2806273    0.2321987  81.55 0.0004661014    1.445    0.308
       204 -10.4087     89.9856    130.0000   4.1496369138e+01   3.7446575506e+01    0.2500094   0.08735111  35.43 0.0006142805    2.866    0.651
       205 -11.5123    101.6288    128.2294   3.7579195949e+01   3.5802507976e+01     0.317946    0.2179462  27.38  0.001350516    1.634    0.388
       206 -11.1676     40.9833    127.9764   5.7997700614e+01   4.5247329699e+01    0.2420603    0.1735723 -31.64 0.0009119084    1.666    0.400
       207  -9.8459    130.3138    127.6869   2.9664197246e+01   3.0510326080e+01    0.1501625    0.1185929  87.42 0.0007032748    1.637    0.389
       208 -13.3904      9.5429    125.7238   6.9595015780e+01   4.8787631129e+01    0.5803041    0.2594855  53.53   0.00233312    2.321    0.569
       209 -11.4605     26.8976    125.8185   6.2990614320e+01   4.7338024577e+01    0.2246972    0.1958071 -43.51 0.0007316823    1.228    0.186
       210 -11.8127     49.2520    123.9359   5.4261000781e+01   4.5333898818e+01    0.2410387    0.2086746  37.90 0.0003723427    1.163    0.140
       211 -11.9440     22.9181    123.9696   6.4281896638e+01   4.8217547145e+01    0.2478353    0.2014359  50.23 0.0003723006    1.219    0.179
       212 -13.7188     14.7437    120.2204   6.7030564551e+01   4.9931768945e+01    0.5874993    0.3514927  56.80  0.002563837    1.722    0.419
       213 -11.1823    105.4410    121.1507   3.4835713099e+01   3.6792283569e+01     0.256444    0.2097006  63.78 0.0007072114    1.332    0.249
       214 -11.3379     27.6970    120.4263   6.1957150314e+01   4.8754112668e+01    0.3956196    0.1937331  32.71  0.001391731    1.978    0.495
       215 -12.8270     22.9652    118.5279   6.3569446345e+01   4.9721091501e+01    0.6251892    0.3218856  35.90  0.002680336    1.897    0.473
       216 -12.0271     95.8563    118.8398   3.7161383139e+01   3.9158252025e+01    0.4512572    0.2755785 -52.79   0.00192522    1.618    0.382
       217 -13.1817     81.7915    117.4767   4.1365363086e+01   4.2044797286e+01    0.5622321    0.4853072 -10.01 0.0005597956    1.380    0.276
       218  -9.8962    227.3358    119.3131   1.0086747103e+01   1.4820461007e+01    0.1185468   0.08655848  -9.59 0.0004620698    1.688    0.407
       219 -12.6605     71.6307    118.6180   4.5101224950e+01   4.3469241747e+01    0.4324005    0.2671733  55.35  0.001526047    1.844    0.458
       220 -10.4728     37.9143    119.4567   5.7814361362e+01   4.7945013944e+01     0.213629    0.1478992  24.55 0.0004429629    1.511    0.338
       221 -10.2141    121.8561    117.8313   2.9494287323e+01   3.4356151515e+01    0.1990655    0.1747999 -88.93 0.0002674004    1.256    0.204
       222 -11.0974    201.6739    114.1284   1.2570259338e+01   1.9798359272e+01    0.1864987    0.1698476 -70.26 0.0003563961    1.226    0.185
       223 -11.5345     73.9984    114.0393   4.3245560013e+01   4.4264800372e+01    0.2301601    0.2248192  78.81 0.0003401896    1.013    0.013
       224 -13.2277     62.0861    110.6713   4.6810582937e+01   4.7072503557e+01    0.7042804    0.3759845 -58.60  0.002683283    1.813    0.449
       225 -10.4912    165.4787    111.9322   1.8208416265e+01   2.6864863004e+01    0.2154953    0.1290005 -43.77 0.0004128652    1.525    0.344
       226 -13.3443      8.8234    110.4880   6.8369600587e+01   5.3039370508e+01    0.5822253    0.3081363  30.15  0.002639265    1.903    0.474
       227 -10.7809     19.7265    110.6234   6.3829291576e+01   5.2190112479e+01    0.2773332    0.1444264  11.88  0.001153086    2.218    0.549
       228 -12.3829      1.9321    108.2542   7.1033109117e+01   5.4060180568e+01    0.4617446    0.2474082 -62.54 0.0008742161    1.677    0.404
       229 -11.3903      1.4351    103.5263   7.0800889814e+01   5.5380700281e+01    0.2429909     0.179714 -69.39 5.237964e-05    1.221    0.181
       230  -9.9430    123.5934    109.4666   2.6954943191e+01   3.5860397898e+01    0.1505195    0.1436975 -56.82 0.0001226785    1.021    0.020
       231 -10.0281    139.5241    107.4881   2.2566763815e+01   3.2986459598e+01    0.1497715    0.1389834 -68.08 9.663227e-05    1.064    0.060
       232 -12.0575     66.0947    105.3544   4.4073819377e+01   4.7823452703e+01    0.4370137    0.2496675  57.06 0.0009349484    2.192    0.544
       233 -11.8210     12.5735    104.7975   6.6105967191e+01   5.4352372562e+01    0.3846909    0.3051637 -15.83  0.001992137    1.428    0.300
       234 -12.5386      8.1253    100.0659   6.7476454152e+01   5.5948548206e+01    0.6136941    0.3986695  25.18  0.001092746    1.618    0.382
       235 -12.2133      5.7093     95.0116   6.7957833165e+01   5.7473050381e+01    0.2887703    0.2543556 -64.86 0.0009036834    1.054    0.051
       236 -11.4504    167.0473    104.8260   1.6214087068e+01   2.7886698647e+01    0.2290164    0.1831554 -44.34 0.0003239627    1.137    0.121
       237  -9.5939    115.4567    105.4999   2.8090972093e+01   3.8417215343e+01    0.1531348    0.1466545 -75.40 4.010451e-05    1.019    0.018
       238 -11.0555    104.7944    102.4550   3.0312350790e+01   4.1301628277e+01    0.2617866    0.2131336 -52.38 0.0003983827    1.210    0.174
       239 -11.1318     79.1244    101.8516   3.8451667994e+01   4.6450985367e+01    0.2455746    0.2093094  71.35 0.0006951384    1.266    0.210
       240 -11.6239     55.9782    101.0831   4.6977784717e+01   5.0527507525e+01    0.2879578    0.2644078 -59.46 0.0004871086    1.068    0.064
       241 -11.1215     57.9713     97.5259   4.5315036102e+01   5.1148354685e+01     0.280246    0.2507904 -29.77 0.0007888551    1.203    0.169
       242 -11.5844     93.7012     98.3131   3.2598246271e+01   4.4509008826e+01    0.3623579    0.2378809  56.36  0.001192883    1.681    0.405
       243  -9.9423     32.5012     97.4972   5.6132173909e+01   5.4555836858e+01    0.1477282    0.1389135  83.89 0.0008099555    1.060    0.057
       244 -11.3399     98.5122     96.8162   3.0668619882e+01   4.3882576889e+01    0.2549385    0.2155923  46.93 0.0003273321    1.190    0.160
       245 -11.5376     26.4253     92.6793   5.7947839110e+01   5.6490700389e+01    0.3275943    0.2389612 -55.24  0.000620708    1.294    0.227
       246 -11.8470     79.0143     92.6949   3.6004591705e+01   4.8709522828e+01    0.2212598    0.2086722  42.15  0.001165132    1.076    0.071
       247 -10.2745     41.2139     91.6664   5.0995969092e+01   5.5073836602e+01    0.1945551    0.1413126  15.85 0.0004002254    1.528    0.346
       248 -11.5370     73.6674     89.9911   3.7190425167e+01   5.0361196488e+01    0.2827539    0.2623528  16.80 0.0007744129    1.164    0.141
       249 -11.3084     10.0288     82.2217   6.4036328057e+01   6.0655196939e+01      0.52544    0.2376769 -77.67  0.002079259    2.188    0.543
       250 -12.6559      3.2384     87.9649   6.8251590886e+01   5.9515833468e+01    0.5404149      0.27047 -88.04  0.002327641    2.042    0.510
       251 -12.4088      7.0166     86.9051   6.6261748745e+01   5.9590351282e+01    0.3563574    0.2977512 -18.35 0.0005541506    1.287    0.223
       252 -10.8863    125.1293     87.4287   2.0598193507e+01   4.0188691942e+01    0.3298753    0.1945684 -38.96  0.001066186    1.747    0.428
       253 -12.0921     54.6953     85.4105   4.3487230406e+01   5.4749807319e+01    0.5415698    0.4739423 -56.47  0.002855968    1.123    0.109
       254  -9.7489    135.0000     84.4189   1.7417450383e+01   3.8580467940e+01    0.3212725   0.08180793 -41.41 0.0009172708    3.795    0.737
       255 -10.3404    129.7390     85.3757   1.8899735593e+01   3.9571019467e+01    0.1885826    0.1407063  44.74 0.0003452856    1.436    0.304
       256 -11.9992     64.1516     81.9481   3.8536700752e+01   5.4019639628e+01    0.3691528    0.3096444 -29.71 0.0009842195    1.313    0.239
       257 -11.1378    189.9364     83.0504   7.2342664130e+00   2.7091638572e+01    0.1988242    0.1689998 -50.41 0.0003060114    1.009    0.009
       258 -11.7705      4.1500     79.8464   6.6684661286e+01   6.1638916493e+01     0.440404    0.1909781  45.07   0.00177904    2.593    0.614
       259 -11.3349     88.9595     78.7494   2.8359309524e+01   4.9924693432e+01     0.353327    0.2252235 -43.26 0.0008964209    1.609    0.378
       260 -10.2036    153.3030     79.6397   1.2326032469e+01   3.5380180415e+01    0.1537699    0.1040071 -68.60 0.0007037914    1.724    0.420
       261 -11.3968      8.9413     76.7319   6.3669310513e+01   6.2180395846e+01    0.2959598    0.1885121 -77.01 0.0005287437    1.516    0.340
       262 -10.7764     70.0538     76.6732   3.4539637823e+01   5.4181509567e+01    0.2119431    0.1941165  41.00 0.0003597173    1.093    0.085
       263 -10.6018    105.3092     73.2355   2.1539835835e+01   4.7498188040e+01    0.3052071    0.1713986 -62.06   0.00115698    2.377    0.579
       264  -9.9709     45.3337     73.6602   4.4298845881e+01   5.9089954651e+01    0.1546109    0.1130277  69.08 0.0007051479    1.750    0.429
       265 -11.4423     70.5331     70.3650   3.2266843053e+01   5.5511555896e+01    0.4685881    0.2834287 -28.28  0.001702724    2.343    0.573
       266 -11.1820      2.8147     72.3867   6.6253050144e+01   6.3672646933e+01    0.1931204    0.1228212 -12.13 0.0009170688    1.740    0.425
       267 -11.4351     54.3219     70.2978   3.9077581585e+01   5.8474845161e+01     0.323083    0.2384866 -18.59  0.001250327    1.725    0.420
       268 -12.4538     62.3933     68.1217   3.4818249316e+01   5.7552651493e+01    0.3250338    0.2984379  50.41  0.000456185    1.096    0.088
       269 -11.6770      7.9910     67.2776   6.2426892881e+01   6.4700085406e+01    0.1927808    0.1775596 -19.48 0.0009806444    1.105    0.095
       270 -11.5166     49.4253     65.6855   3.9798599835e+01   6.0353413232e+01    0.2802458    0.2463789 -19.20 0.0007558221    1.212    0.175
       271 -10.7107     46.8629     62.8578   4.0059911003e+01   6.1414810345e+01    0.2186096    0.2117393  51.88   0.00039141    1.075    0.070
       272 -11.8912     17.8471     60.8971   5.5185100930e+01   6.5548156625e+01     0.393497    0.2815085 -36.64  0.002072601    1.374    0.272
       273 -11.5278     12.5430     59.8386   5.8076114120e+01   6.6259139644e+01    0.2948446    0.2425836  34.01 0.0005274937    1.302    0.232
       274 -11.1933     34.4039     59.2093   4.5239107831e+01   6.4087210338e+01    0.2676436     0.128006 -53.04  0.000438343    1.986    0.496
       275 -12.1060     29.8892     55.2402   4.6409210845e+01   6.5598349624e+01     0.437658    0.2088521  46.22   0.00170017    2.537    0.606
       276 -10.5059     27.9464     60.4717   4.9230210630e+01   6.4598817824e+01    0.2108673    0.1371633  23.92 0.0007593451    1.572    0.364
       277 -10.7077     42.1744     59.1173   4.1092553294e+01   6.2997213661e+01    0.2277133    0.1910591 -18.80 0.0007466907    1.278    0.218
       278 -10.4387    153.0389     57.6641   6.2098570564e+00   3.9114677877e+01    0.1901195    0.1664463  82.84 0.0003432745    1.123    0.110
       279 -12.2026     23.6095     56.4754   5.0481108985e+01   6.6045657762e+01    0.3546185    0.3202367  49.59 0.0007907928    1.222    0.182
       280 -11.5534    110.4916     54.9029   1.4002409815e+01   4.9689630997e+01    0.2649439    0.2012691 -58.53 0.0005893526    1.360    0.265
       281 -10.0909    126.2741     54.6744   1.0289319587e+01   4.5936635738e+01    0.1496125     0.104985 -68.81  0.000280288    1.582    0.368
       282 -11.4429     37.5203     54.0727   4.1720493902e+01   6.4827641899e+01    0.2147103    0.1373255 -55.02  0.001026261    1.578    0.366
       283 -10.9157    121.6251     53.1892   1.0802452015e+01   4.7298901408e+01    0.2013446    0.1403461 -26.08  0.000587537    1.709    0.415
       284 -10.4449    143.6847     50.9644   5.8000775827e+00   4.2344479305e+01    0.1930067     0.167321 -55.64  0.000299933    1.090    0.083
       285 -10.8227    106.1302     51.0858   1.3764705664e+01   5.1377279700e+01    0.2076688    0.1938166  38.46 0.0002694212    1.182    0.154
       286 -11.1654    114.9391     49.7522   1.1141128656e+01   4.9472092579e+01    0.2839371    0.1926834   1.16  0.001168316    2.679    0.627
       287 -12.4726     30.6799     49.5881   4.3910042847e+01   6.6781968883e+01     0.380467    0.2635643 -15.72  0.001874062    1.736    0.424
       288 -11.3631     16.2977     49.5741   5.2807151333e+01   6.8421354036e+01    0.3154854    0.1929114 -47.00 0.0009538298    1.514    0.339
       289 -12.1716     98.2922     47.5748   1.4566844875e+01   5.3831999436e+01    0.5815334    0.3232016 -68.87  0.002078467    3.175    0.685
       290 -11.4807    128.9129     46.3598   7.0334348706e+00   4.6600165234e+01    0.3526343    0.2012406 -33.43  0.001176293    1.843    0.457
       291  -9.9880     43.7235     48.3493   3.6159773168e+01   6.5102206425e+01     0.137624    0.1123315  83.00 0.0007005989    1.637    0.389
       292 -13.0893     31.7284     39.6203   3.9199308124e+01   6.8771824481e+01    0.6230767    0.2578614  43.16  0.002469474    2.646    0.622
       293 -11.0351     80.5551     37.5679   1.5872881038e+01   5.9611378346e+01    0.3246066    0.1670813 -40.71  0.001401091    2.024    0.506
       294 -11.2529     42.5525     32.8649   2.9758786769e+01   6.8315748655e+01    0.2606242     0.171128 -56.21  0.001145023    1.875    0.467
       295 -12.0011     30.9624     31.9377   3.6072033095e+01   7.0408533510e+01    0.3025895    0.1878516  29.39  0.001469913    1.588    0.370
       296 -11.2828     89.7452     30.6980   1.0185959244e+01   5.8451599462e+01    0.2282361    0.1974841 -48.14 0.0005871448    1.213    0.175
       297 -11.6515     77.7107     30.5952   1.3730044261e+01   6.1322570230e+01    0.2802784     0.233728  69.41  0.000468519    1.189    0.159
       298 -10.6607     71.9308     30.8591   1.5806495536e+01   6.2612030939e+01    0.2103719    0.1769363  33.45 0.0002853643    1.231    0.188
       299 -10.2582      3.4699     30.0000   5.5349916238e+01   7.3925053493e+01     0.270812   0.06945153  17.16 0.0009343849    3.932    0.746
       300 -10.0728     61.5062     28.5128   1.8627129899e+01   6.5273517267e+01    0.1369362    0.1285523  48.83 6.404926e-05    1.030    0.030
       301 -11.0833     45.8224     26.2307   2.4603243872e+01   6.8840727462e+01    0.2185107    0.1526693 -88.64 0.0009536471    2.821    0.646
       302 -11.9764     85.3374     23.8252   8.4078050919e+00   6.0430027669e+01    0.2617359    0.2328111 -77.19 0.0003276909    1.169    0.145
       303 -10.0491      1.3687     25.2189   5.5279601720e+01   7.5107838992e+01    0.1605161    0.1171965 -73.79 0.0004859908    1.582    0.368
       304 -10.4749     19.4778     23.9496   3.9830208111e+01   7.3554022052e+01    0.1817812    0.1244403 -49.47 0.0007517952    1.518    0.341
       305 -11.4976     70.1286     21.3645   1.1871423640e+01   6.4347219299e+01    0.2418927    0.1981686 -38.45 0.0005975994    1.320    0.242
       306 -10.5874     81.5132     19.5166   7.4996783112e+00   6.1885463441e+01    0.1369392    0.1247983  67.81 1.487245e-05    1.012    0.011
       307 -10.7648    132.7132     17.0422   3.5660220010e+02   4.9447475067e+01    0.1780953    0.1645255 -64.27 0.0004602018    1.121    0.108
       308 -10.0755     65.6157     16.2675   1.0815554265e+01   6.6025219964e+01    0.1357009    0.1015822 -84.54 0.0006987881    1.697    0.411
       309  -9.9650     50.5929     13.4862   1.5127652878e+01   6.9701805849e+01    0.1306758    0.1178734  34.71 -8.200493e-05    1.029    0.028
       310 -10.0060    125.2734    249.3637   5.0727377520e+01   6.9610404448e+00    0.1176873   0.07965977 -11.42  0.000320986    1.662    0.398
