#   1 NUMBER                 Running object number                                     
#   2 MAG_AUTO               Kron-like elliptical aperture magnitude                    [mag]
#   3 X_IMAGE                Object position along x                                    [pixel]
#   4 Y_IMAGE                Object position along y                                    [pixel]
#   5 X_WORLD                Barycenter position along world x axis                     [deg]
#   6 Y_WORLD                Barycenter position along world y axis                     [deg]
#   7 A_WORLD                Profile RMS along major axis (world units)                 [deg]
#   8 B_WORLD                Profile RMS along minor axis (world units)                 [deg]
#   9 THETA_WORLD            Position angle (CCW/world-x)                               [deg]
#  10 FWHM_WORLD             FWHM assuming a gaussian core                              [deg]
#  11 ELONGATION             A_IMAGE/B_IMAGE                                           
#  12 ELLIPTICITY            1 - B_IMAGE/A_IMAGE                                       
         1 -12.9901     10.0176     49.5943   1.1722172950e+02   6.4772516650e+01     1.285631    0.3952852 -55.03  0.005996376    2.209    0.547
         2 -11.1130     18.3474     25.5578   1.0576432070e+02   6.8931410240e+01    0.4456519      0.27715 -10.59 0.0007129778    1.710    0.415
         3 -10.0825    222.1915     21.8766   5.1127494291e+01   2.6946603401e+01    0.1743961    0.1512845  44.95 0.0002450363    1.322    0.243
         4 -10.6142     10.9015     10.2689   1.0317354767e+02   7.2190168594e+01    0.3797611    0.1724171 -28.85  0.000368713    2.032    0.508
         5  -9.8199     14.9164      2.4644   9.7049644413e+01   7.3074297573e+01    0.2330258    0.1742111  16.63  0.001284733    1.431    0.301
         6 -11.4368     11.8714     18.4311   1.0620642676e+02   7.0717000647e+01    0.6070994    0.3093215  30.55  0.003537747    2.387    0.581
         7 -10.8765     15.6400     14.1909   1.0239158857e+02   7.1147368036e+01    0.2213106    0.1768855 -24.53  0.000285702    1.089    0.082
         8  -9.9786     16.5067     10.0316   9.9993278218e+01   7.1755096825e+01    0.2518829    0.1546066 -35.21 0.0006747815    1.281    0.220
         9 -10.5555     16.6310      5.8251   9.7842760284e+01   7.2404514496e+01    0.4622909    0.2234532  16.55  0.002558073    2.349    0.574
        10  -9.7873     22.7799     15.5926   9.9311276659e+01   7.0264174455e+01     0.222458    0.1507727 -33.71 0.0003185191    1.183    0.154
        11  -9.0795     23.9192     11.5167   9.6797643353e+01   7.0804713978e+01    0.1581319     0.125236 -10.87 0.0003538091    1.091    0.083
        12 -11.2069     33.0396     13.2899   9.3107661399e+01   6.9522705589e+01    0.6742226    0.3700615 -11.21  0.003474921    2.204    0.546
        13 -10.3250     31.5020      5.5425   8.9899260463e+01   7.0833584294e+01    0.2161852    0.1656239 -11.62 0.0001675404    1.009    0.009
        14  -8.2760     43.9580      5.0125   8.3759384912e+01   6.9234723248e+01    0.2855192    0.1764847  23.39 0.0009030392    1.560    0.359
        15 -11.3014     37.1821      6.2009   8.7499676432e+01   7.0020034205e+01    0.4171145    0.3533738  20.03  0.001847868    1.328    0.247
        16 -10.4645     35.6542      2.0879   8.5997354675e+01   7.0762420376e+01    0.2672061     0.209936  23.38  0.000394147    1.322    0.244
        17  -9.2337     50.5480     13.6161   8.5327435609e+01   6.7131438063e+01     0.209424     0.106199 -27.71 0.0007159591    1.808    0.447
        18 -11.5535      2.9854      7.2668   1.0629095073e+02   7.3266218296e+01    0.3782322    0.1796524 -32.13  0.001284049    1.708    0.414
        19 -10.3061     53.1973      4.8169   7.9730811654e+01   6.7844882807e+01    0.3685504     0.252563  33.81  0.002267503    1.401    0.286
        20  -9.0060     74.7168      5.1025   7.2042353769e+01   6.4007851267e+01    0.2556119    0.2099401 -80.77  0.001479973    2.042    0.510
        21  -9.4149     11.0156      5.8722   1.0100795826e+02   7.2894566266e+01    0.1693687    0.1224091 -24.11 0.0003568546    1.028    0.028
        22 -10.3366    222.6137      5.2310   4.6889948228e+01   2.8612851049e+01    0.1691001    0.1238217 -11.78 0.0006924346    1.666    0.400
        23  -8.3451     59.4941      3.4626   7.6552970506e+01   6.6952713092e+01    0.1263689    0.1014009   8.24 0.0001035181    1.017    0.017
        24  -9.2749     26.6392      1.8261   9.0346826297e+01   7.1926883512e+01    0.1742537    0.1253739  24.09 0.0008739814    1.445    0.308
        25  -8.3183     64.3291      5.2648   7.5690467439e+01   6.5910876209e+01    0.1297219   0.08146084  18.73 0.0002440236    1.573    0.364
        26  -8.5634     62.8147      1.3493   7.4223160307e+01   6.6597371760e+01    0.1653015   0.09763388  35.79            0    1.533    0.348
        27 -10.3360    219.8925    238.6328   9.9947359628e+01  -4.1826243440e+00    0.2159048    0.1599713 -14.49 0.0005645102    1.407    0.289
        28 -12.6654    194.3150    192.1064   9.6852655404e+01   6.2486406734e+00      1.56894    0.9319192  33.10  0.008040702    1.555    0.357
        29 -12.6195    208.3196    244.7815   1.0285099259e+02  -3.1900110052e+00    0.7760548    0.4718516  56.82  0.003463096    2.794    0.642
        30 -11.9713    204.6907    231.9758   1.0158180764e+02  -1.0921024473e+00    0.3461785    0.3009249  -7.10 0.0006333255    1.247    0.198
        31 -12.9331    190.0168    218.0143   1.0207416959e+02   3.1144659393e+00     1.558351    0.8356172 -33.62  0.007192367    2.175    0.540
        32 -12.4249    200.5977    197.8044   9.6682244141e+01   4.2783638093e+00     1.447448    0.6955709 -14.82  0.004220642    5.620    0.822
        33 -11.8169    206.1274    177.4853   9.1818158994e+01   6.4182306772e+00     2.404059     1.093254 -20.72  0.008328381    3.921    0.745
        34 -11.5192    219.6129    164.3004   8.6625136238e+01   6.0054010592e+00     1.536256    0.7137536 -15.61  0.004870622    4.547    0.780
        35 -13.3374    206.0386    204.9315   9.6923720523e+01   2.3148488418e+00     3.013695    0.9983087 -27.06  0.008585893    6.913    0.855
        36 -12.1052    216.3666    230.7027   9.9330377599e+01  -2.7205728260e+00      0.38918     0.318428 -11.06 0.0006845957    1.274    0.215
        37 -12.1206    210.6722    213.9386   9.7617990310e+01   3.0955513282e-01     1.300844    0.3569708 -39.36  0.005009589    4.097    0.756
        38 -13.1174    245.0452    241.3316   9.6155474150e+01  -8.0389261394e+00      1.18428    0.7041981 -17.55  0.007791235    1.696    0.410
        39 -11.9660    235.9272    226.9781   9.5372678527e+01  -5.1923946828e+00    0.3869681    0.3063696 -15.15  0.001073363    1.311    0.237
        40 -11.9913    230.2307    233.9762   9.7462864770e+01  -5.1608027494e+00    0.4333481    0.3066384 -38.24  0.002882507    1.869    0.465
        41 -12.0816    238.3304    217.7181   9.3417233213e+01  -4.4658357754e+00    0.4875216    0.3048647 -20.45  0.001114409    1.588    0.370
        42 -11.7175    233.4615    210.9373   9.3078437236e+01  -2.9028288983e+00    0.4265612    0.2683534  -5.48 0.0009319772    1.684    0.406
        43 -13.5372    244.0999    145.2063   7.8284160808e+01   4.4099308197e+00     2.499637     1.222241 -12.41  0.009108156    3.443    0.710
        44 -12.4086    235.6055    143.5716   7.9337822642e+01   6.2303269325e+00      1.53204    0.8167668  -3.30  0.005394013    3.732    0.732
        45 -12.5219    248.3000    120.5718   7.2105563963e+01   7.3210642072e+00     1.778357    0.3694758 -32.48  0.005123402    4.527    0.779
        46 -15.3205    247.8813     82.8166   6.3292011560e+01   1.3042413191e+01     10.96993     2.092515 -32.74   0.03153126    4.429    0.774
        47 -14.3751    241.3257    198.3852   8.9478654522e+01  -2.5382800789e+00     2.193384    0.9351923 -26.10   0.01027273    2.476    0.596
        48 -12.6177    248.7195    202.4221   8.8974628743e+01  -4.1782967033e+00    0.9275867    0.3962627 -15.12  0.003686017    3.718    0.731
        49  -9.1811    232.0252    250.6392   9.9706987824e+01  -7.2159256103e+00    0.1611207   0.08198767  34.81 0.0004273915    1.553    0.356
        50 -11.5564    233.6919    244.6595   9.8536810104e+01  -6.8221076020e+00    0.3127839    0.2043259  -1.71 0.0005885486    1.504    0.335
        51 -10.9883    224.8820    247.9417   1.0049701267e+02  -5.9360427386e+00     0.260585    0.1708284 -22.78 0.0006948267    1.675    0.403
        52 -11.4748    225.5267    240.5468   9.9279716849e+01  -5.2185335198e+00    0.3522113    0.2120945 -28.84  0.001954807    1.850    0.460
        53  -9.7849    201.6759    250.1546   1.0475734419e+02  -2.8363598512e+00    0.2629052    0.1656557  10.67   0.00126087    1.774    0.436
        54 -11.4346    166.7131    250.4857   1.1090711750e+02   2.3488001470e+00    0.2772617    0.1142722  38.60  0.000356002    1.899    0.474
        55 -10.6820    163.5645    244.9651   1.1077323420e+02   3.5649705692e+00    0.2197259    0.2049192 -25.45 0.0004846547    1.334    0.250
        56 -10.5366    152.1712    250.1423   1.1344178145e+02   4.5884386274e+00    0.4006805     0.144396  48.32 0.0008823943    2.585    0.613
        57 -10.6655    156.9767    245.9710   1.1208109637e+02   4.4347452498e+00    0.2273295    0.1986356   1.09 0.0004600692    1.357    0.263
        58 -11.5341    159.2597    235.8043   1.1037188240e+02   5.5185050375e+00    0.3105288    0.2420349  16.52   0.00205473    1.397    0.284
        59 -10.0112    158.3509    229.4589   1.0969228053e+02   6.5953296023e+00    0.2522058     0.208068   5.05   0.00077193    1.414    0.293
        60 -10.9503    163.3026    225.2626   1.0817876404e+02   6.4264224700e+00    0.3204635    0.2739061  63.54 0.0008953134    1.364    0.267
        61  -9.7968    165.7845    220.4230   1.0701051633e+02   6.7533287265e+00    0.2294972    0.1974763  -5.69 0.0003179219    1.319    0.242
        62 -10.2793    151.8521    244.6536   1.1284170961e+02   5.4016078795e+00    0.3727603    0.1935977  36.72  0.001825957    1.588    0.370
        63  -9.3424    154.9659    241.0649   1.1183425844e+02   5.4325903097e+00    0.1819838    0.1633759 -33.78 0.0004348582    1.388    0.280
        64 -11.9770    140.4871    246.4853   1.1510392648e+02   6.8644229899e+00    0.3430452    0.2661333  -0.26 0.0005175514    1.851    0.460
        65  -9.2162    101.6602    250.6583   1.2242622466e+02   1.1880739796e+01    0.1958269   0.08580384  38.63 0.0006187597    1.934    0.483
        66 -10.0450     87.7049    249.6454   1.2476419841e+02   1.3941803887e+01    0.2217058    0.1736984  35.15 0.0007439946    1.431    0.301
        67  -9.7840     72.7872    250.3857   1.2737771514e+02   1.5768954835e+01    0.2109355    0.1174122  37.18 0.0008672689    1.725    0.420
        68 -10.4981     61.5950    248.7291   1.2914935515e+02   1.7431570904e+01    0.2227448    0.1984683  34.93 0.0009201295    1.542    0.352
        69 -10.5539     47.2724    250.2999   1.3162116788e+02   1.8871225171e+01    0.2701832      0.12639  36.01  0.001019808    2.148    0.535
        70 -10.2575     16.6639    248.8480   1.3641935725e+02   2.2391813061e+01    0.2279273    0.1831469  27.18  0.001050775    1.918    0.479
        71  -8.8525      1.7130    250.4393   1.3875114853e+02   2.3565429401e+01    0.1108619   0.07970296  43.23 0.0009363252    1.543    0.352
        72 -11.4042    183.8453    237.1416   1.0607230845e+02   1.4774292670e+00    0.2785233    0.2124123 -18.08  0.000502473    1.541    0.351
        73  -9.2290    185.9913    231.6642   1.0489559872e+02   1.8725545901e+00    0.1841466    0.1494716   4.72 0.0005095532    1.275    0.216
        74 -10.4778    148.7119    238.3474   1.1263783290e+02   6.7949904480e+00    0.2210242    0.1943067  -2.04  0.000352981    1.390    0.280
        75 -10.1839    134.9613    238.9698   1.1523930558e+02   8.8178125863e+00    0.2013353     0.182123 -28.75 0.0005220645    1.429    0.300
        76 -10.3732    139.4734    234.9127   1.1392164502e+02   8.7447296782e+00    0.2348934    0.2106123 -23.47  0.000637635    1.420    0.296
        77 -10.0542    117.9807    238.7254   1.1832838152e+02   1.1409134084e+01    0.2314514    0.1829398 -46.82   0.00120515    1.645    0.392
        78 -10.4954     10.7282    239.4146   1.3695090660e+02   2.4550134999e+01    0.2918604    0.1560507  33.59  0.002006174    2.143    0.533
        79  -8.7346    101.4289    238.7538   1.2135175935e+02   1.3805448242e+01    0.1298315    0.1077482 -55.37 0.0005465636    1.542    0.351
        80  -9.4687     62.1812    239.0182   1.2836712188e+02   1.8980691804e+01    0.1630554    0.1433532  29.59 0.0005678692    1.579    0.367
        81  -9.2793    112.3712    237.7546   1.1925387350e+02   1.2389994164e+01    0.1840526    0.1624974  -0.01 0.0006644258    1.602    0.376
        82 -10.5774     91.0255    235.9227   1.2297405268e+02   1.5732393999e+01    0.2475024    0.2292127 -15.63  0.000536169    1.615    0.381
        83 -10.2517     77.8906    235.6655   1.2532600979e+02   1.7549332844e+01    0.2267679    0.1820751  65.25  0.000721816    1.057    0.054
        84  -9.8354     41.7425    236.6226   1.3172165037e+02   2.1803372885e+01    0.1851353    0.1725916  13.11 0.0008772663    1.749    0.428
        85  -9.6894      3.5893    235.6879   1.3792743494e+02   2.5856551007e+01      0.16834    0.1451696 -63.20  0.001009611    1.766    0.434
        86 -10.4596    170.9441    232.9512   1.0783376293e+02   4.0799946982e+00    0.2145463    0.1790071 -20.13 0.0004111533    1.417    0.294
        87 -10.5266    174.4248    227.5305   1.0642033992e+02   4.2945529807e+00    0.2416698    0.1977556   1.51 0.0005502205    1.351    0.260
        88  -9.8459    152.9112    233.1555   1.1120019342e+02   6.9076103795e+00    0.2122491    0.1781917 -47.56 0.0004059107    1.468    0.319
        89  -9.5807    152.6493    227.8744   1.1055053083e+02   7.7478555077e+00    0.2125704    0.1679407  18.95 0.0006235433    1.372    0.271
        90  -9.7906    155.3178    223.5702   1.0945607643e+02   7.9812075867e+00     0.240279    0.2020834 -17.02 0.0006027708    1.453    0.312
        91  -9.5454    108.3034    233.3288   1.1954118974e+02   1.3708631332e+01     0.204402    0.1797942   4.64 0.0007398771    1.598    0.374
        92  -8.8941     64.8579    234.1232   1.2753087412e+02   1.9490864923e+01    0.1341168    0.1230336  65.53 0.0005272851    1.315    0.239
        93  -9.7416    165.7492    232.3850   1.0871425775e+02   4.9858602123e+00    0.2095902     0.169739  24.62 0.0002618995    1.161    0.138
        94 -10.1416    123.3057    231.0461   1.1648516253e+02   1.1843513607e+01    0.2477502    0.2059983 -12.64 0.0007316718    1.745    0.427
        95 -10.3283     35.6267    230.8232   1.3241588323e+02   2.3497662623e+01    0.2957092    0.1978842 -46.70  0.001615701    2.536    0.606
        96 -10.5826    148.4364    220.9059   1.1040705596e+02   9.5200751231e+00    0.3065519    0.2249409 -31.24 0.0008693136    1.748    0.428
        97 -10.2811    145.3662    231.1940   1.1235655456e+02   8.3953439793e+00    0.2256324     0.202186  23.13  0.000551156    1.198    0.165
        98  -9.6976    143.8902    226.2679   1.1199804296e+02   9.3982814548e+00    0.2212232     0.204607  -3.92 0.0004370231    1.293    0.227
        99  -9.1246    150.8004    215.4322   1.0917895925e+02   1.0017580046e+01    0.2049368    0.1741027   3.92 0.0005448177    1.384    0.278
       100 -10.0756    154.6110    212.5150   1.0800743897e+02   9.8597614596e+00     0.264493    0.2162361  -8.93 0.0008171121    1.514    0.339
       101  -9.7731    133.7955    230.5690   1.1445405126e+02   1.0305538668e+01    0.2255929    0.1853342 -27.14 0.0006765341    1.633    0.388
       102 -10.3051    100.2916    230.6008   1.2075054699e+02   1.5328019368e+01    0.2185439    0.2099007 -44.61  0.000705504    1.401    0.286
       103  -9.9096     85.1962    231.4971   1.2363263877e+02   1.7287019694e+01     0.189436    0.1864032 -12.61  0.000719065    1.456    0.313
       104 -10.8890     54.9212    230.9045   1.2905514991e+02   2.1274324864e+01      0.27422     0.201408  28.91 0.0007988733    1.778    0.438
       105 -10.5338    113.2968    228.2400   1.1805460710e+02   1.3819871494e+01    0.2417796    0.2078522 -61.31 0.0004427938    1.391    0.281
       106  -9.5018     10.4115    231.3965   1.3665914091e+02   2.5964719524e+01    0.2054908   0.09313844  30.90   0.00123668    2.697    0.629
       107  -9.6174     44.8464    229.4260   1.3072919933e+02   2.2717283219e+01    0.1747766    0.1554124 -65.37 0.0007266728    1.550    0.355
       108  -8.7503    130.0215    228.9973   1.1497574025e+02   1.1143759353e+01    0.1456311    0.1203018  47.88 0.0004910902    1.010    0.010
       109  -9.8208     92.7194    227.9934   1.2190465872e+02   1.6853233767e+01    0.1929941    0.1810458  45.84 0.0005058138    1.293    0.226
       110  -9.7493     79.0344    228.3374   1.2448202966e+02   1.8670291974e+01    0.1834363    0.1724034  87.52 0.0005881121    1.309    0.236
       111  -9.0488     29.8262    228.8593   1.3329500524e+02   2.4469396449e+01    0.1450671    0.1257883  82.61 0.0007313415    1.315    0.240
       112  -9.1985    169.4956    228.0624   1.0741434573e+02   5.0117501358e+00    0.1534516    0.1212452 -35.34 0.0004274782    1.511    0.338
       113 -10.5476    180.7361    221.2810   1.0431416772e+02   4.1687600546e+00     0.253996    0.2255311 -21.04 0.0004844995    1.280    0.219
       114 -10.2036    179.5677    215.6427   1.0366317041e+02   5.1890901310e+00    0.2723227    0.2087608   4.44 0.0006474171    1.457    0.314
       115  -9.6384    170.8101    223.7151   1.0654096539e+02   5.4356529328e+00    0.2220107    0.1740308  -5.12 0.0005618492    1.523    0.343
       116 -10.3399    174.9468    221.2005   1.0538923599e+02   5.1298793069e+00    0.2525443    0.1964965   4.40 0.0004129108    1.449    0.310
       117  -9.3887    138.9546    227.2466   1.1306335122e+02   1.0026321947e+01    0.1908756    0.1596674  -0.01 0.0005218032    1.552    0.356
       118  -9.2982    106.9634    228.0678   1.1923309114e+02   1.4789232244e+01    0.2102727     0.172292   5.71 0.0004946182    1.818    0.450
       119  -9.5861    109.7661    224.0525   1.1825844082e+02   1.5061802465e+01    0.2350636    0.1434367  41.91  0.000685113    1.396    0.284
       120 -10.2755     67.9865    226.9859   1.2639780926e+02   2.0354209581e+01    0.2452707    0.1646784  36.88 0.0004734401    1.548    0.354
       121  -9.7779     19.8478    227.3211   1.3490532655e+02   2.5768474267e+01    0.1741159    0.1440839 -84.36 0.0007523037    1.377    0.274
       122  -9.6516      1.8346    227.1714   1.3787333079e+02   2.7499559514e+01     0.162988    0.1270584  67.82  0.001056913    1.196    0.164
       123 -11.0335    206.4524    223.4529   9.9936639918e+01  -2.7522761608e-01    0.2961192    0.2171537 -14.71 0.0006802729    1.455    0.313
       124  -9.6688    120.5291    224.8608   1.1628860954e+02   1.3292204269e+01    0.2068492    0.1947884 -23.77 0.0007521213    1.371    0.271
       125  -9.8313    129.3104    223.9258   1.1448906199e+02   1.2085702129e+01    0.2260959     0.205584   4.73  0.000733209    1.364    0.267
       126  -8.9619     89.4245    224.8193   1.2221165596e+02   1.7872594198e+01     0.140663     0.106377 -55.76 0.0005704296    1.627    0.385
       127  -9.7950      8.2377    225.1401   1.3674004566e+02   2.7276701326e+01    0.2613577     0.117566  40.20  0.001263098    1.992    0.498
       128  -9.3170    135.7002    223.0809   1.1315232860e+02   1.1216271284e+01    0.1930869    0.1647923 -22.01 0.0007005116    1.523    0.343
       129  -9.4667    104.2505    223.8786   1.1929532064e+02   1.5910378500e+01    0.1944011     0.159693  38.71 0.0006677992    1.241    0.194
       130 -10.4536     49.7233    222.3513   1.2936888117e+02   2.3433156245e+01    0.2105746    0.1908956  64.62 0.0004162192    1.311    0.237
       131  -9.8868     97.8168    222.0150   1.2032773825e+02   1.7176956579e+01    0.2083514    0.1925101 -52.39 0.0005308307    1.396    0.284
       132  -9.2063     82.6233    222.8498   1.2330601713e+02   1.9163714195e+01    0.1840986    0.1448337  38.70 0.0006525607    1.343    0.256
       133  -9.6710    114.8877    221.7020   1.1700254143e+02   1.4694414787e+01    0.1801483    0.1646367 -43.63  0.000629189    1.386    0.279
       134  -8.8989     92.4178    221.6995   1.2132935376e+02   1.8006723690e+01    0.1420345    0.1088382 -57.48 0.0007496336    1.562    0.360
       135  -9.3631     74.2508    222.1555   1.2481959881e+02   2.0412734494e+01    0.1785757    0.1402271  41.72 0.0004659812    1.315    0.240
       136 -10.0461     39.9746    221.0772   1.3103929750e+02   2.4781515317e+01    0.2272419     0.208117 -18.55  0.001209326    1.831    0.454
       137  -9.3904     28.7022    221.8630   1.3308635252e+02   2.5852914803e+01    0.1589735    0.1300775  52.11 0.0005600603    1.318    0.241
       138  -9.5032     15.6453    221.3680   1.3531685427e+02   2.7256213957e+01    0.1817378    0.1503973 -60.35  0.000844648    1.708    0.415
       139  -9.7152    140.7245    220.3903   1.1182817685e+02   1.0853142500e+01    0.2079645    0.1890733  -1.69 0.0006654782    1.321    0.243
       140  -8.7084    124.5997    221.1943   1.1505984713e+02   1.3281814352e+01    0.1479051    0.1154921 -42.66 0.0006219926    1.610    0.379
       141  -9.0454     68.1529    221.0924   1.2586971278e+02   2.1400457247e+01    0.1552276    0.1453431  65.35 0.0005631344    1.304    0.233
       142 -10.0419     58.7008    220.5982   1.2758907217e+02   2.2678532857e+01    0.3629442    0.1677702  41.17  0.002048314    1.882    0.469
       143 -10.2162     56.0083    216.5889   1.2776984674e+02   2.3752905002e+01    0.2262361    0.1392654 -82.99 0.0006124475    1.567    0.362
       144  -9.9179    109.1196    219.2644   1.1783833330e+02   1.5994652476e+01    0.1954736    0.1876376  36.83 0.0004887838    1.253    0.202
       145  -8.7120     88.3784    219.7987   1.2191032065e+02   1.8918997865e+01    0.1434641    0.1054198 -56.79 0.0004175453    1.626    0.385
       146 -10.1441    158.9187    217.8557   1.0795227832e+02   8.2847908449e+00    0.2474995    0.2029829   2.38 0.0005728632    1.436    0.303
       147  -8.9807    154.2472    218.7509   1.0898339615e+02   8.9137025948e+00    0.1632934    0.1354406  13.08  0.000712901    1.340    0.254
       148  -9.3536    128.8338    218.9716   1.1395602691e+02   1.2992912573e+01    0.1785285    0.1554642  21.96 0.0005571668    1.303    0.232
       149  -9.8229    104.0390    218.6655   1.1875933948e+02   1.6861193502e+01    0.1731221    0.1670333   7.39 0.0006671848    1.353    0.261
       150  -9.2001    135.9797    218.0416   1.1243837097e+02   1.2007747732e+01    0.1841966    0.1446089  10.13 0.0004971594    1.659    0.397
       151 -10.0480    119.7756    217.0975   1.1549424756e+02   1.4740912663e+01     0.199558    0.1951969  55.78 0.0007336821    1.197    0.165
       152  -8.6956     95.4276    217.7724   1.2033689500e+02   1.8283437771e+01    0.1450656    0.1108297 -55.21 0.0006647352    1.571    0.364
       153 -10.2329      7.9739    216.1676   1.3637491913e+02   2.8931755943e+01    0.2362142    0.1834775 -44.87   0.00139046    2.139    0.532
       154  -9.9585    165.6609    214.1173   1.0609304772e+02   7.7497704969e+00    0.2711844    0.2046297  10.96 0.0008881371    1.537    0.349
       155 -10.8617    170.9892    214.0961   1.0506157966e+02   6.8589775983e+00    0.3654048    0.2807522 -46.23    0.0012859    1.553    0.356
       156  -9.1405    167.5280    208.0034   1.0478211762e+02   8.4040932241e+00    0.2127409    0.1858808 -29.54 0.0005749663    1.296    0.229
       157  -9.7569    171.4894    206.1432   1.0370932964e+02   8.0227487896e+00    0.2227203    0.2062917   8.10 0.0008818025    1.122    0.109
       158  -9.5905    173.0657    202.3197   1.0277502679e+02   8.3639499265e+00    0.2526767    0.1871572 -32.23 0.0006383205    1.525    0.344
       159  -8.8653     77.0404    217.4617   1.2385753001e+02   2.0902872988e+01    0.1681651     0.100814  41.18 0.0003906819    1.515    0.340
       160  -8.9999     72.2138    216.7900   1.2471897382e+02   2.1668139146e+01    0.1407913    0.1351024  53.93 0.0005472886    1.348    0.258
       161  -8.9190     21.7684    216.8194   1.3401425593e+02   2.7492512466e+01    0.1514344   0.09949811 -43.10 0.0009432615    2.757    0.637
       162  -9.1647    124.0229    215.4991   1.1445629671e+02   1.4352842899e+01    0.1737853    0.1631919  80.30 0.0003930138    1.157    0.136
       163  -9.8010     83.1283    215.4499   1.2248650661e+02   2.0447433152e+01    0.2194866    0.1919921  -8.06 0.0007324189    1.773    0.436
       164  -9.9388     31.1297    214.4864   1.3220416856e+02   2.6969092873e+01    0.2365438    0.1596055 -65.77 0.0009572334    1.657    0.396
       165 -10.0980    143.5447    214.4403   1.1046169273e+02   1.1379300063e+01    0.2790651     0.201941  24.18 0.0007697191    1.513    0.339
       166  -9.3722    101.9639    214.3718   1.1867930617e+02   1.7944188631e+01    0.2336253    0.1815576 -25.00  0.001011015    2.042    0.510
       167  -8.8076     90.7639    215.4497   1.2099857260e+02   1.9376812821e+01    0.1550271    0.1069506  32.84 0.0004883306    1.578    0.366
       168  -8.6861    138.1682    213.8497   1.1144048699e+02   1.2360766394e+01    0.1615839    0.1423849  11.15  0.000552821    1.323    0.244
       169  -9.8048    131.8815    213.7212   1.1266796247e+02   1.3404757226e+01    0.2483376    0.1777703  39.22 0.0005719087    1.234    0.190
       170  -9.8247     63.1947    213.0685   1.2611270228e+02   2.3528753643e+01     0.204211     0.184589  31.47 0.0007743912    1.461    0.315
       171 -10.2824     51.4214    213.0604   1.2835144187e+02   2.4969231581e+01    0.1823543    0.1750086 -60.13 0.0008794135    1.486    0.327
       172  -9.7969     96.8970    212.4294   1.1946183575e+02   1.9048914651e+01    0.2015312    0.1726447 -58.77 0.0006550472    1.383    0.277
       173  -9.2403    117.4657    212.5129   1.1537815127e+02   1.5912948058e+01    0.1897207    0.1587493   8.50 0.0005090989    1.601    0.375
       174  -9.3145     41.0850    212.7698   1.3026364100e+02   2.6213741277e+01    0.1685968    0.1520237  27.46 0.0007196649    1.577    0.366
       175 -10.7706    176.8762    208.8016   1.0309105835e+02   6.6824069942e+00    0.3575002    0.2561346 -24.61 0.0006156045    1.641    0.391
       176 -10.0408    179.0305    202.4226   1.0162349600e+02   7.3106941121e+00    0.2567653    0.2178669  25.72 0.0004537867    1.041    0.039
       177  -8.7892     74.4621    212.4825   1.2388080013e+02   2.2179303209e+01    0.1179159   0.09708545  66.06 9.805951e-05    1.027    0.026
       178  -9.5721     17.7174    211.1734   1.3441726304e+02   2.8949600429e+01    0.2037245    0.1594265 -40.88  0.001192274    2.137    0.532
       179 -10.5457    161.2428    208.7717   1.0613695074e+02   9.3515937027e+00    0.2695376    0.2196396 -17.19 0.0005721112    1.462    0.316
       180  -9.3619    149.2198    210.3329   1.0874987046e+02   1.1124766359e+01    0.2192305    0.1854327  -0.38 0.0005904649    1.425    0.298
       181  -9.4658    146.1730    207.7833   1.0898162657e+02   1.2068166798e+01    0.2281061    0.2016025  -5.81 0.0005698965    1.343    0.255
       182 -10.1404    149.6877    205.0275   1.0786352065e+02   1.1945303262e+01    0.3938499    0.2543767 -47.73  0.002146336    1.776    0.437
       183  -9.3977    125.0192    211.0034   1.1367338354e+02   1.4985382035e+01    0.1899451    0.1680735  36.36 0.0005153598    1.153    0.133
       184  -9.3415    106.8757    210.3140   1.1722466747e+02   1.7948783169e+01    0.1886228    0.1687074 -20.32 0.0004814212    1.532    0.347
       185  -9.5062     25.2281    210.5320   1.3302801041e+02   2.8328509119e+01    0.1838753    0.1469754 -65.23 0.0008092884    1.549    0.355
       186  -8.9851    140.1458    209.8165   1.1048231562e+02   1.2725546776e+01     0.189262    0.1571903  60.40 0.0005810442    1.209    0.173
       187  -9.6413    111.1702    213.1682   1.1671296054e+02   1.6771400478e+01    0.1719637    0.1593467  27.15 0.0004889102    1.276    0.216
       188  -9.4097    134.8671    207.9368   1.1127544782e+02   1.3925743584e+01     0.218535     0.161226  33.45 0.0004982585    1.306    0.234
       189  -9.0570    131.4708    208.0731   1.1197929219e+02   1.4459933588e+01    0.2132766    0.1231786 -48.44 0.0009874585    2.007    0.502
       190  -9.1240     93.6346    208.9368   1.1971944310e+02   2.0177841817e+01    0.1651699    0.1447804  86.19 0.0007158471    1.141    0.124
       191  -9.0638     78.5845    208.8446   1.2271102550e+02   2.2316208989e+01    0.1861422    0.1515772  40.04 0.0006669489    1.313    0.238
       192  -9.0452     72.8491    207.7548   1.2373837807e+02   2.3297134804e+01    0.1640459    0.1500832  56.96 0.0005611159    1.233    0.189
       193  -9.7285    183.4058    205.8097   1.0134209142e+02   6.0277296605e+00    0.2625501    0.1941835  -1.35  0.000716562    1.587    0.370
       194 -10.4649    186.8767    201.4104   9.9930595677e+01   6.1069769751e+00    0.2709946    0.2328461 -12.24 0.0004953692    1.218    0.179
       195 -10.7940    124.7121    205.9006   1.1304980310e+02   1.5950945512e+01     0.338937    0.1989594  37.50 0.0004486363    1.573    0.364
       196 -10.2371    120.2086    206.1313   1.1399760997e+02   1.6634184018e+01     0.223117    0.2018639  24.49 0.0004416485    1.260    0.207
       197  -8.6720     66.1538    206.8051   1.2497013200e+02   2.4355179817e+01    0.1423286    0.1357894 -84.88 0.0004285804    1.324    0.245
       198 -10.0910     46.6582    206.4041   1.2873261917e+02   2.6807752117e+01      0.19931    0.1841799  50.40 0.0004277951    1.369    0.269
       199  -9.8800    156.4998    205.2678   1.0653506173e+02   1.0741091615e+01     0.235123    0.2085768  30.98 0.0006471534    1.057    0.054
       200  -8.8353     32.0205    206.5294   1.3151790072e+02   2.8396658781e+01    0.1501986   0.09755484  41.36 0.0005968818    1.535    0.349
       201 -10.3415    146.1479    191.3049   1.0642967193e+02   1.4988807103e+01    0.3345932     0.245943  19.58  0.001441229    1.606    0.377
       202 -10.3206    139.7972    203.3605   1.0961549948e+02   1.3911707692e+01    0.3228025    0.2730638 -58.23   0.00108212    1.349    0.259
       203  -9.6474    139.1722    199.1682   1.0911585927e+02   1.4767312871e+01    0.2456299    0.1779343  54.65 0.0008666276    1.344    0.256
       204 -10.0672    140.5313    195.5325   1.0827585448e+02   1.5194526614e+01    0.2515208    0.2193513  13.61 0.0006446748    1.295    0.228
       205  -9.7469    109.5176    203.5094   1.1584056843e+02   1.8810106016e+01    0.3129978    0.2089319 -32.20  0.001626878    2.365    0.577
       206  -9.1363    104.1222    205.1917   1.1715659782e+02   1.9323545821e+01    0.1737999    0.1641646  28.80 0.0005134081    1.271    0.213
       207  -9.8990     86.4553    204.8695   1.2071200244e+02   2.1986064667e+01    0.2197394    0.1835896  46.19 0.0006241201    1.193    0.162
       208  -9.9844    169.8561    196.0733   1.0236524523e+02   9.9542593459e+00    0.3600631    0.2276348  36.15  0.001075564    1.425    0.298
       209  -8.8185    159.7163    200.6820   1.0516505779e+02   1.0959437870e+01    0.2000072    0.1696558  18.79 0.0004480588    1.204    0.169
       210 -10.8237    165.1719    200.1328   1.0398117782e+02   1.0100120284e+01    0.4039401     0.289755 -13.77 0.0005665045    1.855    0.461
       211  -9.0954    162.2917    197.3551   1.0410279954e+02   1.1074246631e+01    0.2390148    0.1847051 -16.86 0.0006853255    1.584    0.369
       212  -8.6398     76.5188    204.4358   1.2267174279e+02   2.3448812139e+01    0.1184337    0.1021707  66.20 0.0001369055    1.076    0.071
       213  -9.8524      6.7156    203.9141   1.3599862073e+02   3.1351624149e+01    0.2142253    0.1560116  14.80  0.001088378    2.260    0.558
       214  -8.5299     92.5333    202.9743   1.1925925737e+02   2.1477298204e+01    0.1522637    0.1011412 -37.87   0.00062482    2.285    0.562
       215  -9.7545     55.9531    202.1642   1.2656296586e+02   2.6541053282e+01    0.1971618    0.1540949 -72.97 0.0005245274    1.323    0.244
       216 -10.6725    131.9514    199.8541   1.1070902912e+02   1.5861368301e+01     0.321939    0.2607212   5.24  0.001876224    1.628    0.386
       217 -10.1470    114.1929    206.9288   1.1532529590e+02   1.7441224510e+01    0.3097148    0.1982042  24.98   0.00162104    1.990    0.497
       218  -9.0942     21.0960    202.1915   1.3327593627e+02   3.0349213378e+01    0.1500401      0.12845  88.24  0.000570462    1.254    0.203
       219 -10.3497     98.2476    200.2990   1.1776190312e+02   2.1149277756e+01    0.2454959    0.2088293  89.74  0.001007685    1.168    0.144
       220  -9.9953     69.4108    200.3143   1.2368751938e+02   2.5208250935e+01    0.1977896    0.1904843  36.25 0.0003141943    1.364    0.267
       221  -8.6809     33.8281    201.3774   1.3081555149e+02   2.9214224794e+01    0.1353717    0.1033405  30.51 0.0004677096    1.664    0.399
       222  -9.1486    155.1378    200.1769   1.0600851875e+02   1.1841647071e+01     0.196531    0.1642307  16.03 0.0004717251    1.285    0.222
       223  -9.0958    156.9911    196.3222   1.0500914711e+02   1.2184912857e+01    0.2496296    0.1787502 -38.27 0.0004164213    1.590    0.371
       224  -8.9280    157.4769    192.4897   1.0427432811e+02   1.2770112168e+01    0.1825425    0.1189553  31.62 0.0009326131    1.507    0.336
       225  -9.0861     41.4946    199.5073   1.2918901473e+02   2.8752787240e+01    0.1679547    0.1463318 -45.73 0.0005948447    1.647    0.393
       226  -9.1844     80.5244    199.0408   1.2127931108e+02   2.3960669502e+01    0.1991937    0.1665001  28.63 0.0005463102    1.461    0.315
       227  -8.8235     75.0224    198.9332   1.2239916530e+02   2.4736127415e+01    0.1621293    0.1474691 -24.31 0.0004306745    1.583    0.368
       228  -9.3448     49.2313    198.4694   1.2757546349e+02   2.8078585422e+01    0.1881808    0.1677613 -62.44 0.0007090627    1.423    0.297
       229  -9.7900    149.3285    196.7471   1.0664748282e+02   1.3451612001e+01    0.2626033     0.218232   7.87 0.0006863269    1.410    0.291
       230  -9.6815    152.1495    192.3487   1.0535104306e+02   1.3740630743e+01    0.2636201    0.2364216 -74.36  0.001618667    1.306    0.234
       231  -9.0755    104.1002    198.1833   1.1627698450e+02   2.0669194965e+01    0.1773822    0.1653591  39.00  0.000424882    1.207    0.171
       232 -10.0981    176.2999    195.7062   1.0101712924e+02   8.8721255383e+00    0.2610321    0.2227881 -31.81 0.0008800312    1.287    0.223
       233 -10.0993    124.8996    196.5672   1.1169743844e+02   1.7646713303e+01    0.2437446    0.1820454  29.97 0.0005520419    1.419    0.295
       234  -9.3610     88.9790    196.0903   1.1918249568e+02   2.3346601258e+01    0.2044718    0.1789267 -52.71 0.0007754957    1.379    0.275
       235  -8.1681     27.3726    197.2996   1.3176811727e+02   3.0692368862e+01   0.09959743   0.08243553 -47.12 0.0007029398    1.747    0.427
       236  -9.7858    144.4659    200.7593   1.0827142630e+02   1.3579745093e+01    0.2360439    0.1910814  25.69  0.000605205    1.276    0.216
       237  -8.8386     60.9559    195.9871   1.2498171719e+02   2.7160412273e+01    0.1622705    0.1427461 -37.05 0.0005119711    1.628    0.386
       238  -8.7244     16.8145    195.1457   1.3364615697e+02   3.2148269551e+01    0.1350127    0.1125523 -78.37 0.0004131566    1.324    0.244
       239 -10.2950    132.8140    193.3703   1.0955738567e+02   1.6917267726e+01    0.2645279    0.2587706 -53.56  0.000787447    1.151    0.131
       240 -11.1166    112.2735    192.9317   1.1384594798e+02   2.0406374652e+01    0.4041187     0.282086 -80.48  0.001337871    1.696    0.411
       241  -8.8060    167.6671    192.0965   1.0212533313e+02   1.1017463760e+01    0.1799064    0.1200977 -29.98 0.0006340371    1.772    0.436
       242 -10.2207    162.0217    190.5777   1.0301566235e+02   1.2293632291e+01    0.2687452    0.2349701 -20.91  0.000530631    1.265    0.210
       243  -8.8991    124.8178    192.2393   1.1107772391e+02   1.8482558966e+01    0.1753285    0.1498557  19.30   0.00058544    1.359    0.264
       244  -9.3936    105.0199    191.8993   1.1525065081e+02   2.1760162444e+01    0.1866738    0.1582399  -7.44 0.0006025486    1.679    0.404
       245  -8.5847     26.5236    192.0008   1.3156200702e+02   3.1843263504e+01    0.1435584   0.07581346 -54.90 0.0006401453    2.311    0.567
       246  -8.3410    128.3627    191.2664   1.1017765588e+02   1.8071647557e+01    0.1287531    0.1018863  11.31 0.0006990135    1.646    0.392
       247  -8.2353     49.6635    191.6494   1.2688595277e+02   2.9411990604e+01    0.1106128   0.08806337 -42.40 0.0002647688    1.788    0.441
       248 -10.2059    179.1253    187.9987   9.9090438788e+01   9.6422784547e+00     0.316041    0.2310268 -20.92 0.0006895901    1.571    0.363
       249 -10.0100    172.6672    189.2081   1.0060676560e+02   1.0609488463e+01    0.2512369    0.2177419  -7.28  0.000558013    1.232    0.188
       250  -9.7917    139.9033    189.7989   1.0749945019e+02   1.6362257393e+01    0.1992629    0.1732571  21.41 0.0004710034    1.235    0.190
       251  -9.3574     64.0240    190.0416   1.2374742879e+02   2.7987425507e+01    0.1791474    0.1572515  77.35 0.0004295069    1.093    0.085
       252 -10.3717    134.2814    187.5237   1.0833023023e+02   1.7771067576e+01    0.3331484    0.2518375 -72.73  0.001713925    1.587    0.370
       253  -9.9924    134.5526    183.2262   1.0757433480e+02   1.8550119928e+01    0.2142219    0.1965115 -33.97 0.0005562484    1.232    0.188
       254  -8.8075     89.8286    188.4075   1.1805451521e+02   2.4774029662e+01    0.1620251    0.1182863  29.32 0.0003272726    1.594    0.373
       255  -8.3242     77.6700    188.7160   1.2070546438e+02   2.6446273825e+01    0.1118254   0.09946296 -19.90 0.0006675057    1.611    0.379
       256  -9.7718    157.0355    186.5284   1.0334899758e+02   1.3912705628e+01    0.3083387    0.2124036  15.24 0.0008970192    1.894    0.472
       257  -8.4496      1.6393    187.7147   1.3609555982e+02   3.4960557084e+01   0.09543732   0.07424472 -56.41 0.0007020953    1.682    0.405
       258  -9.7827    150.8988    185.6229   1.0448101467e+02   1.5185915224e+01    0.2075513    0.1865108 -17.93 0.0004601625    1.249    0.199
       259  -9.4645    146.5911    184.5446   1.0520989019e+02   1.6160521855e+01    0.3331141    0.1345818 -54.79   0.00127858    3.084    0.676
       260  -9.9160    128.5030    185.7560   1.0929165897e+02   1.9109684989e+01    0.2450979    0.2026521  26.64 0.0006179936    1.308    0.236
       261  -9.3038    120.8140    186.3731   1.1105208255e+02   2.0293612535e+01    0.1844901    0.1193185  32.83 0.0005381303    1.616    0.381
       262  -8.8649     20.8113    186.2187   1.3228456725e+02   3.3577927911e+01    0.1384262    0.1185917 -73.03 0.0005006993    1.346    0.257
       263 -10.0710    166.7513    184.1807   1.0091649462e+02   1.2560326810e+01     0.386483    0.2629064  -5.63 0.0006410546    2.199    0.545
       264  -9.4712    173.5711    183.8451   9.9456327573e+01   1.1365019643e+01    0.2329715    0.2017092  37.29 0.0006304398    1.072    0.068
       265  -9.9276    176.8895    179.3776   9.7949218536e+01   1.1524608605e+01     0.281527     0.212096 -19.23 0.0007137773    1.512    0.339
       266  -9.8068    173.1745    179.6252   9.8756526562e+01   1.2174492465e+01    0.4681004    0.2051613  29.37  0.001668714    3.173    0.685
       267  -9.1830    189.9001    183.8361   9.6182284218e+01   8.3667003340e+00    0.2068378    0.1647153   9.13  0.000587494    1.285    0.222
       268  -9.6787    140.5291    182.9304   1.0623436741e+02   1.7549802487e+01    0.3576545    0.2377612 -22.27  0.001672171    2.305    0.566
       269  -9.2616     36.1197    193.1548   1.2975021089e+02   3.0618262132e+01    0.1604428    0.1395659 -78.74 0.0005297089    1.287    0.223
       270  -8.4925    104.0127    183.9675   1.1436564116e+02   2.3516682739e+01     0.155418    0.1389055  66.33 0.0003360053    1.004    0.004
       271  -8.1587     80.6708    184.7041   1.1957674630e+02   2.6859738581e+01    0.1155278    0.1006889 -21.97 0.0004343891    1.634    0.388
       272  -8.3866     34.4921    184.5271   1.2938626119e+02   3.2566707326e+01     0.114813   0.09445074  84.37 5.755254e-05    1.079    0.074
       273  -8.5452     27.2931    184.3456   1.3084476903e+02   3.3337240994e+01     0.106649   0.07928611 -54.69 0.0004113369    1.664    0.399
       274 -10.0519    183.6640    181.2234   9.6927931508e+01   9.9487384068e+00    0.2848284    0.2276333 -21.88  0.000722787    1.330    0.248
       275  -8.9087     95.4823    182.5148   1.1604141627e+02   2.5141329106e+01    0.2140086    0.1121134 -49.25  0.000883348    2.179    0.541
       276  -9.7124    197.4137    181.1734   9.4208160119e+01   7.4241769665e+00    0.2604077    0.1896878   5.33 0.0007051552    1.535    0.349
       277  -9.5546    154.9088    181.9156   1.0298746883e+02   1.5141526058e+01    0.2315033    0.1988596 -10.41 0.0004782827    1.335    0.251
       278  -9.6470    160.0742    179.6658   1.0149230923e+02   1.4604077907e+01    0.2103963    0.1756306  13.24  0.000470691    1.299    0.230
       279  -8.4826     67.5867    182.7261   1.2219076489e+02   2.9054308527e+01     0.114994   0.09738043 -19.16 0.0004604601    1.785    0.440
       280  -8.1944     47.2823    181.3058   1.2641737854e+02   3.1844694765e+01    0.1080795   0.08790847 -50.32 0.0002320183    1.559    0.358
       281  -8.3237     77.4796    180.5535   1.1976435924e+02   2.8179265788e+01    0.1253784    0.1117409  76.04 8.734306e-05    1.052    0.050
       282  -8.6844     55.3185    180.3439   1.2459371086e+02   3.1103949454e+01    0.1155049   0.09099923 -42.14 0.0007049229    1.721    0.419
       283 -10.3347    190.7410    177.0629   9.4719854043e+01   9.3310229245e+00    0.3337326    0.2869184  -6.50 0.0008914593    1.162    0.139
       284  -9.8688    192.9604    171.3945   9.3160612290e+01   9.8642101590e+00    0.2731854    0.1965536 -30.52 0.0005757093    1.436    0.304
       285  -8.8185    165.3659    179.1965   1.0029544831e+02   1.3706509200e+01    0.1850556    0.1559446  23.22 0.0002992691    1.169    0.144
       286  -9.5199    145.7191    178.8727   1.0441616296e+02   1.7390837051e+01    0.2270967    0.1797353  29.91 0.0005116164    1.273    0.214
       287  -8.1736     83.2971    179.2819   1.1831184358e+02   2.7626110009e+01    0.1149809    0.1017241 -24.73 0.0002212159    1.541    0.351
       288 -10.4965    134.4228    177.2223   1.0659524453e+02   1.9747637705e+01    0.2627133    0.2361809  75.88 0.0006993322    1.163    0.141
       289  -8.2572     42.6704    178.6590   1.2715155201e+02   3.2925230300e+01    0.1133813   0.08663381 -45.57 0.0007051492    1.742    0.426
       290  -9.4015    169.4739    176.4083   9.8917327379e+01   1.3439621781e+01     0.272403    0.2142293  -3.55 0.0007745611    1.507    0.336
       291 -10.7844    175.6897    172.1425   9.6806424690e+01   1.3025420130e+01    0.5422832    0.4668726   0.83  0.003098582    1.213    0.176
       292  -9.7989    178.9325    166.6980   9.5053835192e+01   1.3375062642e+01     0.327157    0.2643668  -3.03  0.001043416    1.371    0.271
       293  -9.3764    101.1678    176.0500   1.1384683967e+02   2.5608931862e+01    0.2417764    0.1661669  73.19  0.001253319    1.663    0.399
       294 -10.0059    197.7907    175.0709   9.2944315713e+01   8.3450269367e+00    0.2817608     0.213941 -11.54 0.0007558604    1.407    0.289
       295  -9.2740    201.0902    170.1698   9.1321706925e+01   8.5305135153e+00     0.270332    0.1923106  -4.09 0.0005189441    1.635    0.388
       296 -10.3268    205.2017    167.3283   8.9949639144e+01   8.2197587135e+00    0.2872501    0.2342315  -2.55 0.0005093271    1.213    0.176
       297 -10.0392    150.2381    175.5690   1.0284859542e+02   1.7192359423e+01    0.2778487    0.2285138  36.78 0.0008731828    1.143    0.125
       298 -10.1035    182.5770    174.2189   9.5801394457e+01   1.1350406141e+01    0.3321156    0.2466145 -22.93 0.0006233461    1.474    0.322
       299  -9.6546    187.6647    171.1512   9.4168259203e+01   1.0912805601e+01    0.2573816    0.2022781  15.92 0.0004812598    1.307    0.235
       300  -8.8157    183.9804    169.4787   9.4578411347e+01   1.1907895621e+01    0.2055094    0.1815165 -22.13 0.0004056362    1.156    0.135
       301  -9.3671    139.9636    175.0203   1.0499245225e+02   1.9184003490e+01    0.2086889    0.1941673  25.69  0.000480096    1.107    0.097
       302  -8.2271    112.3874    175.2668   1.1119147396e+02   2.3950458630e+01    0.1313436    0.1067693   3.84 0.0006984991    1.703    0.413
       303 -10.0418    161.5125    173.7333   1.0008840228e+02   1.5429393558e+01    0.3083339    0.2137209  25.99 0.0005447071    1.566    0.361
       304  -9.8140    155.5817    173.5631   1.0132607127e+02   1.6577513284e+01    0.3217702    0.2611502 -46.35  0.001786046    1.326    0.246
       305  -9.2593    158.1809    169.0822   9.9916749881e+01   1.6935647817e+01    0.2481295    0.1950781  -9.83  0.000586417    1.570    0.363
       306  -9.4041    129.0378    172.7284   1.0702023951e+02   2.1605140455e+01    0.2130824    0.1989344 -54.42 0.0004546988    1.144    0.126
       307  -8.5467     24.3308    172.2880   1.3051371847e+02   3.6165584242e+01    0.1056482   0.08222882 -51.00 0.0003317009    1.621    0.383
       308  -8.6060    107.5214    171.4811   1.1169834574e+02   2.5548002389e+01    0.1324791    0.1264286  64.37 0.0001038457    1.075    0.069
       309  -8.8657     89.9904    171.0243   1.1566033927e+02   2.8408176775e+01    0.1909009    0.1540958 -37.52  0.001032923    1.566    0.361
       310  -9.2086    143.2588    169.7531   1.0331315051e+02   1.9616518623e+01    0.1864188    0.1616499   5.02 0.0005031289    1.334    0.251
       311  -8.5253    119.4939    170.0035   1.0871526452e+02   2.3838477417e+01     0.174762    0.1172399 -28.27 0.0004677821    2.189    0.543
       312  -9.2387    197.3086    168.5658   9.1732322393e+01   9.5128235582e+00    0.2199974    0.1556646 -11.38 0.0005637719    1.629    0.386
       313 -10.0453    199.6730    162.9258   9.0105456989e+01   1.0005911348e+01     0.319111    0.2226949 -28.38 0.0008917169    1.458    0.314
       314  -9.4069    134.9320    167.8754   1.0483277047e+02   2.1527100766e+01    0.2085607    0.1873591   7.47 0.0004542125    1.270    0.213
       315  -9.5063    169.9034    166.6928   9.6940914830e+01   1.5128086259e+01    0.2215651    0.1915987 -12.38 0.0005018715    1.234    0.190
       316  -9.2856    150.6150    166.8983   1.0114931580e+02   1.8796467041e+01    0.2424539    0.1862426  30.08 0.0005755413    1.327    0.246
       317  -8.4745     85.2689    167.3501   1.1622399678e+02   2.9910450767e+01    0.1263446    0.1006821 -35.71  0.000290767    1.623    0.384
       318  -8.9263    127.9314    166.0288   1.0609074439e+02   2.3174900186e+01    0.2063977    0.1699742  -4.95  0.000477796    1.594    0.373
       319 -10.2154    192.0710    163.1726   9.1658692292e+01   1.1439028414e+01    0.3254156    0.2270565 -18.60 0.0008048209    1.619    0.382
       320  -9.5650    184.9801    163.6890   9.3197508372e+01   1.2732793216e+01    0.2454514    0.1978461   7.90  0.000645223    1.326    0.246
       321  -8.8770    159.7215    163.2451   9.8438774286e+01   1.7754938667e+01    0.1932369    0.1604263  12.02 0.0005470766    1.338    0.252
       322  -9.3154    120.3392    163.1824   1.0733553347e+02   2.5122224755e+01    0.2244462    0.1836875  33.10 0.0004704752    1.277    0.217
       323  -8.3815    111.3173    163.2962   1.0946705224e+02   2.6658505624e+01     0.132504    0.1107753  -9.74 0.0002193345    1.609    0.378
       324  -8.1522     80.6701    163.6632   1.1677252423e+02   3.1391535273e+01    0.1290037    0.1024534 -29.50 0.0007052036    1.732    0.423
       325  -8.9214    172.7157    162.4186   9.5482889397e+01   1.5368918123e+01    0.1930177    0.1295708  32.20 0.0004908646    1.502    0.334
       326 -10.6051    205.6302    159.4321   8.8216188722e+01   9.4382057428e+00    0.3703661    0.2691737   5.44  0.001851135    1.561    0.359
       327  -8.6218    146.8395    161.3734   1.0091926036e+02   2.0608764813e+01    0.1966551     0.129558  31.76 0.0003569761    1.609    0.379
       328  -9.1598    163.6759    160.1008   9.6943979273e+01   1.7584287970e+01    0.1937958    0.1787963 -13.98 0.0004430209    1.121    0.108
       329  -8.7878    153.0834    160.0316   9.9257186156e+01   1.9671052032e+01    0.2153032    0.1700897   1.30 0.0004470643    1.591    0.372
       330  -8.5522    183.9850    158.6979   9.2359565808e+01   1.3819044554e+01    0.1944239    0.1736165  22.49  0.000386883    1.056    0.053
       331  -9.8987    176.8966    157.0391   9.3482183969e+01   1.5534256842e+01    0.2698141    0.2038637 -29.59 0.0006181313    1.388    0.279
       332  -8.8863    168.2404    157.7358   9.5469459970e+01   1.7131115196e+01    0.1949991    0.1635468   5.26 0.0006406292    1.313    0.238
       333  -8.9141    158.8652    158.2042   9.7607134057e+01   1.8898032081e+01    0.1951481    0.1657909   6.89 0.0004049159    1.312    0.238
       334  -8.5340    191.6967    157.6875   9.0578546811e+01   1.2467708182e+01    0.1460296    0.1071793   6.05 0.0007020192    1.613    0.380
       335  -9.9122    216.2914    154.5006   8.5152336690e+01   8.1885873958e+00     0.275821     0.217866 -14.58 0.0004867842    1.225    0.184
       336 -10.0905    197.2832    154.8846   8.8864372238e+01   1.1846852078e+01    0.2883424      0.22428 -11.55 0.0005451057    1.363    0.266
       337  -8.7309    128.2212    155.7756   1.0411519046e+02   2.5268654801e+01    0.1848825    0.1653542  -9.95 0.0003838611    1.315    0.239
       338  -8.4052     99.3436    156.2494   1.1112246203e+02   3.0184000254e+01    0.1288913    0.1096264  -4.25 0.0003458666    1.575    0.365
       339 -10.5509    223.6600    144.7955   8.1683249639e+01   8.3252566758e+00     0.330478    0.2409653  -2.74 0.0005496381    1.490    0.329
       340  -9.1763    221.9206    154.9259   8.4216708832e+01   7.0459908054e+00    0.2266273    0.1783254 -22.56 0.0004367188    1.199    0.166
       341 -10.0768    221.4939    150.8843   8.3415994705e+01   7.7697629791e+00    0.2861588     0.207542  -4.36 0.0005944653    1.486    0.327
       342  -9.5018    187.8418    153.7265   9.0506952238e+01   1.3939884811e+01    0.3371539    0.1971045 -30.98  0.001115167    1.835    0.455
       343  -8.8690    211.6931    154.0910   8.5918818767e+01   9.1447892204e+00    0.1958963    0.1619714 -18.25 0.0004248845    1.156    0.135
       344  -9.2044    211.8978    150.2176   8.5033781112e+01   9.7440017667e+00    0.2484709    0.1663166  -3.61 0.0003906822    1.869    0.465
       345 -10.1293    215.1312    147.0442   8.3730461403e+01   9.6308892780e+00    0.2821764    0.2279264  10.40 0.0005022748    1.244    0.196
       346  -9.4200    206.0957    152.5659   8.6647199075e+01   1.0495869300e+01    0.2505139    0.1814789 -11.37 0.0005949029    1.515    0.340
       347  -8.4822    192.5354    152.9332   8.9385593088e+01   1.3136846465e+01    0.2039992    0.1386971 -33.89 0.0006429561    1.484    0.326
       348  -8.2131    171.3450    152.2985   9.3649868423e+01   1.7539271182e+01    0.1508578     0.112316   8.66 0.0004158876    1.675    0.403
       349  -9.8097    144.9975    151.1268   9.9270787778e+01   2.3043060097e+01    0.2456807    0.2298686 -16.52 0.0004084906    1.136    0.120
       350  -9.2512    143.3313    147.2257   9.8838745697e+01   2.4175428748e+01    0.2737358    0.1989637 -44.21 0.0007319805    1.413    0.293
       351  -8.6535    157.4199    150.8210   9.6385319332e+01   2.0637862629e+01    0.1998289    0.1384542 -30.92  0.000589393    1.620    0.383
       352  -8.6372    151.9115    151.1393   9.7693012540e+01   2.1675131508e+01    0.1951722    0.1685204   9.81 0.0003877722    1.288    0.223
       353  -8.4964    107.8563    151.3687   1.0818078154e+02   2.9849050935e+01    0.1867149    0.1328305  29.19 0.0004470516    1.604    0.377
       354  -8.8350    202.6525    149.8735   8.6718715697e+01   1.1637995056e+01    0.2208985    0.1620575 -12.31 0.0007557648    1.493    0.330
       355  -8.3731    176.3201    150.2860   9.2152200272e+01   1.6907165943e+01    0.1479387    0.1117828   8.94 0.0003574367    1.594    0.373
       356 -10.7225    133.1685    147.1771   1.0122536392e+02   2.6162589060e+01    0.5814488    0.3808309 -67.40  0.002229509    1.937    0.484
       357 -10.3659    131.9448    140.0098   1.0000562630e+02   2.7930111026e+01    0.4749402    0.2943388 -65.01  0.001696449    2.051    0.513
       358  -9.2056    182.0958    148.1251   9.0463246598e+01   1.6126657356e+01     0.217103    0.1823364   5.46  0.000310259    1.265    0.209
       359  -8.7373    122.0676    148.4576   1.0415595210e+02   2.7969563453e+01    0.2096903    0.1390917  40.20 0.0004139305    1.500    0.333
       360  -9.4030    191.0700    146.4573   8.8250399335e+01   1.4587180361e+01    0.2069883    0.1897854 -11.92 0.0004064164    1.056    0.053
       361  -8.9512    162.0196    147.3268   9.4606432903e+01   2.0397351515e+01    0.2034501     0.179807  36.52 0.0003013559    1.098    0.089
       362  -8.7030    150.1458    146.8581   9.7184232786e+01   2.2895190140e+01    0.1974627    0.1713962   4.78 0.0003373963    1.298    0.230
       363  -9.0653    176.2757    144.6560   9.0914515883e+01   1.7975865709e+01    0.1973777    0.1631173   1.19 0.0006814821    1.342    0.255
       364  -9.8134    208.4438    143.2064   8.4119128435e+01   1.1608309784e+01    0.2783954    0.2057132   7.28 0.0006490976    1.545    0.353
       365  -8.9051    218.8954    143.0182   8.2141350103e+01   9.5473745596e+00    0.2163221    0.1559596   3.15  0.000541211    1.585    0.369
       366  -9.2137    200.3721    143.1360   8.5653832205e+01   1.3265294611e+01    0.1972512    0.1645883 -28.49 0.0003551646    1.172    0.146
       367  -8.7746    171.9138    143.0234   9.1482328489e+01   1.9193626331e+01    0.2243336    0.1736206   4.45 0.0004824963    1.568    0.362
       368  -8.4736     73.5324    142.5026   1.1528447813e+02   3.7200362900e+01    0.1338453    0.1220191 -72.85 9.320707e-05    1.068    0.064
       369 -10.7185    230.0305    138.4057   7.9134385032e+01   8.1027077297e+00    0.3689994     0.230472 -30.74 0.0004505705    1.494    0.331
       370  -9.2514    214.1928    140.9406   8.2531584098e+01   1.0828750658e+01    0.2170565    0.1715271  -5.26  0.000721712    1.302    0.232
       371  -8.7683    194.6795    141.7093   8.6451860242e+01   1.4691449958e+01      0.14942    0.1104024   9.54 0.0004688176    1.604    0.377
       372  -9.0979    155.7511    140.8908   9.4590052195e+01   2.2966757821e+01    0.2242215    0.1957122  -4.88 0.0005893947    1.269    0.212
       373  -8.5233    147.7778    141.3660   9.6533193517e+01   2.4498927457e+01    0.2081722     0.136451  33.74 0.0005111294    1.623    0.384
       374  -9.7304    139.2645    140.9558   9.8449237858e+01   2.6291669811e+01    0.2823938    0.2128959  32.12 0.0005678736    1.400    0.286
       375  -9.5793    224.6068    138.5456   8.0109985425e+01   9.1435753083e+00    0.2419053    0.1855797 -16.74 0.0006291726    1.258    0.205
       376  -8.7407    186.9938    138.9321   8.7368196822e+01   1.6800653355e+01    0.1759125    0.1590651 -23.88 0.0004482836    1.088    0.081
       377  -9.1204    166.4938    138.4747   9.1630118435e+01   2.1210752402e+01    0.2313843    0.1391127  34.46 0.0005684503    1.786    0.440
       378  -9.9332    218.8672    136.2475   8.0607017634e+01   1.0664019800e+01    0.2700938    0.2030644 -10.03 0.0006175113    1.391    0.281
       379  -8.5278    152.0431    137.4896   9.4672463128e+01   2.4423323167e+01    0.2115605    0.1453606  43.33 0.0003186206    1.435    0.303
       380  -8.9358    146.9907    136.6857   9.5668316859e+01   2.5628130299e+01    0.2029989    0.1899052  32.55 0.0003957491    1.064    0.060
       381  -9.2923     69.3650    136.5249   1.1538397800e+02   3.9158127238e+01    0.3161431    0.2063038  61.35 0.0008125857    1.715    0.417
       382  -9.8449    208.4533    135.8977   8.2442667235e+01   1.2850953453e+01    0.2528576    0.1985029  29.92 0.0004142983    1.284    0.221
       383  -9.3061    137.7136    135.4673   9.7605296213e+01   2.7763457358e+01    0.2587509    0.1824498 -24.68 0.0007899061    1.793    0.442
       384  -9.0337    198.8889    134.7324   8.4005416582e+01   1.5050481631e+01     0.224568    0.1881313   8.13  0.000713206    1.241    0.194
       385  -9.5724    192.9523    134.7788   8.5191468709e+01   1.6297333217e+01    0.2399486    0.1992905 -24.45 0.0004433498    1.188    0.158
       386  -8.6330    172.4681    135.0281   8.9522243100e+01   2.0616529890e+01    0.2203972    0.1465178 -38.35 0.0004854983    1.514    0.340
       387  -8.9114    187.9887    133.9033   8.5989511240e+01   1.7513059952e+01    0.2325371    0.1740109   2.92 0.0005605986    1.634    0.388
       388  -9.0172    163.5209    133.4557   9.1123548304e+01   2.2829788109e+01    0.2415424     0.143552 -30.36 0.0005203896    1.933    0.483
       389  -8.6288    156.0259    134.0560   9.2963274255e+01   2.4293491771e+01     0.180214    0.1711623 -32.36 0.0004479755    1.059    0.056
       390  -9.8421    225.5454    131.8425   7.8410408714e+01   1.0038055954e+01    0.3708709    0.2410138  34.05  0.001812602    1.629    0.386
       391  -9.0415    217.4036    132.4276   7.9986997185e+01   1.1593597428e+01    0.3944937    0.2176562  18.33  0.001426351    3.174    0.685
       392  -8.0436    150.2691    133.3320   9.4128569923e+01   2.5645254742e+01    0.1498075    0.1184042  -6.27 0.0002679984    1.586    0.370
       393  -8.1932    120.2886    133.2899   1.0143729995e+02   3.1626288334e+01    0.1420678    0.1168772 -10.32  0.000286385    1.540    0.351
       394  -9.3119    136.6977    130.0515   9.6614516003e+01   2.9122204332e+01    0.3014059    0.2073768 -40.35  0.000938013    1.490    0.329
       395  -9.5673    134.7412    124.7947   9.5858656096e+01   3.0644317730e+01    0.4903882    0.1603562 -47.33  0.001562812    3.068    0.674
       396  -9.5126    134.0228    119.8734   9.4844660397e+01   3.1846095151e+01    0.3848367    0.3026768  70.23  0.001847636    1.535    0.348
       397  -9.8979    134.0000    113.5907   9.3275021010e+01   3.3192542692e+01    0.5013456    0.2015335 -40.46  0.001286023    2.589    0.614
       398  -9.9061    133.9907    107.6123   9.1722478116e+01   3.4460871954e+01    0.5373583    0.2262349 -45.40  0.001582925    2.346    0.574
       399  -8.5590    114.4332    130.8389   1.0239857775e+02   3.3261126345e+01    0.1982875     0.135142 -39.93 0.0004755905    1.567    0.362
       400  -9.8898    179.4391    129.8956   8.6810716060e+01   2.0099217742e+01    0.2645834    0.2099675  32.04 0.0004398534    1.284    0.221
       401  -9.0796    160.7184    130.0090   9.0937297592e+01   2.4114746147e+01    0.2110001    0.1952922 -31.02 0.0004501599    1.081    0.075
       402  -9.2110    197.0958    148.2772   8.7452327655e+01   1.3034772825e+01    0.2297418    0.1836979 -12.40 0.0004287949    1.298    0.230
       403  -8.6217    154.5612    128.4892   9.1984737206e+01   2.5735290998e+01    0.1503637    0.1457736  -1.25 0.0001035962    1.028    0.028
       404  -8.3503    212.2600    127.3305   7.9722276692e+01   1.3516508436e+01    0.1462644     0.108534   0.55 0.0002951528    1.567    0.362
       405  -9.0272    192.7508    127.0075   8.3378123033e+01   1.7746222608e+01    0.2269015    0.1875867  -0.48 0.0005394115    1.307    0.235
       406  -8.8424    186.5627    127.2559   8.4690346016e+01   1.9045629368e+01    0.1948695    0.1417484 -23.38 0.0003261291    1.462    0.316
       407  -8.6075    171.8381    127.3462   8.7824030076e+01   2.2238276150e+01    0.2148511    0.1355949  36.36 0.0004068466    1.668    0.401
       408  -8.2307    165.6555    126.7035   8.9029514154e+01   2.3708282012e+01    0.1568368    0.1188786   9.22 0.0007033427    1.670    0.401
       409 -10.2063    221.4221    126.6719   7.7923488328e+01   1.1719456325e+01    0.3518186    0.2527131  11.83  0.001721463    1.652    0.395
       410  -8.7885    200.1636    124.8201   8.1392968683e+01   1.6531862439e+01    0.2014581    0.1649489   0.01 0.0003711137    1.317    0.241
       411  -9.1070    152.1853    124.3770   9.1542585333e+01   2.7083065292e+01    0.2418637    0.1785639 -47.97 0.0007003947    1.380    0.275
       412  -8.5715    217.6614    124.2412   7.8011568589e+01   1.2902656619e+01    0.1950169    0.1272202 -23.43 0.0003201832    1.560    0.359
       413  -8.7099    124.3043    124.3213   9.8379769311e+01   3.2831593550e+01    0.1502152     0.119203  -9.28  0.000486665    1.634    0.388
       414  -8.4065    170.2090    122.9553   8.7101455404e+01   2.3447415313e+01    0.1968157    0.1208467 -40.54 0.0003888043    1.620    0.383
       415  -8.3789    107.7575    123.6857   1.0256301281e+02   3.6085460076e+01    0.1413681    0.1118255 -25.53 0.0001829101    1.510    0.338
       416  -9.0605    179.9023    121.8416   8.4743363595e+01   2.1519813873e+01     0.236518     0.196887   4.84 0.0007412981    1.337    0.252
       417  -9.5617    212.7152    120.4619   7.7989627669e+01   1.4584339406e+01    0.2598613    0.2087936 -10.16 0.0004689965    1.287    0.223
       418  -9.1015    188.0729    121.0805   8.2866356421e+01   1.9852619421e+01    0.2255016    0.1908292   6.23 0.0002837618    1.274    0.215
       419  -8.8364    203.0910    119.5956   7.9557140763e+01   1.6814184202e+01    0.1995725    0.1848255  23.77 0.0005337507    1.081    0.075
       420  -8.7574    220.2336    119.0558   7.6316439888e+01   1.3222446181e+01    0.1864223    0.1142067 -31.62 0.0004035376    1.540    0.351
       421  -8.8606    194.1733    118.8729   8.1098258188e+01   1.8903769467e+01    0.2015933    0.1678277  -4.17 0.0002782656    1.289    0.224
       422  -8.9878    157.3175    117.9920   8.8756257781e+01   2.7268004205e+01    0.2137887    0.1925981 -35.28 0.0004149259    1.103    0.093
       423  -8.3098    147.6692    116.2927   9.0595762524e+01   2.9718484439e+01    0.1533793    0.1233347  89.51 0.0004232637    1.630    0.387
       424  -8.5783    203.3914    113.7916   7.8059866797e+01   1.7760796822e+01    0.2046884    0.1373723 -22.47 0.0004133247    1.587    0.370
       425  -8.4289    181.3289    114.3025   8.2542336969e+01   2.2616413753e+01    0.1571646    0.1184798  10.91 0.0004358284    1.647    0.393
       426  -8.2215    163.4441    114.5293   8.6473009261e+01   2.6599685074e+01    0.1554386    0.1452059   0.95 8.679708e-05    1.092    0.084
       427  -8.6744    129.4793    114.4557   9.4646826424e+01   3.3941704652e+01    0.1509981    0.1459662 -12.99 0.0004478224    1.058    0.055
       428  -8.9963    219.7034    113.1099   7.4964823002e+01   1.4317110821e+01    0.2026178    0.1707558 -23.89 0.0003569405    1.111    0.100
       429  -9.2459    185.8397    112.9736   8.1274781313e+01   2.1843061781e+01     0.226815      0.19762   0.15 0.0003886764    1.215    0.177
       430  -9.7400      6.4894    112.9935   1.2921429165e+02   5.0833947476e+01    0.1869151   0.09379103 -75.66  0.001024874    1.575    0.365
       431 -13.1919    235.0022    170.7143   8.5207098336e+01   2.2788604038e+00     1.935363    0.8202665 -19.50  0.006892067    3.725    0.732
       432  -8.1319    208.6438    111.6876   7.6566466771e+01   1.6962351452e+01    0.1558425    0.1124097  12.94 0.0007044055    1.737    0.424
       433  -9.0428    194.6627    111.1160   7.9046276347e+01   2.0185026876e+01    0.2141041     0.179794 -27.26 0.0004238782    1.158    0.137
       434 -12.4639    230.1115    195.9264   9.0961775541e+01  -4.2437365008e-01     1.570232    0.5896373 -23.75  0.005810502    3.906    0.744
       435  -8.4905    176.5370    108.5059   8.2043517176e+01   2.4792846375e+01    0.1537451    0.1468139  -4.10 0.0001092099    1.032    0.031
       436  -8.7421    123.5124    107.9935   9.4542426276e+01   3.6550181176e+01    0.2076539    0.1304566 -22.56  0.000502594    2.302    0.566
       437  -8.1657    201.4068    107.4934   7.6836804872e+01   1.9300740176e+01    0.1502144    0.1387828 -11.78 0.0002283619    1.051    0.048
       438  -8.7445    190.0485    107.0986   7.8914216072e+01   2.1954240937e+01    0.1803313    0.1695227 -18.31 0.0004345569    1.027    0.026
       439  -8.7879    160.9387    105.9885   8.4793100068e+01   2.8843700802e+01    0.2337932     0.183988   1.68 0.0004318155    1.568    0.362
       440  -8.4687    129.4880    106.5421   9.2595783567e+01   3.5633341339e+01    0.1525749    0.1461282 -78.62 1.300138e-05    1.102    0.092
       441  -8.3984    165.5069    104.5174   8.3371998890e+01   2.8084543990e+01    0.1530488    0.1504294 -23.06 0.0008102834    1.024    0.023
       442 -10.2341    218.9982    102.7808   7.2526946171e+01   1.6169277301e+01    0.2985653    0.2095278  14.90   0.00126201    1.851    0.460
       443 -13.6147    223.9111    182.9088   8.9594248788e+01   2.4356793567e+00     3.509318    0.8767965 -29.62   0.00919433    6.960    0.856
       444  -9.2883    119.5408    101.9831   9.4011232867e+01   3.8647418913e+01    0.2347875     0.145187 -43.82 0.0008548404    1.572    0.364
       445  -8.4333    195.2474    101.3910   7.6414701970e+01   2.1773275576e+01    0.1550318    0.1154493  -0.94 0.0003129545    1.670    0.401
       446  -9.2060     19.0053    100.1714   1.2389297173e+02   5.2936488562e+01    0.1977927    0.1190881  59.65  0.001084316    2.019    0.505
       447  -8.5652     89.8494     97.8222   1.0138101886e+02   4.5059963375e+01     0.191491    0.1679141 -87.55 0.0004767127    1.299    0.230
       448 -12.6005    217.2326    182.4164   9.0710902281e+01   3.6717807672e+00     1.808981    0.5023559 -29.37  0.004998065    6.178    0.838
       449  -9.6146      7.4825     96.5021   1.2689621590e+02   5.4539867112e+01     0.121284   0.09286582 -66.66  0.000322329    1.047    0.045
       450  -8.7380    203.3381     95.8869   7.3475482555e+01   2.0852770798e+01    0.2129168    0.1356153 -22.48 0.0004560957    1.712    0.416
       451 -11.1750      3.8627     89.2519   1.2702639355e+02   5.6391761574e+01    0.3221902    0.2687898 -30.00  0.002326133    1.404    0.288
       452  -8.1520    164.7079     92.2953   8.0174696149e+01   3.0591420135e+01    0.1523927    0.1227637 -74.07  0.000200398    1.557    0.358
       453  -8.4957    127.8723     91.3472   8.8805015457e+01   3.9148454250e+01    0.1940555    0.1404974  33.64            0    1.489    0.328
       454  -8.1840    203.3590     89.2881   7.1727677873e+01   2.1955428772e+01    0.1546672    0.1140039  19.77 0.0007024623    1.684    0.406
       455  -8.5633    158.4264     88.4818   8.0483672878e+01   3.2786964418e+01    0.1550684    0.1478294  -3.93  0.000160074    1.053    0.050
       456 -10.4086    225.9593     86.6664   6.7347473229e+01   1.7199811719e+01    0.2476609    0.1890725 -19.72 0.0008427209    1.332    0.249
       457 -10.6408      9.7356     85.7200   1.2459951936e+02   5.6859645017e+01    0.2548049    0.1732856  72.65  0.001039219    1.733    0.423
       458 -12.3288    248.0331    175.0910   8.3877420080e+01  -5.3712248815e-01    0.7713772    0.4748902  -4.19  0.002929994    1.789    0.441
       459 -10.0146    217.9570     83.1706   6.7690140445e+01   1.9557733083e+01    0.3852714    0.2157549  37.20  0.001606064    2.216    0.549
       460 -10.5665      2.6257     82.5485   1.2645928303e+02   5.7967875533e+01    0.2360238    0.1634318 -89.21  0.001517694    1.419    0.296
       461  -8.6979    205.9967     82.9983   6.9594529224e+01   2.2368434443e+01     0.186389    0.1544335 -32.82 0.0003468661    1.152    0.132
       462  -9.3630     19.4787     80.4810   1.2039819328e+02   5.7411957035e+01    0.1245867   0.09901939 -59.42 0.0008099856    1.009    0.009
       463 -10.4866      8.9088     79.6930   1.2389160625e+02   5.8269209814e+01     0.292101    0.1413606 -28.21  0.001458993    2.690    0.628
       464  -8.6645    215.1958     78.7350   6.6965350579e+01   2.0890735870e+01    0.1969684    0.1659028   4.66 0.0005532248    1.349    0.258
       465 -11.4750      8.6663     72.6849   1.2274380748e+02   5.9850654661e+01    0.3119883    0.2321689 -71.77  0.001497518    1.173    0.147
       466 -10.6402     10.3256     69.6871   1.2157589320e+02   6.0420061058e+01    0.2582284    0.1740183 -81.73 0.0007952994    1.522    0.343
       467  -8.2419    206.2795     72.3732   6.6682938589e+01   2.3988219428e+01    0.1511597     0.113848  10.94 0.0007010406    1.698    0.411
       468 -11.1928      1.7685     68.4887   1.2447990139e+02   6.1138332883e+01     0.516972    0.1207036 -66.44  0.001392065    2.965    0.663
       469 -13.3757    245.8430    162.6783   8.1715560376e+01   1.5572362261e+00     1.881595    0.6565804 -23.78  0.006234502    4.147    0.759
       470  -9.4511     92.7241     69.5938   9.2269966589e+01   5.0589697092e+01    0.2812581    0.2311328 -54.13  0.001005543    1.304    0.233
       471  -8.8209    170.7422     68.2578   7.1871345481e+01   3.3364398401e+01    0.2028503    0.1730154  14.73 0.0003651548    1.305    0.234
       472  -9.4629     68.3674     63.8653   9.8558738220e+01   5.5780574756e+01    0.2196862    0.1946105  45.17 0.0008768453    1.328    0.247
       473 -10.2569      3.3345     61.5868   1.2260822066e+02   6.2571459678e+01    0.1875599    0.1364023 -22.79 0.0009532708    1.522    0.343
       474 -11.2249      2.4807     53.9474   1.2136459832e+02   6.4255640315e+01    0.4448273    0.2551404 -72.34  0.002639006    1.606    0.377
       475 -10.6138    124.1902    246.8588   1.1806828440e+02   9.2365551653e+00     0.208605    0.1993446  84.64 0.0005308721    1.271    0.213
       476  -9.8741     11.4920     35.4746   1.1255448412e+02   6.7552371596e+01    0.2849165    0.1427847 -62.22 0.0006639155    1.931    0.482
       477 -10.1177     17.2899     40.4252   1.1145861821e+02   6.6171048313e+01    0.2352016    0.1926835  50.77  0.001077117    1.728    0.421
       478 -10.2681      9.9658     40.0314   1.1464059524e+02   6.6741157074e+01    0.2725536    0.1701969 -28.65 0.0003855644    1.509    0.337
       479 -10.2297      2.0332     45.7938   1.1968210246e+02   6.5992536801e+01    0.2933871    0.1426419 -50.89 0.0004034813    1.489    0.329
       480 -10.3997      4.8414     41.4608   1.1734403430e+02   6.6743399989e+01    0.2126492    0.1641069 -51.75 0.0003013196    1.064    0.060
       481  -8.7036     31.3500     58.2788   1.1081375620e+02   6.1353181842e+01      0.12989   0.08027945 -29.97 0.0007010154    1.643    0.391
       482  -8.6726    146.8099     56.4504   7.3201972452e+01   4.1187705860e+01    0.2068152    0.1367951  42.25 0.0004851438    1.533    0.348
       483 -10.4946     78.6858     53.0285   9.1223187400e+01   5.6258013925e+01     0.296357    0.2507607 -46.23  0.001429547    1.253    0.202
       484 -10.3816     20.9075     52.0016   1.1330134049e+02   6.3537465020e+01    0.3247925    0.1525799 -70.76  0.001448322    2.776    0.640
       485 -12.8618    219.7855    222.1304   9.7355931189e+01  -2.1889794822e+00     1.050278    0.7418965  54.98  0.005905521    2.072    0.517
       486  -9.1524    172.1544     49.9075   6.5994970767e+01   3.5850256447e+01    0.2075331    0.1917503 -64.63  0.001124289    1.123    0.110
       487 -12.4305    227.7052    218.3994   9.5353921477e+01  -2.9438143747e+00    0.5967638    0.3791541 -33.48  0.003124961    1.753    0.430
       488 -12.2745    247.5782    224.5551   9.3026998965e+01  -6.5944371290e+00    0.5182952    0.3450835 -18.64 0.0005938528    1.450    0.310
       489  -8.5478     24.0228     38.2562   1.0771893811e+02   6.6066440605e+01    0.1323742   0.09991807   8.91 0.0003163879    1.464    0.317
       490 -12.7363    247.9513    214.6520   9.1276608786e+01  -5.5228858204e+00     0.570555    0.3155364 -20.96  0.001984675    1.784    0.439
       491  -9.1113     25.8158     34.1537   1.0545392489e+02   6.6695184765e+01    0.1683734    0.1146208 -26.44 0.0003157875    1.305    0.234
       492  -9.9265      5.6967     33.3976   1.1463694185e+02   6.8313595619e+01    0.2598805   0.09570149 -38.16 0.0007723749    2.306    0.566
       493  -8.2473    173.6963     33.7414   6.0705992251e+01   3.7639038671e+01    0.1442185    0.1051064  35.50 0.0001680135    1.514    0.340
       494  -9.0188     30.3252     31.0886   1.0222132680e+02   6.6834427993e+01    0.1764746    0.1304757 -36.91  0.001132603    1.111    0.100
       495  -9.4784     23.4739     27.5454   1.0405006378e+02   6.8129445781e+01    0.2204383    0.1687163 -30.48 0.0006201973    1.017    0.017
       496  -8.8589    120.0193    248.6646   1.1899925011e+02   9.5745765668e+00    0.1607241    0.1168565  44.76 0.0004139516    1.091    0.083
       497  -9.3059     12.7931     27.5091   1.0923443113e+02   6.8995404948e+01    0.2039796    0.1288492 -46.80 0.0003203213    1.247    0.198
       498 -10.5543      4.1402     27.6274   1.1356111596e+02   6.9522363587e+01    0.3494355    0.1936737  12.06   0.00145866    2.104    0.525
       499  -9.2077      4.2435     23.5583   1.1212442601e+02   7.0288047321e+01    0.1909152    0.1136924 -33.06 0.0004381084    1.373    0.272
       500  -8.9611    108.1951    249.0895   1.2113427794e+02   1.1206317509e+01     0.157911    0.1348961  35.34 0.0006183119    1.304    0.233
       501  -9.1152     67.0066     21.9811   8.2774618935e+01   6.3340777339e+01    0.1933701    0.1673386 -66.42  0.001149291    1.804    0.446
       502  -9.8165     29.4834     20.2415   9.8085796992e+01   6.8813805485e+01     0.270488     0.261056 -27.18  0.001996861    1.447    0.309
       503 -10.4061     32.0178    247.2480   1.3392327396e+02   2.1068905829e+01    0.2372188    0.2000323  23.56 0.0008145272    1.883    0.469
       504  -8.5488     24.3511    249.2881   1.3524036695e+02   2.1539382293e+01   0.07908079   0.07671429  85.64 0.0002766593    1.666    0.400
       505 -10.1810      8.6280    248.4106   1.3763589842e+02   2.3247396239e+01    0.1736729     0.144932  66.21 0.0005904397    1.356    0.263
       506 -10.1921      4.6928     16.4710   1.0924026261e+02   7.1559637176e+01    0.2490404    0.1672424  11.73 0.0008021636    1.662    0.398
       507 -12.2481    191.5972    244.5379   1.0572991361e+02  -6.6020506668e-01    0.2879876    0.2224487  11.03 0.0003171475    1.274    0.215
       508  -8.9828    186.5511    245.4956   1.0675072140e+02  -1.5426879187e-02    0.1426253    0.1133491 -30.35 0.0005231001    1.530    0.346
       509 -11.7496    176.8463    243.7997   1.0824365589e+02   1.6826987107e+00    0.2715319    0.2268969  -4.61 0.0004556958    1.360    0.265
       510  -8.8603     47.3375     18.5614   8.9097359838e+01   6.6884699433e+01    0.2100494    0.1268513 -15.52 0.0006001393    1.692    0.409
       511  -8.7596     79.1229     22.1443   7.8558914187e+01   6.1148831290e+01    0.1675515    0.1561413 -32.75 0.0004953659    1.296    0.229
       512  -8.4369     93.6467     17.7014   7.2058289943e+01   5.8814103427e+01    0.1457489   0.09156432  23.42 0.0006696925    1.695    0.410
       513  -9.1358     37.8992     15.6395   9.1943440789e+01   6.8574450857e+01    0.1613445    0.1302265   1.81 0.0003316844    1.134    0.118
       514 -11.5094    177.5055    232.5552   1.0657326232e+02   3.0945218788e+00    0.3146053    0.2318501 -17.02 0.0006750425    1.664    0.399
       515 -11.0460    169.9140    240.6147   1.0906412783e+02   3.1782816266e+00    0.2636687    0.2032265  17.67 0.0004253241    1.324    0.245
       516 -10.3191    133.1036    245.2775   1.1629605770e+02   8.1501888667e+00    0.2068808    0.1807831  23.73 0.0004003179    1.297    0.229
       517  -9.3472     28.8785     13.6390   9.5317643616e+01   6.9944516845e+01    0.1853387    0.1450453 -21.07 0.0005611114    1.053    0.050
       518 -10.1237    113.4212    244.4546   1.1975081750e+02   1.1175762380e+01    0.2304041    0.1937723 -36.02 0.0009779197    1.686    0.407
       519 -10.5953     93.1439    244.5767   1.2337811257e+02   1.4015708800e+01    0.2580033    0.1919408  35.04 0.0006579953    1.430    0.301
       520  -9.2350     75.9117    246.0934   1.2651823700e+02   1.6064293846e+01    0.1424229    0.1304325  14.89 0.0007008991    1.649    0.393
       521 -10.4892     80.8012    244.1981   1.2551742202e+02   1.5736727808e+01    0.3138768     0.182087  32.25 0.0008363578    1.936    0.484
       522 -10.1826     41.6512    244.5311   1.3220682890e+02   2.0465045321e+01    0.2249615    0.1681467  35.12  0.001155249    1.640    0.390
       523 -10.5917    104.5566    241.6158   1.2106425728e+02   1.2897187100e+01    0.2551219    0.2243283 -15.50 0.0007416058    1.721    0.419
       524 -10.6452     68.5477    240.2203   1.2734651394e+02   1.7981617111e+01    0.2114976    0.2005573  62.46 0.0004524146    1.397    0.284
       525 -10.4062     51.4977    240.5428   1.3031085889e+02   2.0007657749e+01    0.1954568    0.1856746  58.10 0.0007521274    1.480    0.324
       526 -10.6614     25.2046    239.7418   1.3464434255e+02   2.3051555097e+01    0.2625459    0.1974867 -55.71  0.001138771    2.002    0.501
       527 -10.3255    214.5752    239.5087   1.0099406518e+02  -3.5001092886e+00    0.2286569     0.170414  -6.70 0.0005804755    1.368    0.269
       528 -10.2676    125.2597    239.9524   1.1712935775e+02   1.0132975463e+01    0.2323014    0.2150624  23.01   0.00044104    1.294    0.227
       529  -9.8573    129.5281    235.4660   1.1583477834e+02   1.0188428183e+01    0.2228413    0.1982598  -3.22   0.00072517    1.476    0.322
       530  -9.4266     35.2569    240.3870   1.3302846486e+02   2.1873602104e+01    0.1641549    0.1496325  86.94 0.0006693812    1.451    0.311
