#   1 NUMBER                 Running object number                                     
#   2 MAG_AUTO               Kron-like elliptical aperture magnitude                    [mag]
#   3 X_IMAGE                Object position along x                                    [pixel]
#   4 Y_IMAGE                Object position along y                                    [pixel]
#   5 X_WORLD                Barycenter position along world x axis                     [deg]
#   6 Y_WORLD                Barycenter position along world y axis                     [deg]
#   7 A_WORLD                Profile RMS along major axis (world units)                 [deg]
#   8 B_WORLD                Profile RMS along minor axis (world units)                 [deg]
#   9 THETA_WORLD            Position angle (CCW/world-x)                               [deg]
#  10 FWHM_WORLD             FWHM assuming a gaussian core                              [deg]
#  11 ELONGATION             A_IMAGE/B_IMAGE                                           
#  12 ELLIPTICITY            1 - B_IMAGE/A_IMAGE                                       
         1 -14.0882    205.4208     20.2367   6.1318537512e+01   3.1865383295e+01     2.272752     1.424089  29.69   0.01075999    2.980    0.664
         2 -12.0972      2.5375     15.1204   1.1346313191e+02   7.0604393015e+01    0.7866446    0.1944674 -43.89   0.00375838    3.140    0.682
         3 -10.6062     51.8171    233.8574   1.3960493923e+02   1.9429028327e+01    0.2128047    0.1904944 -88.53 0.0009166772    1.292    0.226
         4 -11.6436    139.4668    248.8098   1.2403819347e+02   2.8987640336e+00    0.3998833    0.2971135 -84.09   0.00229145    1.727    0.421
         5 -12.2233    107.8313    246.4959   1.3002928533e+02   8.5744182593e+00    0.6102927    0.3268253  64.71  0.002885879    2.185    0.542
         6 -12.0496    101.0920    248.2840   1.3155815365e+02   9.3116127957e+00    0.5024422    0.4099957 -60.59  0.003220543    1.440    0.306
         7 -11.3002     96.2225    244.3809   1.3207063115e+02   1.0834269778e+01    0.3947581    0.1922717  48.80   0.00195789    1.739    0.425
         8 -11.3507     92.6880    249.4763   1.3331686600e+02   1.0398512190e+01    0.4320807    0.2461067  50.98 0.0004863981    1.463    0.316
         9 -11.3452     89.0265    244.5286   1.3349356580e+02   1.1923872251e+01    0.3992558    0.2246207  76.99  0.001466249    2.159    0.537
        10 -14.2506     35.7696    246.6823   1.4356769414e+02   1.8867630938e+01     10.99809     3.062354  30.27   0.02255331   17.592    0.943
        11 -12.9727     16.6740    241.7493   1.4653027293e+02   2.2058349780e+01     1.239994    0.5769621  65.14  0.005627678    1.808    0.447
        12 -14.1621      9.7304    206.8359   1.4540841152e+02   3.0051626179e+01     2.410395    0.8743814 -83.30  0.003146262    2.517    0.603
        13 -15.3098      9.8776    152.2517   1.4045631347e+02   4.2427560863e+01     5.389678     1.727565 -78.90   0.02070024    3.239    0.691
        14 -11.3816     16.7961    231.2136   1.4582519031e+02   2.4172124351e+01    0.2843871    0.1831017  73.21  0.001350111    1.201    0.167
        15 -11.8803     19.9416    228.8111   1.4509965462e+02   2.4326242940e+01    0.4452507    0.1870167  52.73  0.001922461    2.024    0.506
        16 -10.4605     53.1101    228.5228   1.3886942928e+02   2.0376415996e+01    0.2513376     0.166845  84.45  0.001501783    1.333    0.250
        17 -13.2122      3.8407    246.0948   1.4891107973e+02   2.2565897375e+01     2.117537    0.6360822 -77.13   0.01054986    2.788    0.641
        18 -12.7523     35.7421    226.0699   1.4197928260e+02   2.3089541827e+01     0.345701    0.3077385  77.23 0.0008540439    1.277    0.217
        19  -9.7445     29.0794    240.9944   1.4433441975e+02   2.0801946451e+01    0.1831955    0.1322208  74.41 0.0006892476    1.026    0.025
        20 -10.1359     66.9822    225.7146   1.3584979673e+02   1.9068102829e+01    0.2359459    0.1475295  76.69 0.0008475393    1.565    0.361
        21 -10.8176     23.3862    213.5153   1.4331062069e+02   2.7197533565e+01    0.2375228    0.2133818 -30.42  0.001057105    1.777    0.437
        22 -10.5606    228.1271    204.7064   9.8870486887e+01  -4.7172735234e+00    0.3064713     0.225366 -53.59 0.0006079669    1.722    0.419
        23  -8.2522     67.2998    198.6307   1.3267170650e+02   2.5066773624e+01    0.1458692   0.08993468  75.05 0.0007031608    1.738    0.425
        24  -9.7809    192.9771    194.7564   1.0388485378e+02   3.3708675606e+00    0.3176867    0.1559708 -60.72  0.001041873    3.885    0.743
        25 -11.5636     62.2662    193.4321   1.3314348960e+02   2.6982282553e+01    0.3744149       0.2582 -45.55  0.001380809    1.819    0.450
        26 -10.2086    198.5195    247.4983   1.1216841299e+02  -6.7549468996e+00    0.1269398    0.1077355  23.32 0.0003304514    1.017    0.017
        27  -8.5589    181.4946    192.4364   1.0584571782e+02   6.0335987498e+00    0.1447945    0.1374426  20.32 6.302238e-05    1.019    0.019
        28 -11.7264     67.9698    186.1120   1.3087715241e+02   2.7912897515e+01    0.2955817    0.2435757 -55.15 0.0005030592    1.327    0.246
        29 -11.5151     54.3727    238.4894   1.3953455959e+02   1.8135325394e+01    0.5273434    0.1910405  49.55   0.00143247    2.315    0.568
        30 -11.0193     77.8266    174.2609   1.2677547833e+02   2.9315810406e+01    0.2573976    0.2237087 -63.35 0.0003329809    1.150    0.131
        31 -13.1992     64.8609    171.6738   1.2955947906e+02   3.1823176540e+01    0.5395045    0.2809491 -45.66  0.001521154    2.277    0.561
        32 -11.9645     85.0441    165.5664   1.2353674785e+02   3.0313900854e+01    0.8043469    0.5926298  65.93   0.00407337    1.444    0.307
        33 -12.7723     67.4710    144.2360   1.2434919649e+02   3.8171468255e+01     1.004191    0.6358453 -89.80  0.002718901    2.063    0.515
        34 -11.8535     57.5106    131.3383   1.2471221018e+02   4.2624827296e+01      1.90745    0.6254514 -70.92  0.004134813    8.476    0.882
        35  -9.8504     98.1813    149.8799   1.1717726944e+02   3.1962445390e+01    0.2797653      0.27199 -87.96 0.0007755245    1.060    0.057
        36  -9.1235    101.0084    146.0119   1.1562849903e+02   3.2405511034e+01    0.2858122    0.1829489 -33.16  0.000883902    2.024    0.506
        37 -12.0775     86.7546    148.9322   1.2003029418e+02   3.4114959712e+01    0.3039202    0.2490969 -45.09 0.0005281068    1.264    0.209
        38 -14.7971     51.3608    207.7603   1.3716131412e+02   2.5144738892e+01     6.233405      1.18796  50.34   0.01755942    6.077    0.835
        39 -11.4588     98.9652    236.5215   1.3061223352e+02   1.1958359805e+01     0.319952     0.233107  77.70 0.0006974986    1.365    0.267
        40  -9.5614    109.8623    135.5421   1.1095856277e+02   3.3299859751e+01    0.3334844    0.2293152 -25.44  0.001405846    1.989    0.497
        41 -10.5713     97.0016    132.6797   1.1382540826e+02   3.6329462620e+01    0.2909299    0.2385721 -22.05 0.0005844331    1.461    0.316
        42  -9.0884    106.8417    122.8888   1.0880055772e+02   3.6847744616e+01    0.2119885    0.1952118 -25.22 0.0003151579    1.152    0.132
        43 -10.5765    167.9926    112.9710   9.0885529003e+01   2.5839430066e+01    0.3718121    0.2856157 -80.47 0.0007528192    1.603    0.376
        44  -9.3437    204.4179    111.0333   8.3065644609e+01   1.7788105840e+01    0.3271306    0.1843316  35.76  0.001271251    2.472    0.595
        45  -9.1636     33.2968    109.3380   1.2764978907e+02   5.0452129363e+01    0.1361021   0.08191478 -38.86 0.0002415943    1.655    0.396
        46 -13.9532     42.7489    217.2738   1.3985522119e+02   2.4126234805e+01     1.035579    0.7086753  64.43  0.004453763    1.256    0.204
        47  -9.8838    249.1870    248.9907   1.0301415203e+02  -1.4476030795e+01    0.2010738    0.1153566  -6.79  0.001097461    2.000    0.500
        48 -10.5629    189.8601     15.3635   6.1967298797e+01   3.6054372158e+01    0.2146892    0.1623738 -58.71 0.0008754046    1.321    0.243
