#   1 NUMBER                 Running object number                                     
#   2 MAG_AUTO               Kron-like elliptical aperture magnitude                    [mag]
#   3 X_IMAGE                Object position along x                                    [pixel]
#   4 Y_IMAGE                Object position along y                                    [pixel]
#   5 X_WORLD                Barycenter position along world x axis                     [deg]
#   6 Y_WORLD                Barycenter position along world y axis                     [deg]
#   7 A_WORLD                Profile RMS along major axis (world units)                 [deg]
#   8 B_WORLD                Profile RMS along minor axis (world units)                 [deg]
#   9 THETA_WORLD            Position angle (CCW/world-x)                               [deg]
#  10 FWHM_WORLD             FWHM assuming a gaussian core                              [deg]
#  11 ELONGATION             A_IMAGE/B_IMAGE                                           
#  12 ELLIPTICITY            1 - B_IMAGE/A_IMAGE                                       
         1 -13.8560    222.7487     25.5777   8.0423251517e+00   2.5947462447e+01    0.9320043    0.8681926  -6.74   0.00414441    1.261    0.207
         2 -13.0623     32.0872     15.0360   5.1323248974e+01   7.1142271657e+01    0.6501756    0.3397554 -22.04  0.003050958    2.245    0.555
         3 -11.7460     40.2129      2.1426   3.9153660910e+01   7.1867724548e+01    0.4238516    0.1415415  40.78  0.001756028    2.844    0.648
         4 -10.1439     21.9302    246.4044   9.2283454491e+01   2.1463481000e+01    0.1088727    0.0841465  36.30  0.000853306    1.366    0.268
         5 -12.4425    249.1208    237.0028   4.8918846522e+01  -6.3198203702e+00     0.806682     0.154409 -33.90  0.003203494    5.413    0.815
         6 -10.2827    164.4551    248.7608   6.5392850351e+01   3.3086831508e+00    0.2039363    0.1619623   7.87 0.0007251192    1.238    0.192
         7 -19.4667     12.1854    141.8238   8.8749101351e+01   4.3683151190e+01     17.39109     5.094357 -82.49   0.06568916    3.352    0.702
         8  -9.7751    211.0000    198.7121   4.9174058995e+01   3.2402879670e+00    0.1947218    0.1562344  -4.49 0.0005010465    1.117    0.105
         9 -11.2026    144.0912    197.2050   6.2382310321e+01   1.4149607425e+01    0.2664607    0.1671964  49.22  0.001373214    1.657    0.396
        10 -12.5828     82.5646    193.9687   7.5936199992e+01   2.4194188702e+01    0.3758421    0.2989362  61.51  0.001131751    1.176    0.149
        11  -7.6041     69.5240    195.7394   7.9154696941e+01   2.5577556828e+01    0.3657791    0.1277571 -71.05  0.001467556    3.426    0.708
        12  -9.8275    192.6736    193.9998   5.1802367394e+01   6.7545162936e+00    0.1827589    0.1055264 -59.45 0.0007049782    4.305    0.768
        13  -9.6796     55.4560    193.9407   8.2231362414e+01   2.7694937451e+01    0.2767135    0.1530243  73.24  0.001419162    2.012    0.503
        14 -10.4771     53.9791    189.7695   8.2199727854e+01   2.8742368163e+01    0.1836774    0.1518553  69.27 0.0003672168    1.069    0.064
        15  -9.7037     48.8166    194.0408   8.3765088345e+01   2.8448453678e+01    0.1911003     0.131208  51.91 0.0005799274    1.231    0.188
        16 -11.3640     53.1371    231.3115   8.5593122110e+01   2.0770413176e+01    0.1857194    0.1382428 -69.87 0.0009373053    1.578    0.366
        17 -11.0683     47.3558    229.1993   8.6607364467e+01   2.1800973707e+01    0.1465911    0.1046105  67.84   0.00102031    1.231    0.188
        18 -11.8266     53.9639    181.2278   8.1402106301e+01   3.0572084034e+01    0.3782412    0.2639873 -33.97  0.001459435    2.089    0.521
        19 -11.4307    173.6706    177.3374   5.2631127587e+01   1.2576201184e+01     0.667813    0.3570298 -46.39  0.003108203    2.168    0.539
        20 -12.0280     96.9192    177.9356   7.0447668221e+01   2.5427901081e+01    0.4997433    0.3127739 -66.69  0.002524885    1.810    0.448
        21  -9.4651     63.6326    181.5815   7.9084812300e+01   2.9309123653e+01    0.1241798    0.1105268  66.13  0.000119187    1.037    0.036
        22 -11.0230    159.0966    227.7458   6.3700137747e+01   6.9452092508e+00    0.2280253    0.1462722  -8.70   0.00124598    2.158    0.537
        23 -12.1937    110.6402    167.1660   6.5382297284e+01   2.5519913318e+01     0.475025    0.3472356 -81.28  0.001161284    1.750    0.429
        24  -9.3364     71.4062    175.8083   7.6509751672e+01   2.9553532250e+01    0.1838643    0.1471658  52.81 0.0007505654    1.120    0.107
        25 -11.7721    140.1787    172.5785   5.9172671377e+01   1.9340732607e+01    0.3894467    0.3073151  88.54  0.002016545    1.829    0.453
        26 -11.6418    179.5724    169.2519   4.9860081199e+01   1.2904393994e+01    0.5483057    0.4562892 -39.90  0.003176069    1.346    0.257
        27 -11.3330    238.6888    161.6631   3.7411127984e+01   4.0459160303e+00    0.2246398    0.1594803 -26.39  0.001023329    1.280    0.219
        28 -10.8149     94.2091    158.0950   6.8124569368e+01   3.0171214875e+01    0.2774968    0.2211619  81.66 0.0006343138    1.408    0.290
        29 -11.8024    133.7576    145.0850   5.5418176347e+01   2.6066762151e+01     1.135853    0.2790976 -52.97  0.002791516    5.989    0.833
        30 -11.5660    108.9911    145.2804   6.1895918150e+01   3.0581820078e+01    0.3691618     0.325688   8.55  0.001184289    1.259    0.206
        31 -11.6641     89.7414    249.8609   7.9807509708e+01   1.3216519584e+01    0.1730233    0.1463805  42.68  0.000545933    1.137    0.121
        32 -10.8104     27.1725    250.5588   9.1511914005e+01   2.0256247453e+01     0.118814   0.08616477  29.42 0.0005484308    1.529    0.346
        33 -12.0945    105.8497    131.4696   5.9965694551e+01   3.4270760141e+01    0.5947524    0.4147603 -45.36  0.001759762    1.485    0.327
        34  -9.9316    106.4893    125.0721   5.8392743729e+01   3.5620469530e+01    0.2613546      0.20018  54.96 0.0005645395    1.386    0.279
        35 -11.4850     94.0067    131.5349   6.3367325033e+01   3.6321872632e+01    0.2742065    0.2685405 -10.08 0.0003965672    1.082    0.076
        36 -10.7804    135.5149    131.0166   5.1893321174e+01   2.8685323504e+01     0.353943    0.2402224 -61.94  0.001562969    1.841    0.457
        37 -11.0926    135.5082    125.9435   5.0713468307e+01   2.9758670046e+01    0.4346277    0.2104472 -48.65   0.00166773    2.176    0.540
        38 -10.2868    161.5098    126.0125   4.4437463122e+01   2.4328700685e+01     0.231015    0.1471378 -38.86 0.0007456472    1.585    0.369
        39 -10.2726    113.9346    125.9503   5.6488651230e+01   3.4026724886e+01    0.2340188    0.2230827   8.13 0.0007659544    1.081    0.075
        40 -10.4825    101.3692    120.8524   5.8928729030e+01   3.7529475327e+01    0.2680199    0.2307463   5.37 0.0005222472    1.332    0.249
        41 -10.0796    162.0690    119.7831   4.2793306725e+01   2.5411632986e+01    0.2482387     0.214484 -31.93 0.0004725517    1.155    0.134
        42 -10.3507     86.5263    120.0157   6.3209131902e+01   4.0299010316e+01     0.205838    0.1878796 -54.61 0.0003417507    1.089    0.082
        43 -10.0265    109.1187    116.0459   5.5542150360e+01   3.7187987424e+01    0.2258722    0.2209319  -4.83 0.0005113345    1.037    0.036
        44 -10.3232    158.5326    114.4804   4.2272300443e+01   2.7202950016e+01    0.3363074    0.2520844 -72.26 0.0005135181    1.907    0.476
        45 -10.8212     81.9093    109.5982   6.2354071229e+01   4.3551132108e+01    0.2788264    0.2535112 -46.56 0.0009558406    1.091    0.084
        46 -11.3004    114.7263    107.8218   5.1867807246e+01   3.7932547703e+01    0.3849998    0.2714469  77.55  0.001589386    2.184    0.542
        47 -10.3163    134.1065    104.9770   4.5788732608e+01   3.4467120427e+01    0.3421504    0.2058028 -57.93  0.001352624    2.102    0.524
        48  -9.1851    107.4817    105.5153   5.3389641858e+01   3.9891171243e+01    0.1506562    0.1499925  57.05 0.0008100964    1.023    0.023
        49 -11.1395    119.0749    103.9648   4.9612226996e+01   3.7888850557e+01    0.2381615    0.2363408  43.76 0.0005731971    1.032    0.031
        50  -9.9164    151.1937    105.8765   4.1755972960e+01   3.0507676385e+01    0.2362654    0.2087074 -75.84  0.001053136    1.344    0.256
        51 -10.8251    120.8902     98.8763   4.7714392068e+01   3.8605233974e+01    0.2443401     0.216422   7.41 0.0006820601    1.224    0.183
        52  -9.3611     71.5047    223.0900   8.1235829900e+01   2.0046016891e+01    0.1333116    0.1125368 -75.64 0.0009367821    1.368    0.269
        53 -10.7719    125.5478     87.5524   4.3163835763e+01   3.9954252741e+01     0.312042    0.2623961  69.38 7.796699e-05    1.371    0.271
        54 -10.9004    121.9846     84.4680   4.3226620979e+01   4.1378045336e+01    0.3856306    0.2827065  73.12  0.001412042    1.848    0.459
        55 -10.5619     89.2833    221.3360   7.7341052495e+01   1.8048317772e+01    0.2799405      0.17505  37.48 0.0009624332    1.319    0.242
        56  -9.5633     98.2834     88.3106   5.1505083307e+01   4.5548860005e+01    0.1525407    0.1194022 -10.10 0.0002151406    1.570    0.363
        57 -11.0350    143.9808    209.3017   6.4210332698e+01   1.2107503865e+01    0.1886021     0.146612  32.15 0.0006221936    1.071    0.066
        58 -11.3680     58.5869     85.4477   6.4661104368e+01   5.2871730341e+01    0.5421274    0.2615888  50.35  0.002087519    2.769    0.639
        59 -10.1017     84.7073     75.4001   5.2156106635e+01   5.0977203461e+01    0.2976801    0.2410344  80.93  0.001192368    1.667    0.400
        60 -15.8538     69.8900    143.4125   7.2482369317e+01   3.7200543543e+01      4.01117     2.460044  58.53   0.01891956    1.802    0.445
        61  -9.1487     88.2893     77.6658   5.1619405158e+01   4.9813969367e+01    0.2686936    0.2005157  67.18 0.0006090465    1.789    0.441
        62 -12.4299    178.3174     65.0552   2.4548785033e+01   3.1311416897e+01    0.4446045    0.4305063  14.46 0.0007639718    1.074    0.069
        63 -13.5399    194.7167     52.6476   1.8412296710e+01   2.9134481461e+01     1.198054    0.9235871  32.76  0.003895095    1.525    0.344
        64 -12.2618    201.0634     47.0389   1.6002688741e+01   2.8370551595e+01    0.5709478     0.453208  43.63  0.001610637    1.400    0.286
        65 -11.5589     53.4705     58.8841   5.8991883606e+01   5.9693787016e+01    0.4393834    0.2504409  46.59  0.001980836    2.155    0.536
        66  -9.9337     58.8653     46.1076   5.1991408237e+01   6.1559633404e+01    0.1973848    0.1898497 -64.50 0.0003324249    1.259    0.206
        67  -9.7899     71.4952     40.0047   4.4183088004e+01   6.0519403972e+01    0.2066171    0.1349305 -38.48 0.0003984136    1.511    0.338
        68  -9.6766    111.0181     38.0577   3.0165250525e+01   5.2257232476e+01    0.2261734    0.2123724  49.81 0.0005435423    1.068    0.064
        69 -12.2378    242.5619    247.5089   5.1539204666e+01  -6.5912121114e+00      0.32552    0.2445527   3.59  0.002349813    1.197    0.164
        70  -7.9893     53.5290    241.9726   8.6195008184e+01   1.8877323248e+01    0.2433708    0.1155171  50.12  0.001456763    1.615    0.381
        71 -10.8594     60.9372     21.0638   3.9831320279e+01   6.5603096284e+01    0.2641164    0.1801577  40.37 0.0008139671    1.440    0.305
        72 -10.6420     49.7735    248.5164   8.7289165165e+01   1.8207005574e+01   0.09252303   0.07925647  73.80 0.0003433156    1.250    0.200
        73  -9.4346    250.2910     10.6720   2.5184653204e+00   2.1661408525e+01    0.1285873   0.06868051 -54.67 0.0003021079    1.621    0.383
