#   1 NUMBER                 Running object number                                     
#   2 MAG_AUTO               Kron-like elliptical aperture magnitude                    [mag]
#   3 X_IMAGE                Object position along x                                    [pixel]
#   4 Y_IMAGE                Object position along y                                    [pixel]
#   5 X_WORLD                Barycenter position along world x axis                     [deg]
#   6 Y_WORLD                Barycenter position along world y axis                     [deg]
#   7 A_WORLD                Profile RMS along major axis (world units)                 [deg]
#   8 B_WORLD                Profile RMS along minor axis (world units)                 [deg]
#   9 THETA_WORLD            Position angle (CCW/world-x)                               [deg]
#  10 FWHM_WORLD             FWHM assuming a gaussian core                              [deg]
#  11 ELONGATION             A_IMAGE/B_IMAGE                                           
#  12 ELLIPTICITY            1 - B_IMAGE/A_IMAGE                                       
         1 -12.5433    159.5454    108.4947   2.7762485197e+01   2.8128247512e+01     2.532235     1.001916 -39.26  0.005520556    2.503    0.601
         2 -14.2843    240.9712     44.8864   3.9691817110e-01   2.0685778157e+01     2.465177     1.548085 -32.99   0.01477426    1.364    0.267
         3 -15.8008    242.1764    108.2549   1.4092616053e+01   1.2125748180e+01     6.382186     2.997888 -33.20   0.03260508    1.738    0.425
         4 -13.5812    218.4197     31.7401   3.5912306339e+02   2.6788556332e+01     2.916701    0.9815769 -33.23  0.008108367    2.407    0.585
         5 -12.9786    232.9524     77.8193   8.5405652221e+00   1.7947774038e+01     1.222132    0.4126698 -28.53  0.002871182    3.017    0.668
         6 -11.9018     60.9686    116.3451   5.9021932672e+01   4.5816818952e+01     1.747368     1.494566  54.77  0.009113198    1.150    0.130
         7 -11.2944    203.3678     17.8521   3.5681797239e+02   3.1673091489e+01    0.4557303    0.3231001 -56.87  0.002356004    1.190    0.160
         8 -10.8658    196.8789     16.6030   3.5698439279e+02   3.3302542862e+01    0.4260612    0.3716181  75.58  0.001896036    1.249    0.199
         9  -9.1909    120.3645      9.2618   3.0668855806e+00   5.3755501796e+01    0.2979103    0.2747546 -36.40 0.0008904171    1.191    0.160
        10 -10.5232    235.5899      2.6314   3.5134316159e+02   2.6348804745e+01    0.5121356    0.2236565  62.90   0.00266602    2.706    0.630
        11  -9.9571    182.3764      3.6416   3.5452391248e+02   3.8068882786e+01    0.3056848    0.2045654  61.95    0.0014436    1.597    0.374
        12  -9.8611    216.2211      2.3772   3.5218471721e+02   3.0392775940e+01    0.2197858    0.1935117 -76.95 0.0005345519    1.179    0.152
        13  -9.1320    247.0173      1.7576   3.5068931301e+02   2.4216019947e+01    0.2535181    0.1221157  67.14   0.00117621    2.423    0.587
        14  -9.2572    200.1032      1.8050   3.5290612253e+02   3.4040098313e+01    0.2808743    0.1488651  72.01   0.00146875    1.875    0.467
        15  -9.0502    104.0432      1.9422   2.6694249652e+00   5.8801720910e+01    0.2134008    0.1843877  64.69  0.000334541    1.052    0.050
        16 -11.3854    195.6824    196.0539   3.8644459810e+01   6.4531162894e+00    0.7946445    0.6595772  86.19  0.003846481    2.637    0.621
        17  -9.5072    249.7185    248.1525   3.7602999445e+01  -6.0015726176e+00    0.3142808    0.1400945 -25.56  0.002105548    1.988    0.497
        18  -8.8626    179.9176    195.9411   4.1655274757e+01   8.7307915595e+00    0.2008772    0.1723418 -21.47  0.000709425    1.225    0.184
        19  -9.0416     29.9041    195.2648   7.7658231689e+01   2.9789844051e+01    0.2026578    0.1705858 -82.83 0.0003661985    1.289    0.224
        20  -9.5077    226.2523    190.8708   3.2417329580e+01   3.0523233556e+00    0.2106099    0.1859737  -9.58 0.0006828765    1.327    0.246
        21  -7.8070    189.9725    244.0235   4.6931278334e+01   7.7198939600e-01    0.1381961   0.09897421  14.09 0.0004008191    1.026    0.026
        22 -13.0657    243.2550     61.1006   3.7898716059e+00   1.8254465871e+01      1.09142    0.9030858 -81.19  0.007483739    1.342    0.255
        23  -9.7320    237.0087    227.5569   3.6581104112e+01  -2.6143137732e+00    0.3922769    0.2399332  44.65   0.00235906    3.022    0.669
        24  -7.8171      1.4685    226.5229   8.5527709911e+01   2.5897895290e+01    0.1152366   0.08399731  52.04  3.60452e-05    1.010    0.010
        25 -12.4272    151.4166    147.1266   3.8636222079e+01   2.2166704501e+01     6.675897     3.235016  25.90    0.0237459    2.969    0.663
        26  -9.1952    181.8133    182.6496   3.8986986303e+01   1.0546849778e+01    0.3419951    0.2496287   2.64  0.001221787    1.363    0.267
        27 -10.0110    229.5300    181.8084   3.0305967089e+01   3.8195044500e+00     0.208658    0.1768838 -16.76 0.0007040846    1.243    0.195
        28 -14.2734    210.3984    107.8081   1.8335847355e+01   1.7787204171e+01     3.978967     1.523379  46.62   0.01630377    2.905    0.656
        29  -9.9063    179.5638    175.1010   3.8067074626e+01   1.2135562169e+01     0.257119    0.2365598 -28.25 0.0006395421    1.238    0.192
        30  -8.6664    104.9158    175.4504   5.5582135554e+01   2.4403410819e+01     0.264152    0.2040911 -41.90 0.0007269467    1.468    0.319
        31  -8.9610    236.7266    185.9075   2.9892051685e+01   2.3626140822e+00    0.2028546    0.1435603 -35.34  0.001354912    1.542    0.352
        32  -7.9039     43.5094    173.0187   7.2358831590e+01   3.3490362108e+01    0.1808239     0.098739 -47.27 0.0004033609    2.323    0.570
        33  -9.8078    177.0345    168.5080   3.7342725037e+01   1.3659649178e+01    0.3753229    0.1878478 -53.07    0.0015518    2.894    0.654
        34  -9.7129    179.1170    165.5933   3.6360961704e+01   1.3811019358e+01    0.3153848    0.1874924 -43.37  0.001305905    1.770    0.435
        35  -8.5919     31.8324    223.2059   7.8675457669e+01   2.3744857568e+01    0.1458243    0.1318334  24.41 0.0004110827    1.318    0.241
        36  -9.0484    221.7089    162.6974   2.8056184497e+01   7.5471523479e+00    0.2500699    0.2278173  70.72 0.0006455462    1.753    0.430
        37  -9.1903    197.0779    160.2487   3.1848025931e+01   1.1730897780e+01    0.3042535    0.2153466 -56.70  0.001288122    2.060    0.515
        38 -10.9239    191.2307    152.2550   3.1336995926e+01   1.4012333205e+01    0.4519866    0.4464095 -27.87  0.000912396    1.258    0.205
        39 -11.5716    134.8345    144.6509   4.2141476587e+01   2.5830047401e+01     1.442453    0.6956176 -47.52  0.005031371    2.160    0.537
        40 -10.3442    134.9262    107.0941   3.3211179406e+01   3.3851546170e+01     1.190929    0.2993424 -43.81  0.003247531    4.011    0.751
        41 -10.8303    135.8695    127.6286   3.8093763317e+01   2.9265853739e+01     0.809953    0.3565607 -56.96   0.00265843    3.175    0.685
        42 -10.5419    135.8208    119.3652   3.6119532752e+01   3.1046032891e+01    0.5475302    0.4605789 -16.20  0.002722179    1.353    0.261
        43  -9.0200    203.8435    152.3305   2.9049285911e+01   1.1885128340e+01    0.2756135    0.2144636   7.29  0.001636455    1.275    0.216
        44  -9.5294    200.4480    146.9926   2.8562363653e+01   1.3304172268e+01    0.4271313    0.2336124 -51.93  0.001262697    2.513    0.602
        45 -10.6076    173.4270    147.3517   3.3843093301e+01   1.8020181207e+01    0.5523508    0.2775938 -38.39  0.002417181    1.971    0.493
        46  -7.8724    225.9234    219.4593   3.7132423437e+01  -4.6714549147e-01     0.153263   0.09066237  27.99 0.0006046033    1.547    0.354
        47  -9.7856    213.9341    142.7591   2.5379543761e+01   1.1718503592e+01    0.3276551    0.2281517  -2.59  0.001199229    1.606    0.377
        48  -8.0312     85.4349    156.5276   5.8038425051e+01   3.1842308619e+01    0.1477666    0.1359484  51.72 0.0001337152    1.009    0.009
        49  -8.3195     82.0235    145.4688   5.7237913003e+01   3.5086500039e+01    0.2197724    0.1923436 -68.49 0.0002355491    1.188    0.158
        50 -10.3939     68.0025    144.0298   6.1414172157e+01   3.7582330105e+01    0.7561727    0.3756252  56.28  0.002880746    2.376    0.579
        51 -10.2593    192.4873    143.8928   2.9365644973e+01   1.5192340807e+01    0.3678814    0.2771897  28.60  0.001461516    1.350    0.259
        52  -7.7171     26.9536    138.9788   7.4351124343e+01   4.3786467753e+01     0.166233    0.1472771  75.35 0.0003953477    1.012    0.012
        53 -10.9230     15.7547    134.5408   7.7758721626e+01   4.5891429673e+01    0.3700143    0.2848609  11.52 0.0005539329    1.497    0.332
        54 -12.1047     22.5197    120.5309   7.4072064368e+01   4.9068322465e+01    0.8667459    0.4096141 -65.95  0.003775568    1.920    0.479
        55 -12.6511      4.0280    119.8470   8.0841746027e+01   5.0526399309e+01      1.42463    0.8075117 -68.01  0.004584835    1.618    0.382
        56 -10.2627    150.2084    128.2868   3.4732848306e+01   2.6190412436e+01    0.2990756    0.2022979 -52.85 0.0006345981    1.619    0.382
        57 -12.3956    196.2694    171.6696   3.4193050515e+01   1.0051023798e+01     0.748945    0.6567816  79.00  0.001706118    1.887    0.470
        58  -8.3889    198.8185    218.9595   4.1739709045e+01   2.8658321056e+00    0.1583491    0.1240103   0.59 0.0003081546    1.071    0.066
        59 -11.2399     31.5469    118.3829   7.0421744345e+01   4.8833550580e+01    0.4292933    0.3879301  22.90  0.001042898    1.201    0.168
        60  -9.9440    178.5622    125.3107   2.7925746777e+01   2.1032123958e+01    0.3820437    0.2196615 -19.61 0.0009047997    2.409    0.585
        61 -12.7975    178.1987    100.7423   2.2033614453e+01   2.5491934736e+01     1.988729     1.148399 -18.70  0.001206481    2.482    0.597
        62 -11.7049     47.7465    119.7243   6.4525429305e+01   4.6689089764e+01    0.9101721    0.5562958 -67.43  0.002762998    1.581    0.368
        63  -8.3158     92.8591    113.4473   4.7201970238e+01   4.1184176872e+01    0.2326696    0.2088311 -17.12 -2.207331e-05    1.272    0.214
        64  -9.4269    150.0269    111.2496   3.0604665502e+01   2.9668252576e+01      0.27292    0.2483146 -18.84 0.0005500842    1.145    0.126
        65 -11.2683     18.6191    107.1306   7.4103149216e+01   5.2978027618e+01    0.4615467    0.4116066 -75.63  0.002722849    1.055    0.052
        66  -9.7352    167.4640    106.5351   2.5597210534e+01   2.6772579137e+01    0.2697424    0.2522968 -30.14  0.001032958    1.038    0.037
        67 -10.1748    122.4981    104.7442   3.5909629808e+01   3.7105202529e+01    0.5888575    0.3444031  62.41  0.001706668    2.278    0.561
        68  -9.4858    143.7084    103.2626   3.0005583876e+01   3.2680828088e+01    0.3690337    0.2697655  62.11 0.0007877769    1.522    0.343
        69 -12.1729    247.9610    149.8769   2.1671939103e+01   5.5821656264e+00     0.908694    0.4823858 -50.36    0.0044541    2.982    0.665
        70  -8.4329     67.8401     94.9057   5.1585777291e+01   5.0344867874e+01     0.215809    0.2010816 -25.69 0.0002655688    1.153    0.133
        71 -11.6715    244.1568    179.3608   2.7618898881e+01   2.2629719734e+00    0.6866415    0.4245247  40.79  0.001955387    2.009    0.502
        72  -9.8133    194.3750     89.5590   1.6438700206e+01   2.3903232744e+01    0.4196624    0.2411596 -28.01  0.001512625    1.788    0.441
        73  -8.0850    197.5636     85.7406   1.4992415629e+01   2.3834047840e+01    0.2200778    0.1273769 -35.22 0.0008618167    1.570    0.363
        74  -7.3109    148.7139     83.6730   2.3357531307e+01   3.5339003356e+01    0.1519458    0.1226604   8.56 0.0004400848    1.609    0.378
        75  -8.7471    136.0131     81.6287   2.5696623943e+01   3.8787150324e+01    0.2646475    0.2252615 -32.24 0.0003769055    1.235    0.190
        76  -7.9168    119.7848     82.1958   3.0117117675e+01   4.2561043733e+01    0.1984036    0.1788974  20.19 0.0002566296    1.239    0.193
        77 -12.3420     39.7427    117.4848   6.7184479004e+01   4.8225358066e+01    0.9693059    0.7755628 -59.21  0.002942179    1.241    0.194
        78  -8.1675    139.3562     79.2715   2.4179581449e+01   3.8428111359e+01    0.1569145    0.1214391  22.96 0.0006868905    1.642    0.391
        79  -9.1583     89.0053     70.2106   3.5940090636e+01   5.2155179149e+01    0.2472901    0.2205346 -44.95 0.0003870776    1.143    0.125
        80  -8.9186    160.4160     69.4032   1.6775597500e+01   3.5023027952e+01    0.2810001     0.227953 -63.55 0.0009581184    1.265    0.209
        81 -10.0781    173.4682     65.1845   1.3276757264e+01   3.2536941719e+01    0.3830171    0.2075523 -56.17  0.001406636    2.111    0.526
        82  -8.7688    181.7222     62.9750   1.1375007143e+01   3.0913312771e+01    0.2536981    0.2004728 -46.08 0.0004683528    1.167    0.143
        83  -9.2296    184.7738     59.7657   1.0047948693e+01   3.0674552189e+01    0.3816716     0.250159  55.78  0.001342588    1.621    0.383
        84  -9.7816    196.2219     56.4901   7.6465516244e+00   2.8504047324e+01    0.3937485    0.2749566 -28.30  0.001861443    1.441    0.306
        85 -10.6237    199.8751     49.3980   5.3508689373e+00   2.8650067606e+01    0.5271347    0.3752682   4.74  0.002461786    2.139    0.532
        86  -8.5186    201.0402     42.7148   3.4791174473e+00   2.9263401348e+01    0.1742049    0.1592211 -68.06 0.0002971367    1.081    0.075
        87 -10.6028    209.7059     57.6801   6.3551511012e+00   2.5364732456e+01    0.4566345     0.341358   7.70 0.0006945945    1.939    0.484
        88 -10.4681    205.5893     56.0827   6.4207962821e+00   2.6474506034e+01    0.4852009     0.279754 -12.12  0.002095641    2.639    0.621
        89  -8.7201    144.3281     59.7119   1.6935638705e+01   4.0664318021e+01    0.2621732    0.2168725 -64.50 0.0005960757    1.236    0.191
        90  -9.0694    189.5469     56.9208   8.6191660260e+00   2.9973817849e+01    0.2402569    0.1632799 -31.60 0.0003171116    1.432    0.302
        91  -9.6577    170.0046     56.5224   1.1328584831e+01   3.4709191523e+01     0.238492    0.1902449 -38.85  0.001251366    1.215    0.177
        92  -9.7178    181.8401     49.3812   7.5595952695e+00   3.2860532611e+01    0.3296224    0.2063235  17.42  0.001078688    3.036    0.671
        93 -10.1899    160.7954     50.3517   1.0949196751e+01   3.7929119276e+01     0.369213    0.1836244  79.83  0.001359251    2.680    0.627
        94 -12.0762    204.7328    169.1181   3.2169998889e+01   9.1415169033e+00     1.568042    0.6893036 -47.50  0.003946364    3.038    0.671
        95 -10.4009    192.1222     48.0263   5.8890888635e+00   3.0612399054e+01    0.4053117    0.3339959  65.42  0.001450609    1.297    0.229
        96 -10.4695    180.4657     43.2035   5.9860234897e+00   3.4036930304e+01    0.5141266    0.3991398  64.77  0.002329609    1.331    0.249
        97  -9.1507    196.0096     40.5400   3.4385053995e+00   3.0693948000e+01    0.2551737    0.1924381 -31.47  0.000691089    1.314    0.239
        98 -10.0795    192.0441     40.2063   3.7800680715e+00   3.1661032397e+01     0.467658    0.4581534  23.04  0.002134106    1.241    0.194
        99  -8.2607    164.1878     41.1294   7.5807843075e+00   3.8372202294e+01    0.1993986    0.1950843  22.86  0.000566081    1.195    0.163
       100  -8.6947    149.5197     31.4829   6.6687428799e+00   4.3445302808e+01    0.2523197     0.147869 -10.97  0.001035704    2.437    0.590
       101  -7.6269     84.7846     29.3988   2.0618517510e+01   6.0689161689e+01    0.1457272    0.1074207 -58.23 0.0006844239    1.633    0.388
       102  -9.3757    178.9268     23.9632   6.2595549845e-01   3.6807048020e+01    0.3922143    0.3025141 -47.53   0.00222181    1.185    0.156
       103  -8.5743    125.2049     25.0162   8.4614174540e+00   5.0742871881e+01    0.2462748    0.2052452   8.78  0.001100685    1.476    0.322
       104  -9.4357     85.5921    218.2504   6.5743516626e+01   1.8422333266e+01    0.2061813    0.1840182  23.17  0.000441047    1.174    0.148
       105  -9.1141    221.3676    216.5685   3.7439186002e+01   4.0951342039e-01    0.2100507    0.1999689  43.42  0.001006792    1.933    0.483
       106  -8.4167     90.0507     18.0671   1.3508487911e+01   6.0879799733e+01     0.211613    0.1973583  78.88 0.0002993675    1.085    0.078
       107  -8.5215    190.4663     15.0554   3.5707335916e+02   3.4979555936e+01    0.1950077    0.1190589 -32.61 0.0006620943    1.559    0.359
       108  -8.4740     43.4933     15.4837   3.1281237796e+01   7.1822984809e+01    0.1351456    0.1222279  15.01 0.0008103339    1.022    0.021
       109  -8.4160     96.1524     13.0976   9.5226817696e+00   5.9855243378e+01    0.2191102    0.1834166  35.78 0.0007083137    1.240    0.194
       110  -8.7250    215.6702    212.4097   3.7749536858e+01   1.6103445505e+00    0.2272892    0.1849363  54.92  0.001330858    2.375    0.579
       111  -7.7077    106.3685     17.8618   9.3489182567e+00   5.6631563183e+01    0.1772613    0.1404482  -2.40 0.0002117335    1.513    0.339
       112  -8.1278    250.1951    212.3562   3.2219635128e+01  -2.3433255640e+00    0.1461484    0.1061751   4.28 0.0003455809    1.117    0.105
       113  -9.0849    250.4811    187.1451   2.8037919509e+01   5.3989179039e-01    0.3249587    0.1056385 -36.34  0.001281534    2.782    0.641
       114  -8.8283    245.6504    208.7134   3.2324242046e+01  -1.4407682445e+00    0.2361832    0.1830849 -48.71  0.001600065    2.498    0.600
       115  -8.5028    214.2008    206.0548   3.6982716318e+01   2.6079158499e+00    0.1965354     0.180611  82.80  0.001337396    2.234    0.552
       116  -7.8510    177.1329    205.7838   4.3806055612e+01   7.6251614582e+00    0.1652156    0.1207449   3.39 0.0003499077    1.273    0.215
       117  -9.2363      9.5925    206.1966   8.3153562218e+01   2.9309974545e+01     0.157812    0.1014025 -73.51 0.0009558097    1.723    0.420
