#   1 NUMBER                 Running object number                                     
#   2 MAG_AUTO               Kron-like elliptical aperture magnitude                    [mag]
#   3 X_IMAGE                Object position along x                                    [pixel]
#   4 Y_IMAGE                Object position along y                                    [pixel]
#   5 X_WORLD                Barycenter position along world x axis                     [deg]
#   6 Y_WORLD                Barycenter position along world y axis                     [deg]
#   7 A_WORLD                Profile RMS along major axis (world units)                 [deg]
#   8 B_WORLD                Profile RMS along minor axis (world units)                 [deg]
#   9 THETA_WORLD            Position angle (CCW/world-x)                               [deg]
#  10 FWHM_WORLD             FWHM assuming a gaussian core                              [deg]
#  11 ELONGATION             A_IMAGE/B_IMAGE                                           
#  12 ELLIPTICITY            1 - B_IMAGE/A_IMAGE                                       
         1 -17.7246    182.1878    151.0805   1.0120747070e+02   1.4582127356e+01     4.925213     3.079198 -57.57   0.02070462    1.851    0.460
         2 -17.5991    169.8727    101.9013   9.1810949120e+01   2.7642469058e+01     4.154519     2.770821  44.02   0.01655083    1.560    0.359
         3 -17.7630    149.1552     76.6846   8.9459854510e+01   3.7388615351e+01     4.413276     2.963702 -58.51   0.01966362    1.774    0.436
         4 -15.9756      6.6640      9.0588   1.1289768889e+02   7.1005923632e+01      1.15769    0.5821179 -28.15  0.007637791    1.574    0.365
         5 -12.8821     49.7381    227.9816   1.4216168053e+02   2.1556372217e+01    0.3076203    0.1709446  60.18   0.00122062    1.523    0.343
         6 -16.1874    246.2249    217.2986   1.0221295607e+02  -9.4645319780e+00     2.186001    0.8329955 -39.70  0.009672101    2.707    0.631
         7 -16.0528    238.5707    246.0786   1.0862941885e+02  -1.2206195452e+01     1.398536     1.109562   1.58  0.009658485    1.121    0.108
         8 -15.2176    223.1281    248.2382   1.1175673663e+02  -1.0141055103e+01    0.9856371    0.5769275  51.79  0.005238864    2.210    0.547
         9 -15.3445    227.4488    241.8895   1.0992605866e+02  -9.9623577555e+00    0.9028904    0.6113669  47.42  0.005364146    1.668    0.400
        10 -13.6724    209.2640    250.2407   1.1461115061e+02  -8.2218146984e+00    0.6852008     0.141127  39.80  0.002296452    4.162    0.760
        11 -15.5144    193.1660    248.7493   1.1737043880e+02  -5.3764673083e+00     1.141517    0.7140056  50.27  0.006389403    1.626    0.385
        12 -16.3523    174.6892    241.4259   1.1976815173e+02  -1.1054974064e+00     1.408361     1.141332  74.44   0.00818337    1.560    0.359
        13 -15.4688    161.7402    244.1031   1.2265605129e+02   7.1025736285e-01    0.9921201    0.7568944  78.79  0.005806216    1.698    0.411
        14 -15.0748    163.7517    236.3495   1.2112904909e+02   1.6523497272e+00    0.9258623    0.6596981  87.60  0.004837537    2.147    0.534
        15 -16.1634     67.2274    178.0581   1.3312967137e+02   3.0127029031e+01     2.046403     1.617621  60.99   0.01216748    1.218    0.179
        16 -17.5045     93.8554    235.3364   1.3463535556e+02   1.3746000753e+01     3.601071     1.661726  62.61   0.01617426    2.436    0.590
        17 -17.2610     75.9669    203.4370   1.3450021458e+02   2.3113488997e+01     2.893211      1.43627  43.59    0.0130599    1.915    0.478
        18 -13.7815     68.5504    249.8086   1.4068843754e+02   1.4756071828e+01    0.3552202    0.1998191  50.63  0.001323731    1.458    0.314
        19 -14.2771     67.9729    245.4286   1.4040722841e+02   1.5660632177e+01    0.6434458    0.3134134  57.18  0.003503344    1.718    0.418
        20 -17.3199     11.7644    240.0133   1.4950881479e+02   2.3640901109e+01     1.799144    0.9620212  75.86   0.01192818    1.438    0.305
        21 -13.4908     41.4874    219.4933   1.4294890505e+02   2.4336179827e+01    0.3992874    0.3250873  66.14  0.002408571    1.197    0.165
        22 -16.0701    175.2101    213.2484   1.1510630678e+02   3.6321349676e+00     1.137847    0.9167507 -37.77  0.005567581    1.378    0.274
        23 -15.6606    173.0214    201.9281   1.1355233956e+02   6.1653931571e+00     1.245936    0.9166197   5.87  0.006046723    1.901    0.474
        24 -16.0265     23.1018    208.4074   1.4544325766e+02   2.8770839502e+01       1.1515      0.56069  57.31  0.006317038    1.828    0.453
        25 -16.6309      6.4616    199.4230   1.4783998801e+02   3.2328820018e+01     1.940188    0.8458634 -78.56   0.01090976    1.802    0.445
        26 -13.8826     31.0659    197.1279   1.4297115619e+02   3.0322697784e+01    0.4379243    0.2827919  82.79  0.001601095    1.299    0.230
        27 -15.8640    137.4415    236.2964   1.2628805930e+02   6.2966759711e+00     1.301981     1.046558 -88.17  0.006128665    1.399    0.285
        28 -14.5947     32.0768    230.2506   1.4548845572e+02   2.3277893535e+01    0.5367894     0.461975 -47.59  0.003485847    1.890    0.471
        29 -14.0005     44.1814    230.9651   1.4341235199e+02   2.1664116997e+01    0.5101591    0.2130437  44.07  0.002182168    2.140    0.533
        30 -15.7247    246.6360    171.4403   9.3152900090e+01  -2.3300050835e+00    0.9844721    0.6851789 -15.76  0.005152003    1.565    0.361
        31 -16.1413     48.7244    157.9362   1.3467265848e+02   3.7246067975e+01     1.825605     1.237054 -88.25   0.01016576    1.417    0.294
        32 -15.8344     30.3677    148.6897   1.3785922691e+02   4.1395693382e+01     1.326678    0.9197943 -51.56  0.007264994    1.471    0.320
        33 -16.0452     12.3680    161.7673   1.4350061104e+02   4.0039099236e+01     1.686171    0.7973444  62.16  0.008685228    2.355    0.575
        34 -16.4827     15.1654    149.9393   1.4162342763e+02   4.2482977677e+01     1.866633     1.304281 -70.18   0.01191224    1.148    0.129
        35 -15.2135    239.8997    156.9045   9.1264607284e+01   1.4321237434e+00    0.7572463    0.6090719  65.61  0.004122774    1.564    0.361
        36 -14.2376     67.9087    154.2753   1.2941453136e+02   3.5650610101e+01    0.7283645    0.3901599  48.13  0.002829333    1.971    0.493
        37 -14.3551     26.4415    110.0779   1.3308920730e+02   5.0635637286e+01     0.730526    0.3534823 -61.63  0.003785851    1.632    0.387
        38 -15.8060     33.7401     99.1295   1.2884777669e+02   5.2434110388e+01     1.060706    0.8208386  -4.42  0.006673425    1.585    0.369
        39 -14.7439     10.5529    107.9277   1.3728936116e+02   5.2311879295e+01    0.5601333    0.3277647   9.85  0.003293787    2.367    0.577
        40 -14.8590    102.0746     95.3291   1.0712300580e+02   4.3814479229e+01    0.9967934    0.7799324 -39.58  0.005169319    1.235    0.190
        41 -14.5692     97.6883     82.3428   1.0469579871e+02   4.7278425348e+01    0.8816865     0.526082 -59.15  0.003812201    2.166    0.538
        42 -14.1577     59.5485     97.8608   1.2057304552e+02   4.9908663820e+01    0.6065556    0.3394028  22.95   0.00290068    2.236    0.553
        43 -14.9447     49.5236     91.2829   1.2214922787e+02   5.2535977095e+01     0.787433    0.4794335 -25.86   0.00396922    2.006    0.502
        44 -15.8540    247.8252     68.9046   7.0533323145e+01   1.5105742134e+01     1.506706    0.4308406 -40.96  0.005439033    2.960    0.662
        45 -14.5700    222.8103    170.6628   9.7307320602e+01   2.2570629655e+00     1.070439    0.4556794 -43.41   0.00422592    2.330    0.571
