#   1 NUMBER                 Running object number                                     
#   2 MAG_AUTO               Kron-like elliptical aperture magnitude                    [mag]
#   3 X_IMAGE                Object position along x                                    [pixel]
#   4 Y_IMAGE                Object position along y                                    [pixel]
#   5 X_WORLD                Barycenter position along world x axis                     [deg]
#   6 Y_WORLD                Barycenter position along world y axis                     [deg]
#   7 A_WORLD                Profile RMS along major axis (world units)                 [deg]
#   8 B_WORLD                Profile RMS along minor axis (world units)                 [deg]
#   9 THETA_WORLD            Position angle (CCW/world-x)                               [deg]
#  10 FWHM_WORLD             FWHM assuming a gaussian core                              [deg]
#  11 ELONGATION             A_IMAGE/B_IMAGE                                           
#  12 ELLIPTICITY            1 - B_IMAGE/A_IMAGE                                       
         1 -15.4223      6.1730     79.2772   6.8837627411e+01   6.1764783866e+01      5.35992      1.97182 -70.76   0.02122831    2.355    0.575
         2 -14.5391     46.3753     41.2797   3.5378342707e+01   6.6044059583e+01      3.35304     2.091138  -3.42   0.01312246    3.067    0.674
         3 -15.2190     76.7382     38.5672   2.1301721586e+01   6.0244415979e+01     3.221744     2.695427  10.50   0.01720535    1.430    0.301
         4 -15.1449     92.6009      8.8548   3.3908590566e+00   6.0154474003e+01     4.632752     1.295233  63.57   0.01663479    2.849    0.649
         5 -14.0580    119.5326     79.5203   2.3685717662e+01   4.2696760803e+01     1.965062     1.703548  59.43   0.00699777    1.149    0.129
         6 -14.1601     12.4586     22.5847   4.7738988322e+01   7.4674730449e+01     2.855587     1.484354 -33.28    0.0137526    2.067    0.516
         7  99.0000     32.6397     26.8959   3.5846804542e+01   7.1073075597e+01     2.701842     0.739819 -46.34  0.009212639    3.793    0.736
         8 -11.2466    241.7986     22.8210   3.5244048468e+02   2.3996245983e+01    0.7035291    0.2883028 -73.09  0.003480394    2.798    0.643
         9 -11.3989    237.0773     20.3213   3.5216647135e+02   2.5136122875e+01    0.4793517    0.2072221  79.29  0.001647585    2.526    0.604
        10 -11.2576    208.0215     18.0632   3.5334947748e+02   3.1120123497e+01    0.4224539    0.2423036 -58.38  0.001832948    1.439    0.305
        11 -11.3171    139.5164     16.3099   3.5893057138e+02   4.7361696457e+01    0.5061989    0.3864991 -84.59  0.001973861    1.185    0.156
        12 -10.0867    143.6384     13.7094   3.5759032460e+02   4.6590598969e+01    0.2563662    0.1761969  56.72 0.0008838061    1.537    0.349
        13 -11.6876    174.8241     12.9922   3.5442484361e+02   3.9051289080e+01    0.4059743      0.30349 -89.90 0.0008853683    1.224    0.183
        14 -12.3117    184.5196     10.9886   3.5316004941e+02   3.7016998444e+01    0.5439585     0.400141  71.37  0.002311168    1.432    0.302
        15 -13.1145    170.5465      4.5870   3.5241148327e+02   4.0898682717e+01     0.874633     0.657545  73.66  0.004687009    1.344    0.256
        16 -12.5178    180.1225      6.4112   3.5224902138e+02   3.8485291658e+01    0.5510239    0.5271775  37.19  0.003579177    1.401    0.286
        17 -12.1411    151.7710     19.7337   3.5859502298e+02   4.3908805964e+01    0.5486685    0.3625775 -87.97  0.001086591    1.432    0.302
        18  -9.9261     49.5289     13.7730   1.9151772829e+01   6.9880799635e+01    0.2206165     0.131859 -23.06  0.001088807    1.888    0.470
        19 -10.1209    228.4568     11.0032   3.5060992248e+02   2.7762788010e+01    0.2682256    0.1505522  72.69  0.001632912    1.964    0.491
        20 -10.1303    202.2664     11.1659   3.5205399260e+02   3.3076656290e+01    0.1968303    0.1496325  78.13 0.0006913926    1.393    0.282
        21 -10.1801    155.2344     10.1338   3.5527960740e+02   4.4060143088e+01    0.2931744    0.1603056 -65.46 0.0007814582    1.752    0.429
        22 -11.0989    150.9374      7.9841   3.5501642122e+02   4.5333384370e+01    0.3492139    0.2491119 -80.77   0.00123444    1.242    0.195
        23 -10.9499    147.1570      5.1431   3.5447236613e+02   4.6542368403e+01    0.4566254     0.277668  39.09  0.002245391    2.253    0.556
        24  -9.3423    210.4144      9.1776   3.5111855321e+02   3.1564576920e+01    0.1699309   0.08416794 -43.71 0.0004936032    1.558    0.358
        25  -9.9039     51.8812      8.4613   1.4893554964e+01   7.0004714323e+01    0.3349589    0.1838549  51.38  0.001659228    1.614    0.380
        26 -12.2485    138.1442      4.8019   3.5523366067e+02   4.8839989066e+01    0.4925728    0.3939352  81.15  0.001380748    1.135    0.119
        27 -11.2231    132.8598      2.8373   3.5510825346e+02   5.0355504697e+01    0.3042364    0.2254784 -80.12 0.0004325809    1.199    0.166
        28 -11.0136    215.3998      2.3072   3.4929403208e+02   3.1230332871e+01    0.2869862    0.1625282 -73.94  0.001723641    1.543    0.352
        29  -9.7168    204.2022      3.1707   3.5002830090e+02   3.3471347297e+01    0.1752314    0.1072137 -64.21 0.0007971771    1.326    0.246
        30 -11.4337    193.2089      2.6594   3.5048270548e+02   3.5899145680e+01    0.3701178    0.1876336 -88.04  0.001960376    1.854    0.461
        31  -9.9769    155.1072      1.7113   3.5272821460e+02   4.4886450855e+01    0.2314943    0.1565717  65.14 0.0008778958    1.499    0.333
        32 -11.7721    144.8696     91.1283   2.1164930322e+01   3.4586637781e+01    0.2697096    0.2426767  82.09 0.0003003075    1.136    0.119
        33 -10.9824    116.9393     65.6043   1.9903303739e+01   4.5965263470e+01    0.4699204    0.3248249 -23.79   0.00165944    1.839    0.456
        34  -9.7767    239.1569     88.1468   6.3291351067e+00   1.6214104949e+01    0.1690844    0.1172654 -52.85 0.0009833795    1.322    0.244
        35 -10.3461    157.7265     87.5683   1.7620855767e+01   3.2352314026e+01    0.2868168    0.2405233  25.73  0.001081077    1.493    0.330
        36 -10.1954    151.9359     87.4798   1.8717416075e+01   3.3672587955e+01    0.3900332    0.2477594  77.59  0.001375795    2.117    0.528
        37 -11.4124    248.7268     85.1925   4.7804604108e+00   1.5065422860e+01      0.38129    0.2205541 -48.64  0.001727809    1.464    0.317
        38 -11.1874     41.2069     93.3347   5.5114383505e+01   5.4646311670e+01    0.6433563    0.3339764 -71.13  0.002591141    2.061    0.515
        39 -11.0774    174.7802     81.1064   1.2950122417e+01   2.9693659834e+01    0.3429186    0.2431464 -50.61 0.0007625766    1.298    0.230
        40  -9.3495    177.7491     78.3566   1.1775332417e+01   2.9498986810e+01    0.1980393    0.1431803  70.52 0.0004040322    1.512    0.339
        41 -11.0696     72.9541     80.9198   3.8706974766e+01   5.2555436604e+01    0.6002695    0.2344885  43.11  0.002083929    2.541    0.606
        42 -11.2182    234.7998     75.2302   4.0526236148e+00   1.8736395315e+01    0.3014425    0.2200802 -41.34  0.001096414    1.086    0.079
        43  -9.7751    206.4637     75.6646   7.2109970516e+00   2.3941593592e+01    0.2303156     0.149819 -80.04  0.001192239    1.950    0.487
        44  -9.8127    197.0598     74.9153   8.2005278637e+00   2.5948914468e+01    0.3003708     0.165088 -77.05  0.001233277    2.978    0.664
        45 -10.1262     55.3478     74.5317   4.3818903258e+01   5.7255996536e+01    0.2950828    0.1809711 -51.56 0.0009608369    1.597    0.374
        46  -9.5251    250.4767     74.4686   2.4571471281e+00   1.6206352384e+01    0.1178356   0.08909546 -43.29 6.747859e-05    1.004    0.004
        47 -10.0953    169.4970     74.0889   1.1946821707e+01   3.2027220298e+01    0.1970401    0.1812818 -83.98 0.0003460163    1.084    0.077
        48  -9.3416    176.1283     73.6004   1.0785875105e+01   3.0625315247e+01    0.1954333    0.1246132  48.18 0.0009448264    1.818    0.450
        49  -9.4244    144.0208     73.3382   1.6292093798e+01   3.8062699164e+01    0.1993575    0.1756027  75.19 0.0002447657    1.133    0.117
        50 -11.6258     96.0024     71.0817   2.7559291345e+01   4.9832693003e+01    0.3071723    0.3035701 -16.14 0.0005050657    1.099    0.090
        51  -9.5253    218.5230     71.6551   4.9242354582e+00   2.2190662931e+01    0.1864696    0.1184764  66.52 0.0007976491    1.836    0.455
        52 -11.1065    104.7970     66.2492   2.3324757476e+01   4.8748689595e+01    0.7107173    0.3591373 -56.75  0.002600481    2.515    0.602
        53 -10.6752    108.2123     60.6767   2.0470096555e+01   4.8969943602e+01    0.3876909    0.3022319  37.16  0.001059893    1.459    0.315
        54  -9.1556    162.5328     69.4141   1.1804821985e+01   3.4384675071e+01    0.1424256    0.1298296 -67.01 4.032004e-05    1.015    0.015
        55  -9.9974    200.0496     68.0875   6.1745962457e+00   2.6354377130e+01     0.209823    0.1836648  82.89 0.0006742277    1.234    0.189
        56 -11.1231    169.6896     61.8962   8.6085975106e+00   3.3924016891e+01    0.5836642    0.2901568 -51.50  0.001903586    1.974    0.493
        57  -9.9184    185.0152     61.9654   6.5115416648e+00   3.0459933377e+01    0.2024518     0.194075  -1.49   0.00126084    1.294    0.227
        58  -9.1532    165.3531     62.2953   9.3720539394e+00   3.4867169301e+01    0.2207769    0.1288788  58.59 0.0006832715    1.778    0.438
        59 -12.3880     96.9485    124.9652   4.2350857251e+01   3.7321707545e+01    0.4958601    0.3122102  42.39  0.002161617    1.564    0.361
        60 -11.8615    214.5656     60.7650   2.8473656914e+00   2.4473861279e+01    0.3847749    0.2975872 -78.63  0.001081618    1.332    0.249
        61 -13.5791     84.2136    129.1329   4.7184046232e+01   3.8608214965e+01       1.3082    0.6853633  60.58   0.00458437    2.766    0.638
        62  -9.1675    212.8483     76.3887   6.6286910934e+00   2.2591540592e+01    0.1500189    0.1199592  51.15 0.0004150346    1.524    0.344
        63 -11.5331    124.5564     57.1412   1.5307348267e+01   4.5583495127e+01    0.3887239    0.2782763  57.87 0.0006495216    1.374    0.272
        64 -11.4039    119.5196     52.8817   1.4986071531e+01   4.7538114624e+01    0.5792167    0.3764588 -45.03  0.001815162    1.527    0.345
        65 -11.6547    114.1921     50.8225   1.5495486508e+01   4.9199517477e+01     1.184065    0.6506875  81.63  0.004353336    2.756    0.637
        66  -9.5494    183.2435     57.4119   5.5538203477e+00   3.1520609998e+01    0.1800818    0.1249139  86.65 0.0007581605    1.555    0.357
        67 -10.3644    174.2135     56.1339   6.3939753723e+00   3.3750380043e+01    0.2210174    0.1994821 -73.52 0.0004577741    1.058    0.055
        68 -10.5276    208.9232     54.6554   1.9830316576e+00   2.6434611800e+01     0.338571    0.1795963  56.91  0.001733781    2.194    0.544
        69 -10.2417    204.3332     93.3313   1.1584170127e+01   2.1654292012e+01    0.3531995    0.2388226 -67.25  0.001850812    1.781    0.439
        70 -10.3323    126.3645     50.3549   1.2642840068e+01   4.6235108997e+01    0.2667938    0.2419922  88.22 0.0008661163    1.033    0.032
        71 -11.3020    138.3892     43.3705   8.0524816412e+00   4.4267209332e+01    0.5803514    0.4215003 -27.06  0.002578773    1.545    0.353
        72 -12.5024    122.0299     43.7593   1.1261851702e+01   4.8335685754e+01    0.5840287    0.3810401  58.99  0.001341485    1.475    0.322
        73 -10.7548    130.9787     45.5012   1.0093789959e+01   4.5818873141e+01    0.3984956    0.2286128  66.99  0.001607892    1.711    0.416
        74 -11.1907    130.0819     38.1001   7.7475208282e+00   4.7107809265e+01    0.7296296    0.3155935 -30.10  0.002035326    2.485    0.598
        75  -9.9005    213.5116     50.0777   4.6798914787e-01   2.6119898965e+01    0.2158899    0.1496608 -71.49 0.0005095411    1.419    0.295
        76 -10.1847    101.4195     49.9442   1.8408050330e+01   5.2493864623e+01    0.2997612    0.2083298  80.62  0.001363569    1.708    0.414
        77  -9.5464    223.3748     45.5692   3.5858397301e+02   2.4760485102e+01    0.2014336    0.1140916  83.70  0.001109753    2.022    0.505
        78  -9.4640    175.5212     44.4848   3.0449265047e+00   3.5098120042e+01    0.1392734    0.1167873 -63.81 0.0008099056    1.032    0.031
        79 -11.7236    157.6802     42.8314   4.8893965768e+00   3.9567966751e+01    0.4549137    0.2697536  71.86   0.00130824    1.681    0.405
        80  -9.9087    203.5093     42.7997   3.5965661223e+02   2.9122094123e+01    0.2248816    0.1529731  51.64 0.0008270228    1.860    0.462
        81 -11.8972    226.7535     40.0173   3.5708276114e+02   2.4801332218e+01    0.4319676    0.2441507 -73.22 0.0009089383    1.868    0.465
        82 -13.2695    213.6028     39.2219   3.5792638135e+02   2.7489580942e+01    0.3657168    0.2840682  73.10 0.0006850203    1.442    0.306
        83 -10.9782    180.1838     41.0318   1.5681530447e+00   3.4485161746e+01    0.3325498    0.2345206 -82.14 0.0006840039    1.402    0.287
        84 -11.5246    174.6410     38.2821   1.4411369567e+00   3.6128295864e+01    0.5992999    0.3053827  68.60  0.002414156    1.965    0.491
        85  -9.4881    196.8015     40.7857   3.5979038926e+02   3.0812763886e+01    0.1826536    0.1235909 -58.02 0.0004867331    1.279    0.218
        86 -11.2048    159.7548     36.0560   2.5973764505e+00   3.9971426836e+01    0.2612214    0.2241987  88.97 0.0004377329    1.103    0.093
        87 -11.8808    150.8652     32.0169   2.5329185464e+00   4.2676722274e+01    0.4979338    0.3970985  51.38  0.001503358    1.426    0.299
        88 -11.4799    239.5155     33.9963   3.5490952444e+02   2.3141616807e+01    0.3891083     0.221075  65.51  0.002376918    2.105    0.525
        89 -11.5894    175.4116     31.2436   3.5941336104e+02   3.6838569180e+01    0.5811222    0.4742235 -68.95  0.001892413    1.055    0.052
        90 -10.1788    249.5168     31.3999   3.5377862181e+02   2.1664370009e+01    0.1851225    0.1211327 -88.53 0.0007046434    1.650    0.394
        91 -10.5323    103.1094     30.1586   1.0245460972e+01   5.5052977868e+01     0.340119    0.2040784  59.25 0.0009205028    1.540    0.351
        92 -10.4865    107.2793     27.5895   8.2996600591e+00   5.4325813496e+01    0.4031133    0.2213593  66.47   0.00140578    1.702    0.412
        93  -9.9321    223.4834     29.5051   3.5497194483e+02   2.6689843107e+01    0.2601776    0.1124716  77.27  0.001310722    2.532    0.605
        94 -11.0584    168.7319     27.2142   3.5897989500e+02   3.8906508572e+01    0.3784866    0.2243722  84.17  0.001476358    1.666    0.400
        95  -9.7404    216.0801     27.1964   3.5494935629e+02   2.8430935086e+01     0.166778    0.1534512 -72.33 0.0006638069    1.238    0.192
        96 -11.2722     90.2728    145.6150   4.8620254642e+01   3.3465797180e+01    0.2734478    0.2011771  25.28  0.001029107    1.477    0.323
        97 -10.8356     60.3723    145.1701   5.7773810990e+01   3.8266609426e+01    0.3546106    0.2215228  47.62   0.00160863    1.548    0.354
        98  -9.7838    157.7699     19.2459   3.5779367424e+02   4.2479863745e+01    0.2197155    0.1703183  74.86 0.0003344817    1.253    0.202
        99  -9.1805    200.5424     21.5251   3.5469442381e+02   3.2324986205e+01    0.1283353   0.09964657 -59.78 9.691612e-05    1.026    0.025
       100  -9.4562     48.7515     20.8910   2.3699773477e+01   6.9069279723e+01    0.2074605    0.1637926  22.32  0.001162636    1.327    0.246
       101  -9.8263    223.0182     19.6748   3.5280430708e+02   2.7894547447e+01    0.1639791    0.1250001 -68.40 0.0003855702    1.134    0.118
       102 -11.9824      3.1883    139.4295   7.6278602987e+01   4.5864609024e+01    0.7453208    0.3474171 -85.57  0.003296584    1.968    0.492
       103 -10.6610    200.9254     16.2794   3.5338238883e+02   3.2821596831e+01    0.1998123    0.1743985 -46.25 0.0003271622    1.211    0.174
       104 -12.4007    191.1157    248.7139   4.2266651969e+01  -2.1562913404e-01     0.669867    0.1840784  28.10   0.00299079    3.280    0.695
       105  -9.7812    214.3120    232.6349   3.6118031297e+01  -7.0566329903e-01   0.08875995   0.08563945  15.45 0.0007039183    1.759    0.432
       106  -9.8356    244.5358    181.4784   2.3410371273e+01   2.4634281258e+00    0.1111334   0.08431685 -17.62 0.0001181118    1.013    0.013
       107  -9.8933    218.4995    120.5286   1.5584055362e+01   1.4876556290e+01    0.1267014    0.1058786 -34.31 0.0002608438    1.003    0.003
       108  -9.4760    167.6430    118.8985   2.3571467363e+01   2.4445806245e+01    0.2904961    0.1267916 -34.74  0.001095297    2.472    0.596
       109 -11.3407    129.3908    115.4350   3.1137804381e+01   3.3004584935e+01    0.4551246    0.3083082 -54.36  0.001745224    1.507    0.337
       110 -10.5835    183.0708    115.4236   1.9948020829e+01   2.2060130319e+01    0.4756473    0.2204247  43.50  0.002020614    2.465    0.594
       111 -12.9511     73.3396    108.5531   4.6173271436e+01   4.5725817775e+01     1.177319    0.7689106  70.46  0.004624798    2.055    0.513
       112 -12.5310     76.3678    103.5010   4.3853082630e+01   4.6453998794e+01    0.8886839    0.5438267  59.72  0.003596993    1.998    0.500
       113 -10.7487    228.1328    179.5075   2.5451247305e+01   4.7052830556e+00    0.3196013    0.2642262 -63.99  0.002125488    2.072    0.517
       114  -9.6312    208.9534    102.4584   1.3014369273e+01   1.9357241744e+01    0.1714287    0.1301698  55.47 0.0004945576    1.542    0.351
       115 -10.9011    171.8303    101.8244   1.8689566902e+01   2.6731665944e+01    0.4642467     0.230739  61.52   0.00146396    2.518    0.603
       116 -13.0072    112.6756     94.6911   3.0001746987e+01   4.1105995129e+01    0.6768873    0.5703086 -89.30  0.001820431    1.310    0.236
       117 -13.5880     76.5602    138.8577   5.1526446151e+01   3.7434163493e+01      1.21146     0.771201 -80.03  0.005178367    1.899    0.473
       118 -10.0124    201.0318     92.9806   1.1955982973e+01   2.2344007297e+01    0.4139268    0.2501369  81.95 0.0003526132    2.574    0.612
       119  -9.9518    249.6790    107.6845   9.1622897482e+00   1.1855763622e+01    0.1118924    0.0816647  -8.93 0.0007040779    1.659    0.397
       120 -12.8449     82.4305    133.5819   4.8659383901e+01   3.7796099477e+01    0.6077877    0.4179284  81.01  0.002620876    1.894    0.472
       121 -11.0974    188.5099     93.1761   1.3822347671e+01   2.4793378408e+01    0.3846485    0.2714615  86.67  0.001877848    1.861    0.463
       122 -10.4155    163.4962     92.2242   1.7773508172e+01   3.0236023076e+01     0.273044    0.2300642  56.81 0.0009022675    1.262    0.208
       123 -11.7350    103.1409    107.1023   3.6133895440e+01   4.0351236026e+01    0.3986433    0.2265665  45.82   0.00162912    1.757    0.431
