#   1 NUMBER                 Running object number                                     
#   2 MAG_AUTO               Kron-like elliptical aperture magnitude                    [mag]
#   3 X_IMAGE                Object position along x                                    [pixel]
#   4 Y_IMAGE                Object position along y                                    [pixel]
#   5 X_WORLD                Barycenter position along world x axis                     [deg]
#   6 Y_WORLD                Barycenter position along world y axis                     [deg]
#   7 A_WORLD                Profile RMS along major axis (world units)                 [deg]
#   8 B_WORLD                Profile RMS along minor axis (world units)                 [deg]
#   9 THETA_WORLD            Position angle (CCW/world-x)                               [deg]
#  10 FWHM_WORLD             FWHM assuming a gaussian core                              [deg]
#  11 ELONGATION             A_IMAGE/B_IMAGE                                           
#  12 ELLIPTICITY            1 - B_IMAGE/A_IMAGE                                       
         1 -13.5533    187.7686     44.4670   6.9883426902e+01   3.3032365649e+01    0.8557548    0.4403421 -24.72  0.003623612    2.611    0.617
         2 -15.7885    206.2790    127.7079   8.7330406494e+01   1.4110953106e+01     4.354548     2.677255 -81.75   0.01521524    3.303    0.697
         3 -15.2968    136.9989     25.5309   7.3208424095e+01   4.7571123719e+01     2.807262     2.303578   7.52   0.01259495    1.430    0.301
         4 -15.1773    179.7706     76.7439   7.9640940530e+01   2.9972875629e+01     2.469912      1.84366 -63.51  0.008030382    1.430    0.301
         5 -18.8279    229.4862     32.9307   6.1959120356e+01   2.4783168720e+01     7.630061     6.363027 -47.97   0.04526167    1.279    0.218
         6 -11.7764    193.0709     18.2487   6.2670904758e+01   3.5015076362e+01    0.2649943    0.2027509 -52.43 0.0003258288    1.326    0.246
         7  99.0000    189.6714     14.3464   6.2133091370e+01   3.6245359108e+01    0.3536721    0.2127366  85.51  0.001870151    1.575    0.365
         8 -11.6069     53.3253      8.3694   8.9061666252e+01   6.5792392965e+01    0.4249919    0.1376855 -30.31  0.001987585    3.082    0.675
         9 -12.1936     56.2696      2.7676   8.5609482201e+01   6.5859370534e+01    0.3985122    0.1458924  35.77  0.001939563    2.452    0.592
        10 -11.2325     42.4993     10.5028   9.4044660945e+01   6.7135430482e+01    0.1853754   0.09379295 -38.29  0.001037461    2.358    0.576
        11  -9.0375    188.3017      9.2329   6.1059819511e+01   3.7099362527e+01    0.1200242   0.08340856  54.19 0.0001811215    1.475    0.322
        12 -11.5297    135.0616      4.3193   6.7073252467e+01   5.0039979478e+01    0.3315811    0.2215838  -2.41 0.0007263187    1.938    0.484
        13 -11.7008     63.5174      4.9533   8.4143721952e+01   6.4481191286e+01    0.3029511     0.166082  12.71  0.001666791    2.050    0.512
        14 -10.8004    159.3868      2.1445   6.2817340862e+01   4.4579608179e+01    0.1968581    0.1429776 -24.50  0.000834681    1.672    0.402
        15 -11.8214    134.4622    105.7710   9.7596183199e+01   3.5050522799e+01    0.7309466    0.3004109 -46.48  0.002162779    2.432    0.589
        16 -15.0823     11.2995    198.4709   1.4478399978e+02   3.1858199782e+01     2.014455     1.177314  88.92   0.01044218    1.386    0.279
        17 -13.7172    162.3745     68.7760   8.0859241648e+01   3.5548307696e+01    0.4957176    0.3926912  -6.77  0.002459021    1.655    0.396
        18 -13.4020     55.3306    171.4235   1.3228358073e+02   3.3234550685e+01    0.5445267    0.4092416 -40.01 0.0009297306    1.679    0.404
        19 -12.0358    172.0646    127.2553   9.4214902677e+01   2.1934987154e+01    0.3274655    0.2961264 -69.81 0.0008852395    1.126    0.112
        20 -10.0964    153.7420    125.6186   9.7999478052e+01   2.6451111967e+01    0.2242265     0.148635  58.55 0.0007539514    1.654    0.395
        21 -11.9255    152.5480    119.8082   9.6820449207e+01   2.7988821429e+01     0.520012    0.3619903 -25.66  0.001838738    1.806    0.446
        22 -11.9467    120.6401    112.0120   1.0287501337e+02   3.6644624819e+01    0.5491558    0.3522824  73.93  0.002086074    2.589    0.614
        23 -10.6580    134.0000    148.0438   1.0814836365e+02   2.5610213717e+01    0.5620099     0.181428 -51.64   0.00169824    3.172    0.685
        24 -10.6508    144.1042    146.2143   1.0524940116e+02   2.3918497232e+01    0.3942252    0.2550133 -73.42  0.001536267    2.194    0.544
        25 -10.5772    127.4842    110.0340   1.0053851236e+02   3.5645387012e+01    0.2367446     0.150429 -44.98 0.0004692293    1.549    0.355
        26 -10.9294    197.8204    151.1354   9.4383637832e+01   1.1210980822e+01    0.2281672    0.2068499 -74.85 0.0005081545    1.202    0.168
        27 -12.4058    120.5052    102.9912   1.0050014145e+02   3.8630529623e+01     0.587418    0.4808811  62.45  0.002930528    1.349    0.259
        28 -10.1030    139.4919    104.0362   9.5861834472e+01   3.4298846954e+01    0.2317907    0.1520667 -43.10 0.0005847356    1.518    0.341
        29 -10.8329    111.9367    103.9603   1.0311010075e+02   4.0165636510e+01    0.2338261    0.2282476 -42.07 0.0006827141    1.007    0.007
        30 -10.6062    148.4719    102.5608   9.3275643211e+01   3.2564343854e+01     0.260941    0.2345351 -85.73 0.0004983519    1.188    0.158
        31 -11.7236    144.6018     99.8045   9.3458384049e+01   3.4014391557e+01    0.3863406    0.3578566 -22.50 0.0007342555    1.153    0.133
        32 -10.6969    152.6315    144.9446   1.0290927183e+02   2.2376932244e+01     0.307897    0.2267931  27.27  0.001364588    1.634    0.388
        33 -11.3361    131.6552     96.5490   9.5786789442e+01   3.7583698619e+01    0.3289944    0.2964808 -70.89 0.0008441146    1.191    0.160
        34  -9.8864    113.1359     95.1364   1.0033941718e+02   4.1790517945e+01    0.2268626    0.1984166  -1.82  0.000497158    1.270    0.212
        35 -11.7942    137.4058     89.4668   9.2345252044e+01   3.7708665229e+01    0.3520314    0.3152483  74.88 0.0007116972    1.193    0.162
        36 -12.8535    149.7979     83.4362   8.7688740586e+01   3.5988206930e+01    0.3644961    0.3105241 -57.04 0.0006890661    1.219    0.180
        37 -14.5979     62.0613    166.1579   1.2988161431e+02   3.3620719711e+01     1.073457    0.9038112  31.85  0.003030881    1.417    0.294
        38 -10.1020    123.3861     72.4096   9.0889749396e+01   4.3990637873e+01    0.2827099    0.2044702 -74.27  0.001085298    2.044    0.511
        39  -9.8451    141.3727     69.2340   8.5530432056e+01   4.0473302272e+01     0.201827    0.1355756 -46.57 0.0007088452    1.572    0.364
        40 -11.3884    148.8792    141.0730   1.0290356231e+02   2.4068172613e+01    0.3287341    0.2670848 -89.95  0.001538941    1.458    0.314
        41 -11.3115    220.9821    169.2573   9.3807663794e+01   2.9583610212e+00    0.1950027     0.184237  16.44 0.0003481656    1.084    0.078
        42 -10.4723    130.5383     65.9832   8.7131637070e+01   4.3501592793e+01    0.2164518    0.1433696 -35.02  0.001023725    1.575    0.365
        43 -12.1012    137.4041     64.5217   8.5049541893e+01   4.2174534793e+01    0.4092326    0.3380194  33.84  0.002176816    1.254    0.203
        44 -10.5347    119.5177     64.9608   8.9601728311e+01   4.6104975267e+01    0.2870824    0.2075077  48.17 0.0007960026    1.341    0.254
        45 -12.3266     72.8861     61.8626   1.0247936123e+02   5.5426072420e+01    0.4319389    0.1793971  28.33  0.001644695    3.191    0.687
        46 -12.6417     24.2011    166.4574   1.3901741916e+02   3.7923976418e+01    0.4255778    0.2344688  75.28  0.002165426    1.993    0.498
        47 -11.5101    134.3493     56.1810   8.3228743508e+01   4.4190392038e+01    0.3667186    0.2165043 -55.40 0.0009656708    2.224    0.550
        48 -13.9055     67.3990    160.3169   1.2762970716e+02   3.4308478654e+01     0.734916    0.5611506  69.71  0.001529596    1.358    0.263
        49  -9.8137    182.4826     51.4914   7.2520719734e+01   3.3325506939e+01    0.1421431     0.128135  86.71 0.0001191524    1.005    0.005
        50 -11.5003     78.2023     51.5576   9.7248483005e+01   5.6268827655e+01    0.3251533     0.119928  39.67  0.001314261    2.690    0.628
        51  -9.4688     99.9877    135.5307   1.1421187417e+02   3.5170979779e+01    0.2063858    0.1503342  39.01 0.0004134221    1.456    0.313
        52 -10.1809    179.6531     44.9478   7.1259220415e+01   3.4940248056e+01    0.3811158    0.1734538 -44.01  0.001611551    2.241    0.554
        53 -12.7652     98.6566     43.6201   8.8262145606e+01   5.3684249191e+01    0.4460436    0.3324992   1.96  0.001588266    1.484    0.326
        54 -12.4183     93.1117     42.0636   8.9313318591e+01   5.4979202729e+01    0.4247423     0.287743 -27.88 0.0008467169    1.512    0.338
        55 -11.3921     41.8824    201.4353   1.3886812096e+02   2.7883799996e+01    0.1968443    0.1545051 -66.70 0.0005870218    1.322    0.244
        56 -11.5854    135.8536    129.5781   1.0335987218e+02   2.9494425874e+01    0.7842868    0.2336495 -50.33  0.002237793    3.520    0.716
        57 -10.0710    101.2689     23.3835   8.0451086420e+01   5.5647877215e+01    0.1330688    0.0867542  20.27 0.0006990548    1.698    0.411
        58 -11.4737    135.0000    120.8781   1.0140974785e+02   3.1641525149e+01    0.6921361    0.2261519 -44.73  0.001828395    3.035    0.671
        59 -12.0691    192.3723    194.2905   1.0462186887e+02   3.6674064539e+00     1.084559     0.539998 -64.73  0.002940857    6.148    0.837
        60 -11.6082    207.2183    199.1258   1.0256264342e+02  -6.9455779847e-03    0.4813785     0.187939  37.46  0.001831349    2.634    0.620
        61 -10.2902    208.4929    160.5202   9.4334591781e+01   7.1050435463e+00    0.1463815    0.1401064 -33.88 9.503191e-05    1.021    0.021
        62 -11.4248    207.8043    184.1506   9.9462024722e+01   2.6596573170e+00    0.3329214    0.1596807 -54.06  0.001244803    2.803    0.643
        63 -11.5726    216.4178    182.7245   9.7483002974e+01   1.3044931556e+00    0.2571665    0.1757386  52.54  0.001263044    1.691    0.409
        64  -9.9859    159.2379     13.2890   6.5870302662e+01   4.3596682226e+01     0.165694    0.1343244 -72.74 0.0005278375    1.298    0.229
        65 -12.1731    192.3633    153.5264   9.6040147838e+01   1.1880523803e+01    0.4325773    0.2490592 -50.50  0.001802178    1.791    0.442
        66 -13.3886     68.8487    145.3300   1.2466964673e+02   3.7766712448e+01     2.506238     1.368401  72.01  0.007300878    3.212    0.689
        67 -12.6534    189.2950    148.3583   9.5509231109e+01   1.3616235106e+01     0.506264    0.3392666 -78.97  0.001703377    2.459    0.593
        68 -12.0065    227.0184    172.7095   9.3404746952e+01   1.1800305363e+00    0.5177711    0.2445617  43.74  0.002196197    2.238    0.553
        69 -15.4534     29.7669    190.8062   1.4034706454e+02   3.1694874232e+01     2.016017     1.372829 -42.69  0.003564492    2.067    0.516
        70 -13.9072    193.6661     61.5673   7.3313633996e+01   2.9089119527e+01    0.9165071    0.8292529  35.25  0.003940583    1.334    0.250
        71 -11.3464    134.7182    111.8722   9.9154843521e+01   3.3686291004e+01    0.5833641    0.2605462 -47.15  0.002108786    2.226    0.551
        72 -13.7512    206.5412     50.8875   6.8780630730e+01   2.7609231140e+01    0.6184825    0.3853695  48.21  0.001976497    1.850    0.460
