#   1 NUMBER                 Running object number                                     
#   2 MAG_AUTO               Kron-like elliptical aperture magnitude                    [mag]
#   3 X_IMAGE                Object position along x                                    [pixel]
#   4 Y_IMAGE                Object position along y                                    [pixel]
#   5 X_WORLD                Barycenter position along world x axis                     [deg]
#   6 Y_WORLD                Barycenter position along world y axis                     [deg]
#   7 A_WORLD                Profile RMS along major axis (world units)                 [deg]
#   8 B_WORLD                Profile RMS along minor axis (world units)                 [deg]
#   9 THETA_WORLD            Position angle (CCW/world-x)                               [deg]
#  10 FWHM_WORLD             FWHM assuming a gaussian core                              [deg]
#  11 ELONGATION             A_IMAGE/B_IMAGE                                           
#  12 ELLIPTICITY            1 - B_IMAGE/A_IMAGE                                       
         1 -12.5705    199.9780     38.8417   4.4785608603e+01   3.0985241797e+01     1.187793    0.9423624 -13.69  0.005470927    1.465    0.318
         2 -12.5427    211.3336     27.3780   4.0505298393e+01   2.9757055739e+01    0.8983217    0.7197051  30.96  0.002903617    1.594    0.373
         3 -10.1822     16.3816     14.1584   8.6227483528e+01   7.0916553111e+01    0.2652418   0.09089959 -41.81  0.001254637    2.500    0.600
         4 -10.2086     21.0676      5.0841   7.9092127340e+01   7.1699708620e+01    0.4248446    0.1403377 -39.89  0.001923291    3.112    0.679
         5 -10.7530    238.2780      3.4051   3.2636752391e+01   2.6464157680e+01    0.5010083    0.3591687  58.23  0.002764456    1.607    0.378
         6 -10.4381    233.1091      2.8554   3.2876125699e+01   2.7601135209e+01    0.3654271    0.2774807  86.90  0.001565015    1.223    0.182
         7  -7.5879     48.6913    224.6983   1.1859805280e+02   2.1393822550e+01    0.1020144   0.08879465 -42.70 0.0002296204    1.602    0.376
         8  -9.8118    116.8292    248.7741   1.0789626561e+02   7.9587756257e+00    0.3274798    0.1928042 -64.79  0.001724255    2.095    0.523
         9  -7.9587     86.8818    249.5897   1.1359882803e+02   1.1947805079e+01    0.1722938    0.1214074 -78.06 0.0007312068    1.557    0.358
        10 -11.1159     27.9528    215.5789   1.2185718768e+02   2.5495048003e+01    0.9451486    0.2872234 -80.09  0.003907181    3.519    0.716
        11 -11.4215     13.0823    189.4034   1.2290293742e+02   3.2471730718e+01     0.366667    0.3043567 -73.26 0.0004113144    1.249    0.199
        12 -12.3090     43.1890    201.3548   1.1767362951e+02   2.6876445724e+01     1.782461    0.8033981  71.65  0.002087297    2.884    0.653
        13 -12.3472     53.2509    190.2687   1.1440550600e+02   2.8176748965e+01     2.439958       1.2739 -88.21    0.0115825    2.185    0.542
        14 -14.3307     38.4530    248.8584   1.2219207652e+02   1.7963202288e+01     8.112139     2.642283  25.63   0.02162749   11.788    0.915
        15  -9.9329     49.2534    216.7882   1.1782292489e+02   2.2929414655e+01    0.4729043     0.303282  71.97  0.002881869    1.450    0.311
        16 -14.5903      2.5066    197.6991   1.2555034949e+02   3.1573197881e+01     10.67527          nan -72.36   0.02445294   11.309    0.912
        17  -8.6836     25.2518    202.6997   1.2143663389e+02   2.8461133749e+01    0.2124858    0.1315525  61.83  0.000819958    1.438    0.305
        18  -8.1312    109.8337    200.8748   1.0317696902e+02   1.8039383261e+01    0.1788182    0.1473999  85.36 0.0004068916    1.324    0.245
        19  -8.4941     62.9896    201.1685   1.1347255704e+02   2.4580413967e+01    0.1812363     0.160347  83.96 0.0003178777    1.049    0.047
        20  -8.2221     63.9796    197.5090   1.1285336898e+02   2.5256315508e+01    0.2137279    0.1560484  77.97   0.00100162    1.326    0.246
        21  -8.4860     66.6676    195.3434   1.1201586542e+02   2.5392879466e+01    0.2351578    0.2044524  81.50  0.001290112    1.011    0.011
        22  -7.6085    128.3721    195.6839   9.8244601478e+01   1.6142830150e+01    0.1447647    0.1039391  68.89 0.0007033571    1.790    0.441
        23  -7.6187     83.4842    187.5081   1.0722011130e+02   2.4879110909e+01    0.1341261     0.120789  80.48 -2.576547e-05    1.028    0.027
        24  -8.2979    150.6438    178.9023   9.0212564365e+01   1.5761851289e+01    0.3396866    0.2269917 -81.44  0.001359151    2.839    0.648
        25 -15.3660      7.9766    241.8523   1.2692373759e+02   2.2340436455e+01     16.90499     1.465198 -77.03   0.02257458   11.051    0.910
        26  -8.0786    144.3178    179.6888   9.1799920584e+01   1.6733381733e+01     0.142741    0.1145461  76.97 0.0004109744    1.642    0.391
        27 -11.2086     84.9392    222.3607   1.1121479408e+02   1.7282872479e+01    0.8166007    0.3200715  46.92 0.0009956029    2.315    0.568
        28 -10.4250     68.2337    175.4011   1.0912971451e+02   2.9740666697e+01    0.4795433    0.2783996 -36.60  0.001818306    2.480    0.597
        29 -10.3435     72.7872    170.5247   1.0733452170e+02   3.0286646212e+01    0.3293715    0.2726302 -48.96  0.001907841    1.279    0.218
        30 -10.5512     97.6982    169.3147   1.0100954320e+02   2.6945562900e+01    0.6139778    0.1973858  47.80  0.001948121    3.787    0.736
        31  -8.1701     99.2684    180.6100   1.0249755362e+02   2.4103098400e+01    0.1803815    0.1333254  26.91 0.0006038687    1.518    0.341
        32 -11.6302     58.4569    131.7863   1.0477812901e+02   4.1569334315e+01     1.193716    0.4214246 -69.06   0.00385107    3.577    0.720
        33 -11.9413     69.6008    156.8096   1.0603067716e+02   3.4003056146e+01    0.6097802    0.4682631 -23.90  0.001709525    1.708    0.414
        34 -11.9198     68.5825    144.3140   1.0420092841e+02   3.7193974280e+01     0.925937    0.6085948  85.50  0.002825512    1.967    0.492
        35  -8.5046     92.6824    217.0334   1.0901168203e+02   1.7266917600e+01    0.1882931     0.150734  78.34 0.0008895178    1.254    0.203
        36 -10.6290     88.0923    154.8524   1.0089291442e+02   3.1856420912e+01    0.5781211     0.389146 -29.33  0.001278943    1.963    0.491
        37  -9.5592     54.0091    147.7476   1.0869401735e+02   3.8158281144e+01    0.5024569    0.1726831 -64.43  0.001904271    2.562    0.610
        38  -9.3909    133.7880    143.8250   8.6828114891e+01   2.6565684115e+01    0.5200028    0.1910384 -55.61  0.001543027    3.565    0.719
        39  -8.4955     39.0502    146.5127   1.1247533327e+02   4.0080241273e+01    0.1744093    0.1313955  33.02 0.0008935923    1.539    0.350
        40  -9.8437     30.2557    144.9704   1.1457734930e+02   4.1297854018e+01    0.2415052    0.1588066  71.95 0.0006664587    1.656    0.396
        41  -8.3134     83.5214    143.0586   9.9898198421e+01   3.5405184228e+01    0.2077983    0.1951117  42.59 0.0004769658    1.153    0.133
        42  -9.4599    102.2690    139.7867   9.4136482080e+01   3.3222530899e+01    0.5086533    0.3242263 -22.69  0.002068765    2.333    0.571
        43 -10.5332     89.5678    139.6920   9.7573802541e+01   3.5306184178e+01    0.2972201     0.238507 -44.81  0.001550539    1.207    0.171
        44  -7.7194     36.4853    140.4165   1.1230735655e+02   4.1825527450e+01    0.1323117    0.1106204 -65.32 0.0001292735    1.068    0.064
        45 -10.5186     26.1921    137.6899   1.1470998554e+02   4.3429705904e+01    0.3837874      0.19592  37.79  0.001527386    2.183    0.542
        46  -8.7443    106.0384    130.8545   9.1110529158e+01   3.4706993648e+01     0.383001    0.2221114 -53.24  0.001630159    1.649    0.394
        47  -9.4933    111.5202    130.4179   8.9511662801e+01   3.3833974706e+01    0.4103068    0.2722055  27.38  0.001821039    1.747    0.428
        48  -8.8785     42.2153    128.9692   1.0895256996e+02   4.4075292753e+01    0.2842486    0.1401418  54.39  0.001199376    2.744    0.636
        49  -9.6379     32.9986    127.5500   1.1137163643e+02   4.5312958823e+01    0.4013074    0.1141126 -68.23   0.00139887    3.153    0.683
        50  -9.3322     98.8009    126.2877   9.2058694465e+01   3.7043567296e+01    0.3449049    0.2623658 -13.58  0.001631205    1.661    0.398
        51  -7.7797     93.1393    125.4057   9.3460443578e+01   3.8197369413e+01    0.1988408    0.1394527  50.03 0.0009178808    1.624    0.384
        52  -8.6860    117.4729    124.4902   8.6459316779e+01   3.4118120160e+01    0.2772742    0.1506045  27.07  0.001032907    2.420    0.587
        53 -11.6629     57.7097    240.9987   1.1822304129e+02   1.7191382808e+01    0.5297466    0.3092209  69.56 0.0004769994    1.652    0.395
        54 -11.1257     81.7177    161.5405   1.0369718733e+02   3.1186677552e+01    0.7108881    0.4151923  60.34  0.000749064    2.152    0.535
        55  -8.2450    107.9461    119.2327   8.7766196968e+01   3.7104876640e+01    0.2018083    0.1948331  -6.72 0.0003254076    1.069    0.065
        56  -8.4538    205.7608    110.2170   6.2632265535e+01   1.8405760043e+01    0.2066398    0.1704463  -4.06 0.0005726604    1.337    0.252
        57 -11.1724     17.9830    109.1514   1.1294964054e+02   5.1013692241e+01    0.3388364    0.2689572 -88.34  0.002125766    1.283    0.220
        58  -8.7324    134.3402    105.1423   7.6832697589e+01   3.5054716037e+01    0.3339154    0.1378614 -35.90  0.001099376    2.613    0.617
        59 -10.7056     42.6032    104.4852   1.0426276122e+02   5.0029098753e+01    0.5128805    0.2532367  52.59  0.002091414    3.125    0.680
        60  -7.5607    128.4698     95.5391   7.5607020966e+01   3.8314091059e+01    0.1575317    0.1450002 -14.00 -7.557949e-05    1.061    0.057
        61  -8.1713     53.3276     91.6513   9.7698754785e+01   5.1894929881e+01    0.1365703    0.1074604  83.90 0.0007049209    1.758    0.431
        62  -8.2645     57.9677    220.9109   1.1647016705e+02   2.1056680721e+01     0.192203    0.1150726  65.38 0.0005174869    1.605    0.377
        63  -8.8848    117.0295     85.9884   7.5838586539e+01   4.2658218009e+01    0.2369241    0.1950296 -87.86  0.001008229    1.703    0.413
        64  -8.0301     55.5435     66.4579   8.9609166462e+01   5.7163589659e+01    0.1388464    0.1160785 -28.56 0.0001060614    1.005    0.005
        65 -12.0084    190.4466     45.7242   4.7949981222e+01   3.2334248181e+01    0.9360237    0.6323135  -6.52  0.001766173    1.990    0.497
        66 -13.0009     10.3089    206.3924   1.2459272456e+02   2.9079423305e+01     0.667051    0.5801167  17.90  0.002960659    1.663    0.399
        67  -8.9338     59.6584    231.6055   1.1708647951e+02   1.8736626938e+01    0.2102207    0.1607626  78.80 0.0007245239    1.158    0.137
        68  -9.0354    142.7681     47.8616   5.6990341745e+01   4.3492740778e+01    0.2626623    0.1890338 -81.39  0.001206953    1.998    0.500
        69  -8.0931    145.3344     42.0495   5.4544784783e+01   4.3680471743e+01     0.192651    0.1811232 -23.16 0.0005396642    1.085    0.078
        70  -7.7927     54.4581    221.4729   1.1720940089e+02   2.1364632700e+01    0.1189917    0.0970124  72.12 0.0001436325    1.012    0.012
        71  -9.5706     33.0000     37.9172   8.8586812706e+01   6.5318878473e+01    0.4688212   0.06079802 -47.08  0.001229555    6.689    0.850
        72  -8.6950     44.4543    230.0594   1.1981886495e+02   2.0820932727e+01    0.2239406    0.1344137  72.00  0.001378145    1.530    0.347
        73  -7.7232    189.5147     14.5275   3.9562137702e+01   3.6216249493e+01     0.127938    0.1165733 -86.71 0.0002663875    1.004    0.004
        74  -8.6176     33.4947    227.3480   1.2164813600e+02   2.2554108048e+01     0.176145     0.133728 -68.40 0.0005713595    1.429    0.300
        75 -10.4646    164.3732    221.6871   9.4810362548e+01   5.3252004865e+00    0.5042447    0.1962198 -43.32  0.002141485    2.804    0.643
