#   1 NUMBER                 Running object number                                     
#   2 MAG_AUTO               Kron-like elliptical aperture magnitude                    [mag]
#   3 X_IMAGE                Object position along x                                    [pixel]
#   4 Y_IMAGE                Object position along y                                    [pixel]
#   5 X_WORLD                Barycenter position along world x axis                     [deg]
#   6 Y_WORLD                Barycenter position along world y axis                     [deg]
#   7 A_WORLD                Profile RMS along major axis (world units)                 [deg]
#   8 B_WORLD                Profile RMS along minor axis (world units)                 [deg]
#   9 THETA_WORLD            Position angle (CCW/world-x)                               [deg]
#  10 FWHM_WORLD             FWHM assuming a gaussian core                              [deg]
#  11 ELONGATION             A_IMAGE/B_IMAGE                                           
#  12 ELLIPTICITY            1 - B_IMAGE/A_IMAGE                                       
         1  -8.0602     97.3230     15.2500   6.0028265811e+01   5.8229787976e+01     0.183452    0.1133683 -32.04 0.0005078232    1.724    0.420
         2  -7.8526     83.4116     11.1717   6.2255525860e+01   6.1550691735e+01    0.1713119    0.1132442 -33.49 0.0006214649    1.671    0.402
         3  -8.6505     55.4985      9.9268   7.1428425852e+01   6.6751743313e+01    0.2001805    0.1892205 -27.22  0.000759769    1.480    0.324
         4  -7.8187     47.4245     10.1748   7.4894688201e+01   6.7967704130e+01    0.1635856    0.1028143 -36.17 0.0009447215    1.712    0.416
         5  -8.3198     90.9192      8.9713   5.9086385679e+01   6.0232419962e+01    0.1880279    0.1583994 -62.28 0.0005743488    1.671    0.402
         6  -7.4695    101.5898      8.2840   5.5984601691e+01   5.7994134598e+01    0.1285921    0.1018461 -75.36 0.0006978945    1.805    0.446
         7  -8.2531      5.6828      8.3357   9.5049569669e+01   7.2851388370e+01    0.0918021   0.08672399 -55.16 0.0002904095    1.697    0.411
         8  -8.8087     33.3265      4.9008   7.8581004629e+01   7.0576705862e+01    0.2770316     0.154598 -46.21  0.001448685    2.715    0.632
         9  -8.4946     79.0477      4.3908   6.0465873033e+01   6.3092104830e+01    0.2223037    0.1628538 -32.45 0.0009617194    1.569    0.363
        10  -7.6646     44.6808      3.3581   7.2543811815e+01   6.9193310410e+01    0.1055876   0.09340541 -43.89 0.0007044506    1.760    0.432
        11  -7.4927    115.5073      2.4898   5.0494489910e+01   5.5322282353e+01    0.1299182    0.1187713  51.56 0.0008091276    1.085    0.079
        12  -8.4705     62.5037      1.6088   6.4577967536e+01   6.6465123552e+01    0.1718291    0.1457169  63.05  0.000746139    1.683    0.406
        13  -8.0027    239.1384      1.6116   3.5165683680e+01   2.5346957603e+01    0.1646333    0.1013626  66.93 0.0007039486    1.634    0.388
        14  -7.5535     39.4551      1.4667   7.3847882201e+01   7.0168486938e+01    0.1176528   0.09303141  -0.45 5.759358e-05    1.069    0.065
        15  -8.5556     67.6077    245.1805   1.1944594137e+02   1.5906768264e+01    0.1929033   0.09981932 -78.08  0.001129289    2.082    0.520
        16  -9.9729    248.6263    242.7053   8.6065065119e+01  -1.0763731998e+01    0.3301148    0.1840976 -37.28  0.001871787    2.233    0.552
        17  -8.2603    183.2190    250.5917   9.8816504667e+01  -2.1868265876e+00    0.1720079   0.09125838  30.72 0.0006274205    1.638    0.389
        18  -9.8346    112.2294    248.8875   1.1171261815e+02   9.0111016652e+00    0.2007081    0.1669679  53.75 0.0002757859    1.064    0.060
        19  -8.6689     93.9739    249.6200   1.1510806311e+02   1.1545704039e+01     0.274238    0.1473485  73.78  0.001180791    2.389    0.581
        20  -7.8976     25.5370    250.4991   1.2689208931e+02   1.9992685271e+01    0.1061104   0.07321346  67.76 0.0005776541    1.008    0.008
        21  -8.3286      9.6061    244.3332   1.2914178411e+02   2.2720592415e+01    0.1912065   0.07655472 -88.92  0.001130756    2.217    0.549
        22  -8.6445    202.0325    243.5536   9.4369885703e+01  -4.1500963815e+00    0.1901461    0.1685366 -54.26 0.0009601904    1.678    0.404
        23  -9.1349    169.1476    242.7539   1.0033486242e+02   1.1020194377e+00    0.2619863    0.1905464 -24.01  0.001634242    1.730    0.422
        24  -8.6400    139.4435    243.7757   1.0606374893e+02   5.6586459974e+00    0.2010069    0.1216148 -61.53  0.001142651    2.164    0.538
        25  -8.2943    194.8068    243.2301   9.5640007924e+01  -2.9976256969e+00    0.1940155    0.1557772 -18.75 0.0007044908    1.385    0.278
        26  -8.4593    194.0017    239.5218   9.5233455592e+01  -2.3751710732e+00    0.1691656    0.1499258   6.58 0.0004274424    1.166    0.143
        27  -8.4008     77.6485    243.0907   1.1747936630e+02   1.4936857332e+01    0.1826748    0.1175806  76.18  0.001158089    1.513    0.339
        28  -8.7179    213.5467    241.7362   9.2012934459e+01  -5.6598833809e+00     0.315542    0.1766729  -3.29  0.001577687    2.604    0.616
        29  -9.4951    182.7861    240.5769   9.7473200540e+01  -7.5335656863e-01    0.4810006     0.276832  46.14  0.002047519    1.644    0.392
        30  -9.3873    160.1543    240.5037   1.0172282470e+02   2.8705811480e+00    0.2784353    0.2043314 -77.30 0.0009617311    2.143    0.533
        31  -8.1197    153.4125    242.1975   1.0322498159e+02   3.6911886086e+00    0.1460868    0.1175974 -75.24 0.0006114053    1.683    0.406
        32  -8.0922     88.1896    242.1747   1.1547588678e+02   1.3637502592e+01    0.1618418    0.1108709  70.58 0.0005826961    1.367    0.269
        33  -9.0233    240.9500    239.5701   8.6857163593e+01  -9.3634132736e+00    0.2993715    0.1296165 -15.94  0.001307443    3.515    0.716
        34  -8.5580    135.5014    239.0730   1.0623446802e+02   7.0321663216e+00    0.1997768    0.1434397  57.73 0.0008332394    1.355    0.262
        35  -8.2044    129.4596    238.9431   1.0737327317e+02   8.0064219367e+00     0.156631    0.1003904  84.72 0.0008076082    2.431    0.589
        36  -9.0332    230.7775    236.9867   8.8198439261e+01  -7.6158894393e+00    0.2296135    0.2175994 -75.41  0.001518448    1.898    0.473
        37  -8.1903    209.1621    238.2573   9.2260756295e+01  -4.5545127579e+00    0.1472144     0.133583  33.50 0.0006105069    1.345    0.257
        38  -8.0272     13.5295    238.4415   1.2824645570e+02   2.3380296601e+01    0.1081641   0.07131518  68.94 0.0004795261    1.069    0.064
        39  -8.1379     25.6396    236.9585   1.2616388382e+02   2.2391414762e+01    0.1818867   0.05941252  78.95 0.0007043095    4.508    0.778
        40  -9.1279    216.9841    235.5196   9.0411548617e+01  -5.3918240379e+00     0.254798    0.1931453  51.52  0.001132461    1.793    0.442
        41  -9.2896    213.9043    231.9655   9.0394003838e+01  -4.4618253023e+00    0.2887012    0.2279648  60.64  0.001522664    2.012    0.503
        42  -8.9246    203.2445    234.9039   9.2816036364e+01  -3.1980094135e+00    0.2439744    0.2018014 -70.70  0.001053173    2.119    0.528
        43  -9.6855    175.7085    233.3784   9.7751132306e+01   1.4235609852e+00    0.4249659    0.2430459 -58.11   0.00213089    2.758    0.637
        44  -8.2553    170.4413    235.9511   9.9131313964e+01   1.8955462258e+00     0.149628    0.1098011 -83.93   0.00080661    2.453    0.592
        45  -9.3398    247.4492    234.7891   8.4958344774e+01  -9.7140961287e+00    0.2312234    0.1643396  10.49  0.001017525    1.105    0.095
        46  -9.3981    246.6164    229.0981   8.4138081891e+01  -8.9336196567e+00    0.4115423    0.1775386 -31.22  0.001696982    2.339    0.572
        47  -8.4632    194.9230    233.4914   9.4138322850e+01  -1.6915974929e+00    0.3613115    0.2384256  66.78  0.001713814    3.204    0.688
        48  -9.2301    108.7870    234.5123   1.1082485426e+02   1.1962093778e+01    0.3697607    0.1914892  56.74  0.001097223    1.893    0.472
        49  -8.5093     99.8202    234.5126   1.1254216853e+02   1.3307971246e+01    0.2259667    0.1428604  82.51  0.001250706    1.903    0.474
        50  -9.3554     78.6567    234.2010   1.1651208046e+02   1.6393868413e+01    0.2740775    0.1875291 -82.74  0.001507724    1.502    0.334
        51  -8.2731    163.0055    234.4904   1.0034592212e+02   3.3262655485e+00    0.1846383   0.09677412  22.62 0.0008105694    2.649    0.623
        52  -8.2943    122.8433    234.1483   1.0807128263e+02   9.8522999356e+00    0.1932255    0.1421588  61.43 0.0006296315    1.309    0.236
        53  -9.3258     68.2714    232.3092   1.1827993053e+02   1.8145762466e+01    0.4491098    0.2076838  75.93  0.001867601    2.923    0.658
        54  -8.2844    132.7505    232.9271   1.0599747311e+02   8.4880067320e+00    0.1930717    0.1320624  76.80  0.001048588    1.965    0.491
        55  -9.2928    186.5040    230.8860   9.5319015067e+01   3.3858991048e-02    0.2872398    0.2245271  84.81  0.001376784    2.307    0.567
        56  -8.0325    157.6953    232.3174   1.0106443391e+02   4.5341050827e+00    0.1221514   0.09059664  63.70 0.0002633061    1.627    0.385
        57  -8.3810     92.4597    231.6508   1.1365407351e+02   1.4904941515e+01    0.2450556    0.1350766  71.45  0.001156827    2.190    0.543
        58  -8.6743    236.0135    230.8743   8.6269988661e+01  -7.6333877966e+00    0.1908778    0.1480708 -13.88 0.0004070803    1.257    0.205
        59  -8.7309    140.2655    230.0728   1.0415830069e+02   7.7537871470e+00    0.2810107    0.1861418  60.14  0.001087719    1.648    0.393
        60  -8.6782      1.7335    230.9303   1.2983129316e+02   2.5891214631e+01    0.1998889   0.09599374  75.69 0.0009447255    1.622    0.384
        61  -9.2509    151.4916    229.0116   1.0181044154e+02   6.0873961407e+00    0.2689649    0.2086894 -85.22  0.001170932    1.800    0.444
        62  -9.3306    148.4960    224.5484   1.0177283557e+02   7.3265417733e+00    0.3103747    0.2330144  82.97  0.001102081    1.859    0.462
        63  -8.0183    229.5502    229.0010   8.7091881820e+01  -6.4513022999e+00    0.1593061    0.1098003 -27.06 0.0005623637    1.516    0.340
        64  -8.6548    162.0555    227.8804   9.9579243963e+01   4.5197816758e+00    0.2464049    0.1655348  66.15 0.0009639473    2.134    0.531
        65  -8.6785    128.1113    227.4865   1.0621637278e+02   1.0168186784e+01     0.265338    0.1754539  66.68  0.001141211    1.761    0.432
        66  -7.9884    120.0369    227.9638   1.0787148987e+02   1.1373881723e+01    0.2010432    0.1329175  67.23  0.001110202    1.691    0.409
        67  -7.9099    223.1495    227.1494   8.7923596774e+01  -5.2494924738e+00    0.1486249    0.1388705   3.50 0.0004873093    1.349    0.258
        68  -8.8645    205.9958    225.8439   9.0846421518e+01  -2.3927865732e+00    0.2343415    0.1820595 -46.89 0.0008496562    1.718    0.418
        69  -8.0729     49.4371    226.9199   1.2132610662e+02   2.1552673941e+01    0.1647386   0.07540302  77.55 0.0008064638    2.492    0.599
        70  -8.4567    200.0203    226.3208   9.2041708352e+01  -1.5001775243e+00    0.1754307    0.1406586  28.82 0.0004870263    1.079    0.073
        71  -8.6953    180.4267    224.3175   9.5459658417e+01   2.0151466573e+00    0.2275097    0.1888506  62.34 0.0005653623    1.527    0.345
        72  -8.7724    104.6942    223.6458   1.1039633444e+02   1.4552817208e+01    0.3174117    0.1956959  80.25  0.001590882    2.092    0.522
        73  -8.9895     93.8632    224.1464   1.1259543795e+02   1.6090496424e+01    0.3493375    0.1752611  62.91  0.001644252    2.268    0.559
        74  -7.7781     71.6861    225.7075   1.1705581995e+02   1.8932698490e+01    0.1002217   0.09503814 -12.38 0.0002737196    1.594    0.373
        75  -8.3168     38.3246    225.1077   1.2322177889e+02   2.3208778174e+01     0.227814   0.09597303  59.67  0.001209677    2.076    0.518
        76  -8.8043    216.3907    223.5709   8.8546602503e+01  -3.7274890458e+00    0.2205242    0.2136242  73.66 0.0009235227    1.572    0.364
        77  -8.6208    173.0025    223.4570   9.6770808978e+01   3.3919094572e+00    0.2109654    0.1815916 -74.53 0.0006178658    1.596    0.374
        78  -8.2601    113.7125    224.1589   1.0866187774e+02   1.3057534650e+01    0.1923546    0.1456292  79.38 0.0008395555    1.434    0.303
        79  -9.0570    225.5102    221.8541   8.6596262595e+01  -4.9158951252e+00    0.2318346    0.2135482   8.74  0.001103963    1.304    0.233
        80  -9.2466    192.4177    221.4692   9.2690687130e+01   4.5050845752e-01    0.2664225    0.2341376  89.92  0.001024915    1.738    0.425
        81  -9.3588    160.3380    221.4373   9.8961389772e+01   5.8558616041e+00    0.5351098    0.2570801  57.05  0.001959722    3.163    0.684
        82  -8.4890    140.2883    222.6913   1.0315059894e+02   9.0115864982e+00    0.2085064    0.1570692 -76.02 0.0008325523    1.707    0.414
        83  -8.7529    238.9023    221.5211   8.4161570625e+01  -6.8936526464e+00    0.1955071    0.1580889 -31.95 0.0006469983    1.514    0.339
        84  -9.1107    120.3108    219.2496   1.0671944632e+02   1.2908517989e+01    0.3993041    0.2189469  67.93  0.001763246    2.707    0.631
        85  -8.6473     82.9508    220.7900   1.1439289652e+02   1.8315169057e+01    0.2707118    0.1394905  66.76  0.001322909    2.214    0.548
        86  -8.1655     73.0663    221.0199   1.1635287086e+02   1.9648329160e+01    0.2027025    0.1161793  69.38 0.0007733179    1.756    0.430
        87  -8.0821     27.4946    221.0305   1.2490804152e+02   2.5195064354e+01    0.1622173   0.09093709 -81.84  0.001026665    1.572    0.364
        88  -8.0602    202.6897    220.0269   9.0496354814e+01  -1.0312065912e+00    0.1703471    0.1481753  -3.30 0.0006463676    1.146    0.127
        89  -8.8883    248.9465    218.2418   8.1847663147e+01  -7.9471810935e+00    0.2743548    0.2301433  70.47  0.001657091    2.550    0.608
        90  -8.2379    210.0811    219.3188   8.8989020969e+01  -2.1323872161e+00    0.1768048    0.1427462  28.45  0.000534264    1.124    0.110
        91  -9.2402    132.9750    216.3144   1.0374260305e+02   1.1366047501e+01    0.4444425    0.2555833  71.61  0.001876312    3.039    0.671
        92  -8.5816     62.4754    217.6344   1.1810059770e+02   2.1722979961e+01    0.3241324    0.1365642  59.34  0.001525547    2.394    0.582
        93  -8.7124     51.5259    217.7555   1.2021965044e+02   2.3081196917e+01    0.2393936    0.1370296  64.61 0.0008144822    1.529    0.346
        94  -8.8118    169.3497    216.3874   9.6382250970e+01   5.1532131360e+00    0.2574079    0.2195654 -83.32 0.0008153781    1.605    0.377
        95  -8.5265    142.8262    216.4693   1.0175245635e+02   9.6800292362e+00    0.2329014     0.170193 -85.57   0.00080359    1.919    0.479
        96  -8.1465    111.7879    217.1714   1.0818771287e+02   1.4661754570e+01    0.2251853     0.119031  68.65 0.0009504007    2.864    0.651
        97  -7.7121     55.9031    217.1527   1.1933029447e+02   2.2657712266e+01    0.1355355    0.1235039  76.32 0.0009842858    1.262    0.208
        98  -8.3895    154.6385    215.4858   9.9202826691e+01   7.8358338240e+00    0.2064537    0.1605364 -85.89 0.0008485108    1.804    0.446
        99  -7.9015     18.5854    216.2382   1.2621759577e+02   2.7056387084e+01    0.1505208    0.0842008 -71.74 0.0009595874    1.695    0.410
       100  -8.7969    232.1358    214.7996   8.4169667376e+01  -4.9977674892e+00    0.2210217    0.2072256 -31.62  0.001268702    1.497    0.332
       101  -7.9505     41.3583    215.0523   1.2194003518e+02   2.4830404847e+01    0.1946452   0.07237855  81.90 0.0007040399    4.421    0.774
       102  -9.4748    213.9848    212.2076   8.7022057373e+01  -1.7498208219e+00    0.3264248    0.2564701  57.60   0.00146206    1.818    0.450
       103  -8.3004    185.5902    214.3278   9.2829950308e+01   2.6979789627e+00    0.1795845    0.1536365  71.95 0.0007152949    1.616    0.381
       104  -9.5466     73.3352    211.9317   1.1540624993e+02   2.1411403512e+01    0.6777472     0.253043  62.47  0.002384484    4.258    0.765
       105  -8.2588    224.7474    212.3568   8.5064740965e+01  -3.5078485434e+00    0.2072577    0.1440801 -39.80  0.000557203    1.700    0.412
       106  -8.9253    161.4960    212.4635   9.7339159395e+01   7.1720896880e+00    0.2268731    0.2018824  43.32  0.000629649    1.079    0.073
       107  -8.2113    106.4081    213.1613   1.0878819893e+02   1.6280395659e+01    0.1710147    0.1164233 -83.25 0.0007586697    1.712    0.416
       108  -8.9116    204.3445    211.1120   8.8646993107e+01   1.0409409747e-02    0.2399732    0.2148762 -67.93 0.0008231644    1.652    0.395
       109  -9.3670    175.4485    210.0995   9.4134402472e+01   5.1384845330e+00    0.4020517    0.2690758  66.14    0.0015052    2.349    0.574
       110  -8.4046    192.1205    210.5955   9.0916180195e+01   2.1665399429e+00    0.2010956    0.1823036 -49.06 0.0007363084    1.388    0.279
       111  -8.7978    147.9825    210.6364   9.9821623719e+01   9.8406215321e+00    0.2822073    0.1993515  68.74  0.001141888    1.826    0.452
       112  -8.9005    116.2932    210.5337   1.0639712321e+02   1.5207653866e+01     0.281839    0.1826554  68.69 0.0007657001    1.804    0.446
       113  -8.5042     85.7033    209.6564   1.1264148113e+02   2.0117984468e+01    0.3261338    0.1596674  65.77  0.001436136    2.583    0.613
       114  -8.2699     32.2495    210.2694   1.2331421549e+02   2.6815371622e+01    0.1795693   0.07709659  89.32 0.0008761662    2.392    0.582
       115  -9.1429    236.4848    208.3660   8.2232138575e+01  -4.8035291402e+00    0.2418243    0.2144625 -34.80  0.000802154    1.488    0.328
       116  -9.0236     93.3636    214.1082   1.1157798287e+02   1.8097851519e+01    0.3954212    0.1677498  59.61   0.00159769    2.989    0.665
       117  -7.9681    126.5667    208.7329   1.0399905096e+02   1.3854368420e+01    0.1652079    0.1254748 -78.88 0.0009254146    1.554    0.357
       118  -7.8336    179.3025    217.6588   9.4614648874e+01   3.2438741735e+00    0.1231391    0.1005398  69.55 0.0007038759    1.676    0.403
       119  -9.3742    246.3409    207.4403   8.0338293830e+01  -6.1837948068e+00    0.2436272    0.1886735 -16.91 0.0005845345    1.203    0.168
       120  -7.9451    156.4752    207.9824   9.7651105738e+01   8.8338864505e+00    0.1686518    0.1187314 -83.95 0.0004469947    2.343    0.573
       121  -8.3844    139.2027    208.1086   1.0126086514e+02   1.1821133322e+01    0.2459688     0.155103  62.38 0.0007602465    1.921    0.479
       122  -9.0634      5.7824    208.0079   1.2805838967e+02   2.9911187669e+01    0.1907575   0.08238757  71.38   0.00106293    2.007    0.502
       123  -9.1815     99.3355    206.2659   1.0939707690e+02   1.8750556143e+01    0.3374247     0.211642  77.44   0.00138659    1.940    0.485
       124  -8.5671     56.4245    205.4749   1.1819104218e+02   2.4962361957e+01    0.2806265    0.1336507  67.53 0.0007712895    2.313    0.568
       125  -9.2866    194.8992    203.6451   8.9147120190e+01   2.7889094831e+00     0.288039    0.2639788 -48.38  0.000966903    1.359    0.264
       126  -9.2532    192.4081    197.4007   8.8503971420e+01   4.2489256428e+00    0.3496397    0.2841158 -74.02  0.001318671    1.897    0.473
       127  -9.0437    183.7507    203.9314   9.1410028176e+01   4.7046034421e+00    0.2715324    0.2281571  70.16 0.0008888145    1.603    0.376
       128  -8.8282    131.3181    203.9532   1.0229712007e+02   1.3965272535e+01    0.3194592    0.2133556  87.06  0.001056176    2.241    0.554
       129  -8.1677    109.1892    205.2114   1.0717780169e+02   1.7404761637e+01    0.1849312    0.1393217  76.47 0.0005547701    1.403    0.287
       130  -8.0182     92.4073    205.1732   1.1072064581e+02   2.0032906149e+01    0.1789131    0.1143173 -84.02 0.0009404785    1.765    0.433
       131  -9.6319    163.9662    203.1673   9.5310258042e+01   8.3626169744e+00    0.4457301    0.2566054  56.33   0.00143461    2.142    0.533
       132  -9.3933    250.0832    201.9728   7.8677728213e+01  -6.0229341872e+00     0.350102    0.1665583 -33.31  0.001274835    2.022    0.505
       133  -9.8357    245.7487    194.0072   7.7905660598e+01  -4.2724621155e+00    0.4239777     0.301042 -62.44  0.002051001    3.168    0.684
       134  -8.5026     48.1288    202.2216   1.1957075990e+02   2.6659309690e+01     0.244352    0.1226652  77.24  0.001218462    2.159    0.537
       135 -10.0894    242.6427    201.0392   7.9786453167e+01  -4.7599893265e+00    0.2414713    0.2052742  -4.21 0.0007128479    1.126    0.112
       136  -8.6231     80.1545    201.5279   1.1287451920e+02   2.2590823900e+01    0.3086256    0.1606162  65.25   0.00144119    2.202    0.546
       137  -8.0514    221.8475    201.3915   8.3591046341e+01  -1.4679013256e+00     0.169184    0.1532647  -3.02 0.0004929838    1.174    0.148
       138  -9.1823    237.0667    198.5629   8.0299372393e+01  -3.5382371013e+00     0.293414     0.173151 -35.74  0.001146604    1.736    0.424
       139  -9.4972    149.5179    198.5972   9.7577869052e+01   1.1790057290e+01    0.4504778    0.3031714  82.81  0.001830116    2.557    0.609
       140  -9.0853    123.8254    199.1652   1.0318509382e+02   1.6186934788e+01    0.3153963    0.2240658  87.52  0.001288621    1.808    0.447
       141  -9.3691    112.9599    198.6152   1.0545753111e+02   1.8121797156e+01    0.4443045    0.2607883  69.76  0.001825776    2.320    0.569
       142  -9.2063     88.6497    198.5108   1.1070233755e+02   2.1978141685e+01    0.3587289     0.220787  85.64  0.001483505    1.950    0.487
       143  -8.5525    177.1835    199.1199   9.1888723235e+01   6.6969585831e+00    0.2353317    0.1711667  64.61 0.0006048891    1.880    0.468
       144  -8.7190    133.1635    196.8296   1.0080454565e+02   1.5036001961e+01    0.3699841    0.1907666 -60.97  0.001408601    2.367    0.578
       145  -8.3163    202.4720    198.1212   8.6656783968e+01   2.3466839678e+00    0.2008499    0.1811783  51.08 0.0007236192    1.350    0.259
       146  -9.1443     61.4108    197.0564   1.1634115957e+02   2.6097242465e+01     0.378493    0.1977766  72.04  0.001290541    2.167    0.539
       147  -7.8367     29.4070    198.1559   1.2297887563e+02   2.9618693881e+01    0.1692924   0.08965458  88.27 0.0009483924    1.698    0.411
       148  -8.9021     12.7250    197.4472   1.2617039116e+02   3.1419692142e+01    0.2775127    0.1125097  81.13  0.001370288    2.438    0.590
       149  -8.9267    215.8530    195.6279   8.3623635520e+01   4.1242022436e-01    0.3154259    0.2229279 -56.40  0.001017609    2.182    0.542
       150  -8.0160     53.3381    196.6370   1.1798866967e+02   2.7207958209e+01     0.137582    0.0753792  68.74 8.667136e-05    1.829    0.453
       151  -8.8065    224.3494    194.0157   8.1730626206e+01  -7.8851114673e-01    0.2809713     0.210059 -56.63 0.0009774986    2.078    0.519
       152  -8.8699    185.1775    194.8089   8.9479327777e+01   5.9919945654e+00    0.2383578    0.2206801 -38.77 0.0007517121    1.226    0.184
       153  -8.9770    160.7627    194.3159   9.4458533815e+01   1.0552137257e+01    0.2687154    0.2163564  78.70 0.0006924319    1.635    0.389
       154  -8.9531     43.7056    193.3510   1.1968428074e+02   2.9063564955e+01    0.3844027    0.1699172  71.76  0.001698767    2.760    0.638
       155  -7.8046    231.2008    194.4133   8.0556419488e+01  -1.9900312627e+00    0.1690675    0.1180356  44.57 0.0006281639    1.618    0.382
       156  -8.9594     77.0963    193.8797   1.1263650429e+02   2.4649065092e+01    0.2635013    0.1880741  70.57 0.0009197154    1.323    0.244
       157  -8.5101    210.9683    202.2419   8.5787568849e+01   2.3368097827e-01     0.202269    0.1866427 -61.93 0.0006069546    1.534    0.348
       158  -8.0016    205.2094    191.9883   8.4966274295e+01   2.8504297002e+00    0.1733123    0.1057721 -36.21 0.0004254176    1.694    0.410
       159  -8.0851    198.9526    191.9402   8.6182924567e+01   3.9796030418e+00    0.1894445    0.1700049 -85.63 0.0005830083    1.595    0.373
       160  -8.8268    179.3332    190.9577   8.9962083634e+01   7.7378866820e+00    0.4149758    0.2127955 -32.70   0.00165513    2.326    0.570
       161  -8.6967    182.9052    185.0985   8.8114456655e+01   8.1186807426e+00    0.2275656    0.2042287 -30.26 0.0007921901    1.172    0.147
       162  -8.6669    172.1955    191.7585   9.1592960754e+01   8.9150634101e+00    0.2227607    0.1904687 -57.09 0.0006573939    1.379    0.275
       163  -9.3396    139.5628    190.6818   9.8407057536e+01   1.5117617287e+01    0.3852026    0.2674275  85.56  0.001088264    2.161    0.537
       164 -10.4968     92.2790    188.8397   1.0864897625e+02   2.3490029373e+01     0.937929    0.2723791  49.33  0.003140021    3.696    0.729
       165  -8.9508    216.7245    188.2650   8.2036544407e+01   1.4097786885e+00     0.345296      0.19973 -41.59  0.001291016    1.873    0.466
       166  -8.1301    148.6497    189.5403   9.6225352652e+01   1.3687875617e+01     0.224319    0.1721942 -81.35 0.0008952052    1.728    0.421
       167  -9.0345    129.2694    188.7259   1.0035629465e+02   1.7354691868e+01    0.3206832    0.2404143  86.76  0.001040856    1.665    0.399
       168  -8.3750    237.3805    188.6799   7.8334012711e+01  -2.1671738628e+00    0.2293804    0.1138611 -37.60 0.0007474164    2.023    0.506
       169  -9.3810    155.9527    187.3715   9.4254319425e+01   1.2758013396e+01    0.4193424     0.225959 -58.74  0.001425753    2.435    0.589
       170  -9.9102    120.8370    186.7772   1.0192670315e+02   1.9238652713e+01    0.5371534    0.3017659 -75.60  0.002200856    2.716    0.632
       171  -8.7354     34.2248    187.9643   1.2118250923e+02   3.1285737500e+01    0.3609803    0.1569592  79.68  0.001602564    2.755    0.637
       172  -8.9645    140.5944    201.3620   9.9924972312e+01   1.2850592752e+01    0.3773942    0.2493375 -87.89  0.001265456    2.510    0.602
       173  -7.9178    230.5783    187.7219   7.9365289932e+01  -8.9184772942e-01    0.1702225    0.1189395 -40.32 0.0006933925    1.592    0.372
       174  -8.7969    191.1714    187.1547   8.6820532267e+01   6.2132598801e+00    0.3337944    0.2108261 -59.02  0.001263662    2.399    0.583
       175  -8.7996    164.9827    187.0420   9.2251076674e+01   1.1131799950e+01    0.2852316    0.2222267  89.48  0.001069052    1.873    0.466
       176  -9.2150     54.6207    186.8728   1.1673502373e+02   2.9168791788e+01     0.397071    0.2006564  75.34  0.001457621    2.368    0.578
       177  -9.2745    109.6634    186.1065   1.0434231067e+02   2.1285233504e+01    0.3833564    0.2344114  73.13  0.001193459    2.238    0.553
       178  -8.9493    249.2255    185.8635   7.5717853371e+01  -3.6743854210e+00    0.2312821    0.1853903 -28.95 0.0009630055    1.294    0.227
       179  -8.8724    210.2069    184.0811   8.2454616828e+01   3.2440553095e+00    0.3166402    0.1881964 -31.39  0.001119241    1.705    0.414
       180  -8.8218    202.7749    184.5357   8.3992912174e+01   4.5214259691e+00    0.2447921    0.1787655 -53.30 0.0006834201    1.768    0.434
       181  -9.1340     66.6346    184.6046   1.1383978042e+02   2.8122127810e+01    0.3718297    0.1951955  60.42  0.001071061    1.993    0.498
       182  -8.4317    224.1419    183.6736   7.9740184424e+01   8.3375205553e-01     0.217649    0.1726328 -36.29 0.0006169945    1.357    0.263
       183  -8.9157    174.2752    183.6406   8.9637499446e+01   1.0014614422e+01    0.2660679    0.2247909  86.59 0.0007742316    1.599    0.375
       184  -8.1123      1.7796    183.7928   1.2745671361e+02   3.5241932857e+01    0.1606321   0.09693193  67.43  0.000787905    1.373    0.271
       185  -8.5752    242.8204    183.5845   7.6368633233e+01  -2.3132692778e+00    0.2244581    0.1240821  51.29  0.001050565    2.492    0.599
       186  -8.1408    240.5209    180.4844   7.6148404757e+01  -1.4750056053e+00    0.1908116    0.1156912 -40.17 0.0003089258    1.753    0.429
       187  -9.0769     44.5328    182.4569   1.1847844127e+02   3.1351764931e+01    0.3496535    0.1848826  69.90  0.001136984    1.977    0.494
       188  -9.3392    147.5674    180.6973   9.4884536911e+01   1.5647609618e+01    0.3574201    0.2655757 -84.25  0.001075448    1.876    0.467
       189  -8.8434     26.7079    180.9382   1.2216716944e+02   3.3602252661e+01    0.4449128    0.1585819  63.48  0.001782015    3.504    0.715
       190  -8.8539     24.3295    176.9928   1.2234353434e+02   3.4708364230e+01    0.3779008    0.1494289  86.76  0.001600466    2.966    0.663
       191  -8.1399    235.3086    181.6868   7.7312230991e+01  -7.7990047653e-01    0.1175025    0.1079226 -66.68 0.0004070036    1.626    0.385
       192  -8.6339    137.7825    179.6646   9.6894529333e+01   1.7684258655e+01    0.3238973    0.2046832  69.23 0.0009639843    2.311    0.567
       193  -9.3851    191.5903    178.3085   8.4993489728e+01   7.6905326037e+00    0.3030332     0.276152  82.16 0.0005651894    1.430    0.301
       194  -8.1561    169.4580    178.5342   8.9678060329e+01   1.1897576480e+01    0.2316367    0.1385177 -56.33 0.0005817676    2.102    0.524
       195  -9.1699     35.7124    176.2065   1.1980157705e+02   3.3725897409e+01    0.5438316     0.209418  84.26  0.001897166    4.309    0.768
       196  -9.4699    248.6856    176.7564   7.3985083033e+01  -2.2717866120e+00    0.4203886     0.221077 -44.72  0.001977612    2.305    0.566
       197  -8.7038    250.3890    172.8051   7.2891038999e+01  -1.9690399724e+00    0.1868941    0.1622317 -21.88 0.0005427655    1.189    0.159
       198  -8.3653    217.8309    177.5771   7.9687843610e+01   2.9292462003e+00     0.248596    0.1768369 -51.49 0.0009727539    1.824    0.452
       199  -8.5943    205.0903    177.7250   8.2172529155e+01   5.2469059387e+00    0.2300469    0.1890102 -44.48   0.00064194    1.378    0.274
       200  -8.6339    129.4391    177.4656   9.8406479148e+01   1.9677655536e+01    0.3183156    0.2056838  77.66 0.0009512202    2.400    0.583
       201  -8.4552    231.1315    176.8638   7.7083893059e+01   6.7888263198e-01    0.2224985     0.167772 -38.25 0.0006469733    1.413    0.292
       202  -9.2408    183.0829    176.2456   8.6335116546e+01   9.6968291750e+00    0.3003119    0.2378199 -50.28 0.0006637261    1.426    0.299
       203  -8.0078     97.5192    177.4944   1.0581931243e+02   2.5160983146e+01    0.1365713    0.1264063  76.87 0.0001350631    1.041    0.039
       204  -8.8211     89.2159    176.8091   1.0765516714e+02   2.6620081856e+01    0.2932956    0.1926752  70.99 0.0008879448    1.703    0.413
       205  -9.9263     57.1861    173.2221   1.1463468207e+02   3.1916888588e+01    0.7932325    0.3476467  82.13  0.002619091    4.539    0.780
       206  -9.2415     12.7489    176.3782   1.2474454219e+02   3.5912828086e+01     0.375874     0.158199  81.97  0.001679644    2.421    0.587
       207  -8.2587    211.6447    176.2201   8.0590037916e+01   4.2847739021e+00    0.1907472     0.122558 -25.59 0.0003648562    1.597    0.374
       208  -9.3286    158.8877    175.2064   9.1335342487e+01   1.4589907918e+01    0.3917554    0.2724363  74.94  0.001383199    2.231    0.552
       209  -9.6224    104.2469    174.6209   1.0379291810e+02   2.4702310521e+01    0.5248257    0.3245839  74.74  0.001581793    2.219    0.549
       210 -10.7221     76.0115    169.5749   1.0973451438e+02   3.0232156773e+01     1.357352    0.4967026 -70.20  0.004767602    3.266    0.694
       211  -7.7837    241.3230    174.3275   7.4755357854e+01  -6.8324604918e-01    0.1402004   0.09265126   2.44 0.0002953486    1.692    0.409
       212  -8.2889    224.4051    174.2306   7.7771632365e+01   2.2865415207e+00    0.1848972    0.1229049 -42.86 0.0006014128    1.645    0.392
       213  -9.0337    200.1572    171.9655   8.1966053786e+01   7.1792255430e+00    0.5075622    0.3428435  77.29  0.001984038    3.346    0.701
       214  -9.2362    175.6750    172.4339   8.7131342457e+01   1.1855497324e+01    0.3074019    0.2424282 -47.42 0.0008361183    1.366    0.268
       215  -8.5841    142.9114    172.5920   9.4426097448e+01   1.8195992357e+01    0.2816167    0.1947681 -71.03 0.0008866298    1.883    0.469
       216  -8.6521    134.7668    171.8674   9.6164855406e+01   1.9887558138e+01    0.2600209    0.1976857 -79.14 0.0006731366    1.614    0.380
       217  -9.5565    121.3641    170.5583   9.9062628955e+01   2.2635006321e+01    0.3833556    0.2670697 -82.59  0.001068162    1.851    0.460
       218  -9.3169     44.9206    170.7775   1.1717857238e+02   3.3943660166e+01    0.3946456    0.2036465  85.58  0.001435358    2.170    0.539
       219  -8.4683    205.7503    170.2798   8.0505412182e+01   6.4052178491e+00    0.3105618    0.1805667 -51.84  0.001198061    2.243    0.554
       220  -7.8908     68.3596    170.6853   1.1170432596e+02   3.1041821100e+01    0.1949504    0.1227989 -87.93 0.0009791881    1.674    0.403
       221  -7.9806     66.3191    168.2841   1.1186925433e+02   3.1871965878e+01     0.179739    0.1164588 -81.11 0.0002448743    1.506    0.336
       222  -8.1860    237.3140    169.8673   7.4534523037e+01   6.9237776086e-01    0.2015223    0.1522804 -40.76 0.0005345588    1.446    0.308
       223  -9.0069    230.1989    170.0803   7.5849104022e+01   1.9147987292e+00    0.2191571    0.1657622  -2.60 0.0007878917    1.311    0.237
       224  -9.1149    167.1326    168.5427   8.8190183010e+01   1.4298763541e+01    0.3309749    0.2625855 -84.82  0.001064299    1.764    0.433
       225  -8.6818    149.7466    169.6460   9.2299225329e+01   1.7494498674e+01    0.2760961    0.2005563 -63.29 0.0006250009    1.618    0.382
       226  -8.0618    244.6390    169.3382   7.3151554826e+01  -4.8763048338e-01    0.1775447    0.1573621 -62.57 0.0006280487    1.651    0.394
       227  -8.2390    218.8988    168.5040   7.7602276480e+01   4.2316272167e+00    0.2047457    0.1752192 -19.10 0.0005407524    1.097    0.089
       228  -8.8196    111.5324    167.4016   1.0084685400e+02   2.5080481976e+01    0.3974549    0.2501862 -70.52  0.001782881    1.833    0.454
       229  -8.4245     88.6071    168.8069   1.0660075878e+02   2.8535090663e+01    0.2742336    0.1879168  82.54 0.0008476044    1.671    0.402
       230  -8.7810    191.9478    166.5683   8.2498359703e+01   9.7498417572e+00    0.3020853     0.199285 -43.84 0.0006374046    1.587    0.370
       231  -9.0825    185.0852    166.6083   8.3932047220e+01   1.1101899313e+01    0.2636719    0.2024688 -56.90   0.00075626    1.572    0.364
       232  -9.1354     20.6143    166.1579   1.2222670726e+02   3.7486387682e+01    0.3973266    0.1619554  64.88  0.001529435    2.839    0.648
       233  -9.9903    136.6011    164.3882   9.4310962489e+01   2.1149367694e+01     0.650647    0.3087178  57.22  0.002079751    2.987    0.665
       234 -10.1218     94.7074    162.5693   1.0411459890e+02   2.9012682447e+01    0.7985136    0.4418153  82.31  0.002850434    3.420    0.708
       235  -8.3818    233.8068    165.0544   7.4143272587e+01   2.0727657652e+00    0.1998679    0.1751706 -38.54 0.0005864478    1.292    0.226
       236  -8.6081    159.4085    164.3496   8.9046370929e+01   1.6681343028e+01     0.294622    0.2373408  81.69 0.0008857369    1.621    0.383
       237  -8.9899     60.4341    160.1354   1.1219568184e+02   3.4547490327e+01    0.4065413    0.2241152 -67.69   0.00153487    1.643    0.391
       238  -9.4443     33.4503    163.5261   1.1905405695e+02   3.6848887166e+01    0.5129222    0.1943061  54.15  0.002210017    2.874    0.652
       239  -8.1116    239.9137    164.1732   7.2883317755e+01   1.1280307410e+00    0.1935375    0.1769357 -36.98 0.0006824525    1.295    0.228
       240  -8.5463    212.9660    163.5422   7.7672590206e+01   6.1935622159e+00    0.2584787      0.18751 -49.87 0.0006951815    1.629    0.386
       241  -9.0839    247.0043    143.9991   6.7321466863e+01   3.0586669512e+00    0.2983157    0.1756133 -27.33 0.0005184452    1.567    0.362
       242  -8.9568    246.0820    163.0120   7.1580400349e+01   2.3461746356e-01     0.235792    0.1730686 -28.42 0.0007159634    1.229    0.186
       243  -8.9236    244.0223    159.4581   7.1175173069e+01   1.1450638484e+00    0.4625677    0.2331734  26.06  0.001941672    2.632    0.620
       244  -9.7799    248.8813    149.6393   6.8248218195e+01   1.8279613412e+00    0.4019907    0.1997773 -36.24 0.0008924847    1.804    0.446
       245  -9.9550    250.1461    157.8232   6.9800129925e+01   3.3350288302e-01    0.3701847    0.1950999 -36.28 0.0008199125    1.728    0.421
       246  -8.5715    246.7142    155.6652   6.9909075994e+01   1.2656208499e+00    0.2692343    0.1590196 -11.30 0.0006670795    2.078    0.519
       247  -8.3078    204.9615    162.9524   7.9103099114e+01   7.8461238914e+00    0.2096765    0.1794122 -75.22 0.0006100149    1.634    0.388
       248  -9.4373      3.3746    162.4074   1.2572252916e+02   3.9767501026e+01     0.367453    0.1548269  58.87  0.001896723    2.344    0.573
       249  -8.9653    177.4513    160.8938   8.4339675396e+01   1.3732607706e+01     0.280568    0.2368222 -73.71 0.0008092589    1.511    0.338
       250  -8.8374    151.6400    161.2222   9.0169077766e+01   1.8881524522e+01    0.3202244    0.2443808 -82.23   0.00097741    1.781    0.438
       251  -8.6071    237.0064    159.3100   7.2352378370e+01   2.4176298449e+00    0.2372818    0.1855238 -49.41  0.001027925    1.555    0.357
       252  -8.7012    227.4732    159.3279   7.4053850120e+01   4.1631112562e+00    0.2723993    0.2039725 -59.10 0.0008121429    1.896    0.473
       253  -9.7129    105.9598    158.2788   1.0058015028e+02   2.8128975692e+01    0.4780611    0.3112197  72.19  0.001400133    2.025    0.506
       254  -8.5368    196.8977    158.2131   7.9685487134e+01   1.0303802562e+01    0.2513382    0.2058191 -63.42 0.0006864544    1.568    0.362
       255  -8.3529    128.0985    158.9063   9.5263253842e+01   2.3974116503e+01    0.2297863    0.1941363  81.10 0.0005435576    1.311    0.237
       256  -8.3424    187.9947    157.7867   8.1425714972e+01   1.2186373623e+01     0.253836    0.1869169 -53.49 0.0006708267    1.571    0.363
       257  -9.1978    167.6457    157.4414   8.5742553569e+01   1.6421498913e+01    0.3381268    0.2754709 -86.81  0.001102837    1.646    0.393
       258  -8.2413    217.9548    156.4793   7.5189353234e+01   6.4518162067e+00    0.2613389    0.1842494 -47.75 0.0006497508    1.599    0.375
       259  -8.9120    157.5355    156.4997   8.7821099434e+01   1.8682756788e+01    0.2781948    0.2395589 -87.69 0.0006841401    1.403    0.287
       260  -9.3022    119.5675    155.3156   9.6643090220e+01   2.6378499386e+01    0.3965278    0.2753888 -85.16  0.001401881    1.945    0.486
       261  -9.6159     81.5722    154.8274   1.0611525298e+02   3.2874644862e+01    0.4870844    0.2911519  75.28  0.001499357    2.293    0.564
       262  -9.3093     49.7768    155.4854   1.1420473412e+02   3.6948321458e+01    0.4468525    0.2219792  66.45  0.001616599    2.591    0.614
       263  -8.6836    144.8192    155.0064   9.0462172133e+01   2.1571524368e+01    0.3843091    0.2825137  81.91    0.0011796    1.924    0.480
       264  -8.8227    241.9811    154.5392   7.0464505077e+01   2.2847119836e+00    0.3511205    0.2552364  78.05  0.001644879    2.712    0.631
       265  -7.9754    204.7859    155.5588   7.7521556792e+01   9.2057302909e+00    0.1866051    0.1403578  54.87 0.0003940896    1.550    0.355
       266  -9.8441    132.9137    152.9701   9.2892582784e+01   2.4372801879e+01    0.5046511    0.3736557 -69.85  0.001311387    1.573    0.364
       267  -9.1655    133.5174    147.9942   9.1694539838e+01   2.5366141241e+01    0.2816612     0.218534 -32.99  0.001072353    1.438    0.305
       268  -9.6929     67.9543    153.8409   1.0941584696e+02   3.5050742251e+01    0.4414412    0.2527525  80.44  0.001376266    2.362    0.577
       269  -7.9712    232.9927    154.0482   7.1915830477e+01   4.0075535423e+00    0.2070318    0.1695268 -64.98 0.0006536742    1.742    0.426
       270  -8.6083    151.9839    152.1035   8.8155344872e+01   2.0744979166e+01    0.4382316    0.1901105 -35.22  0.001449993    3.068    0.674
       271 -10.2086    149.1172    145.1514   8.7293169907e+01   2.2830826156e+01    0.5820807    0.3976575  86.73  0.001982921    2.533    0.605
       272  -8.8984     20.0551    152.8173   1.2112065927e+02   4.0591151995e+01    0.1935442    0.1043667  59.83  0.000518718    1.893    0.472
       273  -8.2747      8.7791    153.3939   1.2380897217e+02   4.1383806114e+01    0.1301129    0.1168843  -1.13 0.0006324747    1.604    0.377
       274  -9.7558     29.2049    150.4753   1.1867096053e+02   4.0305231202e+01    0.5086144    0.2225583  76.02  0.002020988    3.296    0.697
       275  -9.0416      2.8839    150.7424   1.2494599007e+02   4.2424281332e+01    0.2476127    0.1278868 -87.62  0.001305952    1.587    0.370
       276  -8.8891    189.5209    150.1156   7.9396812053e+01   1.3337056411e+01    0.3325388    0.2431488 -66.16 0.0008789334    1.918    0.479
       277  -8.0325    182.2486    151.2065   8.1177840084e+01   1.4641234480e+01    0.2023183    0.1787309 -79.09 0.0006031414    1.404    0.288
       278  -8.1698    162.7284    150.9138   8.5417066707e+01   1.8776901095e+01    0.2386893    0.1767503 -76.47 0.0008156084    1.926    0.481
       279  -8.7141     98.1961    150.7073   1.0114824138e+02   3.1216543795e+01    0.2951736    0.2101277  88.09 0.0009008892    1.707    0.414
       280  -8.3419    237.2339    150.4184   7.0378622921e+01   3.8153665810e+00    0.2200637    0.1312116  43.25 0.0003530371    1.789    0.441
       281  -9.2668    242.4984    149.4920   6.9277226058e+01   2.9987111489e+00    0.3124915    0.2879846  38.27  0.001732986    1.269    0.212
       282  -8.8278    240.1606    145.2120   6.8727877912e+01   4.1215320080e+00    0.2183532     0.188807 -24.78 0.0005621031    1.070    0.065
       283  -9.3582    242.7361    143.0165   6.7808229027e+01   4.0002226026e+00    0.4581569    0.1762176 -26.48  0.001584224    3.210    0.688
       284  -8.2026    213.0075    149.9972   7.4683712970e+01   8.5575553871e+00    0.2156328    0.1977638 -16.10 0.0003552736    1.039    0.038
       285  -9.9191     39.6820    147.2312   1.1567602331e+02   4.0026216178e+01    0.6414911    0.3450716  86.85   0.00270105    2.099    0.524
       286  -8.4874    198.8966    149.0927   7.7244137655e+01   1.1587660526e+01    0.2192734    0.2000239 -74.37 0.0006028793    1.351    0.260
       287  -8.8406    233.4817    147.6254   7.0412196170e+01   4.9775678917e+00    0.2751037    0.1760085 -33.24  0.000985468    1.432    0.302
       288 -10.3785    106.9202    144.1064   9.7614934295e+01   3.1268484687e+01    0.8670949    0.5858731 -85.01  0.002407508    2.000    0.500
       289 -10.7437     54.7685    144.7200   1.1144573948e+02   3.8927666834e+01    0.9275828    0.5461941 -85.18  0.003752339    1.834    0.455
       290  -8.7867     51.3255    138.3376   1.1140104213e+02   4.0875745368e+01    0.4428216    0.2588342 -23.40  0.001832446    3.333    0.700
       291  -8.3736    223.2647    146.9604   7.2086676405e+01   7.0580682019e+00    0.1995544    0.1734776 -20.35 0.0004118234    1.052    0.050
       292  -8.2621    206.7886    146.5381   7.5098100334e+01   1.0436443331e+01     0.229385     0.173165 -40.69 0.0005902433    1.320    0.242
       293  -8.4017    175.5144    146.4677   8.1557882122e+01   1.6998195337e+01    0.2519243    0.1429918 -52.47 0.0001052629    2.033    0.508
       294  -9.6560    139.0596    145.0368   8.9692251371e+01   2.4917159169e+01    0.4194473    0.2909586 -73.75  0.001081774    1.957    0.489
       295  -9.0035     78.2157    147.1115   1.0568623281e+02   3.5214284426e+01    0.2713536     0.162431  63.65  0.000827128    2.044    0.511
       296  -9.8736     13.5180    146.0741   1.2203337370e+02   4.2695584935e+01    0.3816674    0.2060476  83.03  0.001653378    1.776    0.437
       297  -8.9189    165.4678    144.2084   8.3277758481e+01   1.9593278863e+01    0.2781439    0.2394628  61.86 0.0006596825    1.276    0.216
       298  -9.9136    125.0405    142.6166   9.2648849552e+01   2.8244244623e+01    0.6044836    0.3763569 -70.28  0.001938354    2.157    0.536
       299 -10.6876     69.3866    141.2583   1.0702558439e+02   3.7879557438e+01    0.6045143    0.4000592 -63.41  0.002160499    1.368    0.269
       300  -9.7275     69.5046    134.4364   1.0580204133e+02   3.9517209317e+01    0.4707965    0.2790401   8.85  0.001892157    3.162    0.684
       301 -10.1358     89.0904    145.4851   1.0254497176e+02   3.3942120348e+01    0.8902535    0.4607651 -72.52  0.003497602    2.447    0.591
       302  -9.6285      2.9474    142.0146   1.2420785435e+02   4.4408977595e+01    0.4015414    0.1829877  67.27  0.001593319    2.394    0.582
       303  -8.2085    182.1103    141.8839   7.9066409991e+01   1.6506906419e+01    0.2270716    0.2055489 -78.00 0.0005218768    1.311    0.237
       304  -8.6029    250.4949    140.9490   6.6084228132e+01   2.9111433531e+00    0.3437112    0.1107455 -39.38  0.001176032    2.794    0.642
       305  -9.0331    250.7223    130.2000   6.3655288139e+01   4.5828936625e+00    0.4309005    0.1163584 -33.73  0.001402437    3.416    0.707
       306  -9.1286    248.2873    135.4207   6.5209187559e+01   4.1975368414e+00    0.3185751     0.210931 -35.21 0.0007937966    1.341    0.255
       307  -8.6829    246.9845    130.5022   6.4310550168e+01   5.2347409120e+00    0.2625883    0.1694875 -44.48 0.0006483359    1.546    0.353
       308  -9.7381     23.4794    138.3078   1.1873031359e+02   4.3692857975e+01    0.5039418    0.2363025  68.36  0.002175614    2.751    0.636
       309  -8.7046    172.1360    138.3952   8.0420146759e+01   1.9359585275e+01    0.3019409    0.2315293 -79.66 0.0007712705    1.850    0.459
       310  -9.4285    139.3924    137.9116   8.8001254454e+01   2.6433269716e+01    0.4543787    0.3133526   0.18  0.001787893    2.456    0.593
       311  -7.6793    218.5272    138.5266   7.1026696877e+01   9.4750018548e+00     0.145907    0.1338845 -16.67 0.0001392835    1.016    0.016
       312  -8.2049    207.6774    138.1823   7.2990605472e+01   1.1777608411e+01    0.2303251    0.1778205 -54.57 0.0007507117    1.499    0.333
       313  -8.5934    197.5996    137.6973   7.4861448049e+01   1.3999188604e+01    0.2716244    0.2128519 -64.82 0.0006764142    1.634    0.388
       314  -8.9369    150.7638    136.3181   8.4862237891e+01   2.4400110844e+01    0.5101086    0.3054919  15.64  0.001706046    3.276    0.695
       315  -9.1831     39.0444    136.1695   1.1437527321e+02   4.2739662916e+01    0.3019376    0.1812677 -89.31 0.0008816381    1.728    0.421
       316  -8.1767    162.4265    136.2617   8.2109275762e+01   2.1906437644e+01    0.2181091    0.1464481 -54.74 0.0007951123    1.650    0.394
       317  -8.6206    179.4941    134.1725   7.7794685604e+01   1.8609746028e+01    0.2996223    0.2312662 -85.27 0.0009106506    1.880    0.468
       318 -10.3508     83.3788    132.9341   1.0168736095e+02   3.7856346197e+01    0.5284785     0.328039 -74.33  0.001359124    1.837    0.456
       319  -7.9368    237.5292    133.9457   6.6633770255e+01   6.4789780829e+00    0.2145689      0.12606 -35.94 0.0007385942    1.536    0.349
       320  -8.1571    231.4798    134.0117   6.7675585003e+01   7.6537656667e+00    0.2164644     0.129733 -34.77 0.0004253786    1.522    0.343
       321 -10.0087    132.6213    131.3371   8.8161935602e+01   2.9299454585e+01    0.7109402    0.4786726 -83.11  0.002044497    2.425    0.588
       322  -9.0754    112.7936    133.2239   9.3758117830e+01   3.2754697258e+01    0.3606039    0.2612862 -82.94 0.0009549457    1.786    0.440
       323  -9.1695    143.0101    131.7732   8.5663204317e+01   2.7039354206e+01    0.3307214    0.2597061 -76.68 0.0008023942    1.588    0.370
       324 -10.5314     98.2077    130.1241   9.7017226436e+01   3.6109195600e+01    0.9024401    0.3413673 -52.23  0.001701586    2.475    0.596
       325  -8.1203    204.5751    130.7147   7.1815734786e+01   1.3811487357e+01     0.208207    0.1362339 -46.82 0.0005476681    1.582    0.368
       326 -10.3156     12.8414    128.8159   1.2042021560e+02   4.6777450855e+01    0.5633654    0.2603199  88.51  0.002278632    2.326    0.570
       327  -8.0010    220.5175    130.0150   6.8671442813e+01   1.0567917885e+01    0.2199389    0.1353088 -36.04 0.0004679578    1.510    0.338
       328  -8.0203    192.6968    130.1342   7.4037957388e+01   1.6503614087e+01    0.2354636     0.180838 -50.50 0.0004548734    1.384    0.278
       329  -9.0737    168.1535    129.4300   7.9142986075e+01   2.2076318393e+01     0.315181    0.2661236 -83.28 0.0005649291    1.470    0.320
       330  -9.4416    152.9879    129.0685   8.2581433722e+01   2.5487886885e+01     0.453861     0.282545 -61.71 0.0007307228    2.083    0.520
       331 -10.0657     73.1411    128.6419   1.0370714912e+02   4.0415756322e+01    0.5604824    0.3019418 -64.20  0.001675766    1.773    0.436
       332  -8.0249      1.7361    130.5312   1.2347021132e+02   4.7131080807e+01    0.1448831   0.09999731  51.57 0.0009380983    1.580    0.367
       333  -7.9101    211.4220    129.1739   7.0140772832e+01   1.2629157215e+01    0.2167086    0.1308207 -47.64 0.0008072979    1.754    0.430
       334 -10.7929     44.9137    123.6484   1.1085582091e+02   4.5150793424e+01     1.101197    0.5449096  79.09  0.003909956    3.933    0.746
       335 -10.0247    118.0817    125.3062   9.0521165228e+01   3.3589285296e+01    0.6208369    0.4264053  85.02  0.001416055    2.299    0.565
       336 -10.4495     60.0340    125.1863   1.0678750114e+02   4.3015159847e+01    0.7036924    0.4046418  78.99  0.002515391    2.730    0.634
       337  -7.7034    228.4676    125.4689   6.6201482235e+01   9.7211369767e+00    0.1447891    0.1314026 -27.94 0.0003455764    1.036    0.035
       338  -8.8484    179.3361    124.8471   7.5533048223e+01   2.0510983730e+01    0.2757048     0.237909  89.67 0.0006240995    1.421    0.296
       339 -10.3112     28.5474    122.5143   1.1533540551e+02   4.7016873642e+01    0.7061841    0.3391203  77.27  0.002804929    3.284    0.695
       340  -7.9430    188.7618    124.1992   7.3382217885e+01   1.8523551694e+01    0.2394701    0.1634465 -77.97 0.0006252575    2.569    0.611
       341  -8.7424     84.9395    123.0237   9.9202127936e+01   4.0004376425e+01    0.4402674    0.2642634   4.25  0.001544076    3.724    0.732
       342  -8.3858    235.0000    122.9968   6.4521948516e+01   8.8148672498e+00    0.2399486   0.07456268 -35.79 0.0006559708    2.905    0.656
       343  -8.7867    203.0834    120.4266   6.9588042389e+01   1.6046980458e+01    0.6964232     0.183831 -35.41  0.001928242    3.973    0.748
       344  -8.0131    195.0912    122.1787   7.1591150670e+01   1.7496326911e+01    0.2087223    0.1803934 -67.10 0.0005026471    1.345    0.257
       345  -8.4553    172.0242    121.6553   7.6325788180e+01   2.2804430638e+01    0.2604649    0.2081455 -53.19 0.0005110126    1.320    0.243
       346  -9.1271    158.5940    121.0735   7.9244890935e+01   2.5953498823e+01    0.4810503    0.2692717 -44.17  0.001927323    1.766    0.434
       347  -7.8161    147.5571    121.5350   8.2011638932e+01   2.8302351770e+01    0.1553721    0.1526947 -41.18 5.121486e-05    1.009    0.009
       348 -10.0530    131.4335    119.1323   8.5472744303e+01   3.2293931991e+01    0.5766069    0.3871052  79.77  0.001940783    2.511    0.602
       349  -9.5535     71.1036    120.1372   1.0259920043e+02   4.2766910899e+01     0.350834    0.2443729 -89.94  0.001097741    1.781    0.439
       350  -9.8500    141.5394    118.3200   8.2681145665e+01   3.0316089401e+01    0.5762809    0.3165141 -55.51  0.001056659    2.104    0.525
       351  -8.8810     15.4039    119.3853   1.1860425831e+02   4.8814228225e+01    0.1989325    0.1095966  -8.69 0.0009568921    3.152    0.683
       352  -9.8903      3.0511    117.4748   1.2179524810e+02   5.0077687632e+01    0.5032173    0.2417635  76.67  0.002454201    2.465    0.594
       353  -8.0327    231.5526    117.7748   6.3859022210e+01   1.0403023890e+01    0.2101165    0.1224241 -45.36 0.0009381534    1.698    0.411
       354  -9.9391    109.4425    114.3804   9.0211198875e+01   3.7783934583e+01    0.5978404    0.3867398 -78.57   0.00164771    2.471    0.595
       355  -9.1323    109.1478    107.8387   8.8614275433e+01   3.9344872709e+01    0.4209404    0.2736502  -1.41  0.001531381    2.972    0.664
       356  -8.4275    219.3604    116.1971   6.5555739691e+01   1.3250923035e+01    0.2172134     0.125985 -43.61 0.0009430405    1.666    0.400
       357  -8.3861    185.8141    116.0905   7.1938867770e+01   2.0767689056e+01    0.2398451    0.2073572 -65.36  0.000614592    1.305    0.234
       358  -8.7673     59.0128    115.3569   1.0521605868e+02   4.5528540409e+01    0.3080338    0.1976313  -8.49  0.001365165    2.624    0.619
       359  -8.9466    250.1829    115.1483   6.0318560020e+01   7.1041827750e+00    0.2182542    0.1779176 -48.91 0.0008267844    1.258    0.205
       360 -10.4064    248.4730    108.0600   5.8935250723e+01   8.5809896997e+00    0.3772223    0.3057015 -28.43  0.001867621    1.106    0.096
       361 -10.6231    249.2234    103.1898   5.7694984056e+01   9.2135053761e+00    0.4554128    0.3441693 -50.33  0.002498087    1.319    0.242
       362 -10.0665     79.0635    112.5031   9.8586253372e+01   4.3441092642e+01    0.6178902    0.3889593 -84.75  0.001934702    2.430    0.589
       363  -8.8847     78.5114    105.4493   9.7095621936e+01   4.5202015397e+01    0.3152058    0.2301282   7.12  0.001359903    1.843    0.457
       364  -8.0598    167.4839    114.5374   7.5501421065e+01   2.5290957060e+01    0.1566378    0.1526243 -60.80 0.0008085449    1.060    0.057
       365 -10.0034    133.7475    109.8046   8.2433931439e+01   3.3869992112e+01    0.6623397    0.3355908 -55.01  0.001888107    2.320    0.569
       366  -8.3378    192.9326    115.1421   7.0246213671e+01   1.9323228955e+01    0.2348866    0.2014939 -61.96 0.0004532364    1.297    0.229
       367  -9.8994    121.9120    112.4524   8.6279898316e+01   3.5766628868e+01     0.393648    0.2903411 -58.23 0.0008545896    1.426    0.299
       368  -8.6866     27.2884    113.5696   1.1437699727e+02   4.9265674979e+01    0.2020237    0.1216466  31.77  0.000944329    1.947    0.486
       369  -8.3127    174.7188    111.8495   7.3191012913e+01   2.4161635794e+01    0.2900051    0.2030468 -55.09 0.0007180527    1.594    0.373
       370  -8.5248    159.1862    111.9338   7.6718551944e+01   2.7731492431e+01    0.2394493     0.212759 -71.90 0.0004494932    1.256    0.204
       371 -10.3945     66.2374    109.9938   1.0191026486e+02   4.5883798343e+01     0.569323    0.3272766 -65.63  0.002046444    1.729    0.422
       372 -10.0554     13.9260    111.0732   1.1793957508e+02   5.0880382791e+01    0.3642646    0.2033158  79.22  0.001584826    2.112    0.526
       373  -7.8895    153.2928    115.6593   7.9100543306e+01   2.8288591806e+01     0.160427    0.1262126 -78.85 0.0007027793    1.653    0.395
       374  -7.8284    182.7935    109.5566   7.0867198614e+01   2.2734501401e+01    0.2009681    0.1531496  66.46 0.0004814968    1.532    0.347
       375  -8.9189     43.3947    109.5066   1.0883187392e+02   4.8726275384e+01    0.2870432    0.1400827  22.58  0.001300565    2.613    0.617
       376  -8.0343    189.3925    108.1667   6.9151616462e+01   2.1465053128e+01    0.2224868    0.1384637 -47.78 0.0005449116    1.651    0.394
       377 -10.1380    118.3519    105.1415   8.5309981511e+01   3.8133453288e+01    0.6025721    0.3989267 -73.42  0.002389743    2.294    0.564
       378 -10.2501    108.7473     98.7892   8.6281801319e+01   4.1465210016e+01    0.6386557    0.4233478  74.49 0.0009943575    2.579    0.612
       379  -9.2468    107.6347     92.8520   8.4921114691e+01   4.2992678018e+01    0.6505211    0.3268307  27.53  0.002258498    2.972    0.664
       380  -9.5491    150.7848    103.4022   7.6398454199e+01   3.1431239180e+01    0.5158174    0.3394943 -70.37  0.001379577    2.350    0.574
       381  -9.3088    139.8726    104.6757   7.9459963081e+01   3.3635751184e+01    0.3999627    0.3056864 -82.85 0.0009079324    1.805    0.446
       382 -10.4727     45.7029    102.4682   1.0674102888e+02   5.0167674412e+01    0.7429144    0.4226812  73.99  0.003046691    3.113    0.679
       383  -9.2687     46.6562     92.6035   1.0431546645e+02   5.2394349755e+01    0.4242924    0.2263554  10.42  0.001851581    2.873    0.652
       384 -10.6414     22.9171    102.6968   1.1397836686e+02   5.2203078882e+01    0.7025333    0.3738131  74.94  0.002677416    2.850    0.649
       385  -8.5645    166.6745    104.2067   7.2916559633e+01   2.7566354575e+01    0.2679725    0.2297983 -60.75 0.0005953598    1.260    0.206
       386  -9.2188      6.7345    103.2552   1.1901549119e+02   5.3170295537e+01    0.2760526    0.1853888  81.34  0.001098112    1.555    0.357
       387  -8.2106    232.2867    103.6545   6.0347964068e+01   1.2636082642e+01     0.148037    0.1051823 -59.59 0.0004697106    1.650    0.394
       388 -10.1016    128.3468    102.1339   8.1760472557e+01   3.6705466797e+01    0.3696158    0.2859674 -55.95 0.0007531505    1.359    0.264
       389  -7.9482    175.4407    102.2233   7.0456469977e+01   2.5887088832e+01    0.2218317    0.1444605 -49.17  0.000861579    1.598    0.374
       390  -8.3845    159.8443    101.1393   7.3626081829e+01   2.9786889835e+01    0.2427227    0.2132093 -68.13 0.0004678676    1.260    0.206
       391  -9.3463     81.9715     99.8773   9.4636104021e+01   4.5968523321e+01    0.3941723     0.266869 -76.96   0.00094618    2.008    0.502
       392  -9.3474     94.9344     97.0627   8.9899619859e+01   4.4430979062e+01     0.313715    0.2835788 -82.09 0.0006146937    1.244    0.196
       393 -10.2250     63.6398     95.8408   9.9465079301e+01   4.9587353427e+01    0.5399873    0.3511612  89.49  0.001530858    2.501    0.600
       394  -8.8062     64.8266     87.7319   9.7010685786e+01   5.1299305182e+01    0.3981402    0.2414882   2.99  0.001679389    2.707    0.631
       395  -7.5543    183.7364     96.6902   6.7224810214e+01   2.4966382162e+01    0.1523574    0.1221028   4.20 0.0002229851    1.534    0.348
       396 -10.3149     92.9442    111.4397   9.4216150775e+01   4.1451319560e+01    0.9938307    0.3773572 -52.09  0.002838489    2.457    0.593
       397  -8.2375    151.3586     95.2883   7.3971801840e+01   3.2956161319e+01    0.1633014    0.1244755  13.39 0.0007024873    1.684    0.406
       398  -8.3196    176.5295     93.3002   6.7769256946e+01   2.7334606114e+01    0.2872588    0.1461311 -42.13 0.0006858311    1.918    0.479
       399  -8.0286    164.5682     94.0127   7.0550552493e+01   3.0076193304e+01      0.23711    0.1512892 -40.42 0.0004490544    1.535    0.348
       400  -9.4930    139.1043     92.1195   7.6080355251e+01   3.6433643972e+01    0.5245331    0.3116578 -51.06  0.001402968    1.820    0.451
       401 -10.4767    123.6905     91.3911   7.9939141251e+01   4.0003090009e+01    0.5783712    0.4643143  15.53   0.00113016    1.461    0.316
       402  -9.5971      5.3606     92.4530   1.1791953197e+02   5.5748988935e+01    0.3145541    0.1871982  61.35  0.001152635    2.149    0.535
       403  -8.1010    157.7636     91.7615   7.1450530054e+01   3.2141898084e+01    0.2155165    0.1848903 -72.09 0.0004776727    1.335    0.251
       404  -9.6859     34.7252     89.7015   1.0770292792e+02   5.4263283617e+01    0.4972928    0.2489482 -78.88  0.001591118    2.744    0.636
       405  -9.1665     23.2612     90.0763   1.1164798407e+02   5.5135071628e+01    0.2877141    0.2550144  -9.92   0.00167051    1.341    0.255
       406  -7.9872    150.8603     88.8264   7.2214561295e+01   3.4357977117e+01    0.2180007    0.1816017 -60.72 0.0003943919    1.322    0.244
       407 -10.2279     86.4152     85.9252   8.9409691325e+01   4.8399527675e+01    0.7568902    0.4595027 -46.95   0.00166248    1.524    0.344
       408  -9.0479     92.9609     78.9652   8.5228634267e+01   4.8747993297e+01    0.2135151    0.1960223 -22.41            0    1.031    0.030
       409  -7.9481    164.2071     87.0118   6.8623045498e+01   3.1504491486e+01    0.2140187    0.1243237 -37.14 0.0006027523    1.699    0.411
       410  -7.5788    179.4769     85.9817   6.5113504253e+01   2.7973159573e+01    0.2290595    0.1227726 -56.27 0.0008095223    2.487    0.598
       411  -9.8828     48.2909     84.3107   1.0179157832e+02   5.4131194197e+01    0.4470731     0.304849  80.20  0.001707107    2.321    0.569
       412  -9.6862    104.7362     83.1510   8.2892692270e+01   4.5641230783e+01    0.4563287    0.3343432 -75.24 0.0009814886    2.002    0.500
       413  -8.7108    105.0115     77.4888   8.1043609216e+01   4.6758662520e+01    0.3448491    0.2286705  -5.23  0.001396038    2.331    0.571
       414  -8.2858    158.0195     84.0119   6.9128043818e+01   3.3569936171e+01    0.2433971    0.1889665 -70.74 0.0004835296    1.601    0.375
       415  -9.1319    140.8210     82.7549   7.2847092509e+01   3.7906163582e+01    0.4318301    0.2041838 -46.15 0.0009741359    2.203    0.546
       416  -9.7373    247.2430     92.8656   5.5557756833e+01   1.1260497823e+01    0.2701125    0.1761116  27.05  0.001260059    2.202    0.546
       417  -9.6393    249.7863     81.7696   5.2611603042e+01   1.2468259525e+01     0.371472    0.1207701 -41.01  0.001379609    2.583    0.613
       418  -7.4403    170.3870     83.6854   6.6327698967e+01   3.0616828215e+01    0.1661961    0.1224167 -77.29 0.0007015808    1.829    0.453
       419  -9.7933      9.8495     80.9925   1.1455147405e+02   5.8117764469e+01    0.3873491    0.2117862  66.65  0.001790553    2.881    0.653
       420  -8.4559    150.1978     80.6663   6.9935637824e+01   3.6086177224e+01    0.2763664    0.2051937 -49.64 0.0008146568    1.408    0.290
       421  -9.1483    119.5967     79.7743   7.7536629787e+01   4.3271567675e+01    0.5617609     0.271748 -37.70  0.002144733    2.066    0.516
       422  -8.8907     74.4459     80.2935   9.1691215988e+01   5.1568102110e+01    0.3264387    0.2183276 -65.08 0.0009365269    1.821    0.451
       423  -8.1134    166.8022     79.7754   6.5946473211e+01   3.2209677508e+01    0.2092049     0.179124 -68.73  0.000343888    1.298    0.230
       424  -7.8093    174.7145     78.3336   6.3885462782e+01   3.0515938649e+01     0.159263    0.1188174 -66.97 0.0003336612    1.621    0.383
       425  -9.3778    105.8922     71.2211   7.8751527938e+01   4.7833161342e+01    0.7070169    0.2722342 -47.31  0.002320434    2.797    0.642
       426  -9.3088    128.1047     75.4079   7.3834549750e+01   4.2248358877e+01    0.3657715     0.257134 -60.69 0.0006558019    1.798    0.444
       427  -9.9290     63.4320     73.9500   9.3618078326e+01   5.4550200289e+01    0.6741568    0.2931228 -59.69  0.002415162    2.895    0.655
       428  -8.9250     63.6156     64.9861   9.0765117768e+01   5.6413039893e+01    0.6524088    0.2974412 -24.68  0.002006589    4.683    0.786
       429  -7.7665    157.2863     76.6519   6.7090684970e+01   3.5111477223e+01    0.1604077    0.1210455 -68.22 0.0007021263    1.655    0.396
       430  -8.5002    140.3711     75.5245   7.0724609274e+01   3.9390839173e+01    0.2617989    0.2245847 -88.34 0.0006267265    1.406    0.289
       431  -9.8192     82.5831     71.7651   8.6328531204e+01   5.2068612408e+01    0.8498588    0.3468461 -43.55  0.002884236    2.266    0.559
       432  -9.6676     24.5299     80.3944   1.0926822947e+02   5.7264552065e+01    0.4522485    0.2443021 -82.74  0.001441189    2.522    0.604
       433  -8.2172    163.4273     73.2602   6.4725654008e+01   3.4206110781e+01    0.2204413    0.1414676 -46.31 0.0007957874    1.604    0.376
       434  -7.9818    151.5099     73.4757   6.7428929391e+01   3.7095421147e+01     0.153397    0.1513082 -64.32 0.0001702978    1.041    0.039
       435  -8.8516    115.6337     72.7656   7.6412912609e+01   4.5502328815e+01    0.3428687     0.196925 -49.03 0.0009020993    1.884    0.469
       436  -9.3917     95.0984     71.1956   8.2068924531e+01   4.9947987807e+01    0.4465437    0.2344248 -52.19 0.0008483535    2.168    0.539
       437  -8.2932     42.4885     72.4591   1.0080465091e+02   5.7416745914e+01    0.2307664    0.1199062 -66.66 0.0008316875    2.266    0.559
       438  -9.3124     29.7593     70.3524   1.0502375839e+02   5.9091100449e+01    0.6085319     0.263749 -22.62  0.002171848    4.461    0.776
       439  -8.3639    205.5290     71.7520   5.6472269026e+01   2.4054654870e+01    0.2745493    0.1458784 -28.37 0.0008939405    1.996    0.499
       440  -9.4587     51.5221     69.7154   9.6679914246e+01   5.6998658480e+01    0.4796546     0.266026 -69.17  0.001655105    2.703    0.630
       441  -8.9911     16.4779     69.8276   1.0991718497e+02   6.0212107911e+01    0.2367332    0.1790534  79.02   0.00136588    1.733    0.423
       442  -8.6976    147.1326     68.4428   6.6867534022e+01   3.9055610538e+01    0.2996745     0.212563 -42.87 0.0007415036    1.428    0.300
       443  -7.8374    175.4773     72.5189   6.2040099038e+01   3.1338862814e+01    0.1516088    0.1496484 -56.87 7.461156e-05    1.004    0.004
       444  -8.6607    138.4284     66.1038   6.8196870217e+01   4.1560584847e+01    0.3271824    0.2141658 -52.87  0.001031392    1.778    0.438
       445  -8.7917    121.7359     66.1543   7.2529475738e+01   4.5409484073e+01    0.3382607    0.2197709 -55.50 0.0008679295    1.918    0.479
       446  -9.0794    110.1951     63.8293   7.4995199294e+01   4.8344279659e+01    0.3100558     0.244415 -59.62 0.0007148035    1.549    0.354
       447  -8.7651     37.1945     64.4556   1.0059444954e+02   5.9689958776e+01    0.2311749    0.1923479 -83.13 0.0008426983    1.549    0.355
       448  -7.5313    187.5080     63.5044   5.7202879981e+01   2.9818433716e+01    0.1496602    0.1435525 -67.97 8.837136e-05    1.016    0.015
       449  -7.8877    158.0146     62.0069   6.2420482004e+01   3.7469261559e+01    0.1782627    0.1774943  -8.60 0.0003444194    1.011    0.011
       450  -9.5741     97.7531     60.1057   7.7459641931e+01   5.1567208976e+01    0.4821112    0.3303732 -22.24  0.002078511    1.560    0.359
       451  -9.6836     73.5064     59.6213   8.5396736382e+01   5.5994066597e+01    0.4021826    0.2646803 -55.52  0.001141426    1.795    0.443
       452  -7.9684     88.8474     59.5979   8.0137929438e+01   5.3356766791e+01    0.1862036    0.1365494  52.34 0.0006745246    1.623    0.384
       453 -10.0098     23.5269     56.6406   1.0384376123e+02   6.2551665556e+01    0.4420533    0.2760667 -85.23  0.002156582    2.771    0.639
       454  -8.1199    130.5407     57.9951   6.7467033688e+01   4.4818100659e+01    0.2256951    0.1451875 -36.93 0.0005042965    1.558    0.358
       455  -9.5758      7.4228     57.1175   1.1055405264e+02   6.3513752082e+01    0.2577368    0.1880831  89.82 0.0009564896    1.757    0.431
       456  -9.2538    119.1380     55.4392   6.9567660392e+01   4.7867410459e+01    0.4348068    0.2127117 -45.42  0.001434345    2.275    0.560
       457  -9.3667     54.2202     55.4116   9.1111707654e+01   5.9616367803e+01    0.3234918    0.2144835 -58.31  0.001031652    1.767    0.434
       458  -8.6236    140.0350     56.2804   6.4579369827e+01   4.2834895324e+01    0.2035996    0.1996354  67.79 0.0003949034    1.066    0.061
       459  -8.8228     44.0520     55.5295   9.5160321758e+01   6.0825356347e+01    0.2362474    0.1703428 -61.20  0.000739608    1.587    0.370
       460  -8.9357    105.8035     53.3971   7.2613602076e+01   5.1114695176e+01     0.263479    0.2213414 -59.33 0.0006526656    1.464    0.317
       461  -9.5764     92.4345     50.6767   7.5733472090e+01   5.4279448998e+01    0.4133387    0.2400238 -46.07  0.001178351    1.889    0.471
       462  -7.9664     76.9813     50.7697   8.0975701882e+01   5.7074593240e+01     0.178494    0.1125869  36.96 0.0006721165    1.646    0.392
       463  -7.9299    154.5303     49.4600   5.9157208908e+01   4.0311577534e+01    0.1488518    0.1421674  38.29 0.0001095422    1.039    0.037
       464  -8.1848    144.8380     48.8692   6.1017689051e+01   4.2816245347e+01    0.2052565    0.1730973 -59.43 0.0004700595    1.329    0.247
       465  -8.2387    129.8188     49.3579   6.4677349054e+01   4.6380624978e+01    0.1986518     0.184724 -47.31 0.0005097489    1.160    0.138
       466  -8.7108    120.8476     47.4877   6.6291119122e+01   4.8761511778e+01    0.2456873    0.1999765 -28.42  0.000455725    1.236    0.191
       467  -8.3964    112.1873     46.9475   6.8429772013e+01   5.0793594528e+01    0.2133952    0.1937063 -57.20 0.0005640529    1.295    0.228
       468  -9.1508     81.9602     46.6761   7.7695415324e+01   5.6918846594e+01    0.2637506     0.249198  68.22 0.0006956386    1.383    0.277
       469  -8.5775     44.9912     44.8012   9.1057132283e+01   6.2806167537e+01    0.2200122    0.1608077 -39.47 0.0005309426    1.195    0.163
       470  -9.0598     16.7647     44.7762   1.0325295081e+02   6.5486721854e+01    0.2256625    0.1440032 -61.16 0.0006382643    1.544    0.353
       471  -8.9113    132.8896     43.6024   6.1928788705e+01   4.6510773917e+01    0.2833122    0.1801428 -49.75 0.0006798886    1.857    0.461
       472  -8.5683     92.9276     42.6735   7.2532056500e+01   5.5501869581e+01    0.2467281    0.1839901 -11.15 0.0008639512    1.379    0.275
       473  -9.2485     69.6031     41.5361   8.0086592029e+01   5.9908565901e+01    0.3568051    0.2228489 -53.17  0.001221552    2.166    0.538
       474  -8.9874     58.2532     42.7174   8.4889250789e+01   6.1444475373e+01     0.246906    0.1944509 -60.02 0.0007887795    1.757    0.431
       475  -9.4995      5.0470     41.9869   1.0767676317e+02   6.6771285326e+01    0.3085853    0.2054089 -84.22  0.001570859    2.174    0.540
       476  -8.6824    105.9445     41.4394   6.8133624724e+01   5.2999613428e+01    0.2598992    0.1915652 -46.77  0.000641185    1.566    0.362
       477  -7.6227    140.4386     41.4871   5.9486526519e+01   4.4974302587e+01    0.1433706    0.1407562  76.51  0.000250419    1.071    0.067
       478  -8.7529     36.7849     40.8741   9.3099072981e+01   6.4467263345e+01     0.214738    0.1598786 -56.89 0.0007428462    1.585    0.369
       479  -8.6936     95.3889     38.0660   6.9959173775e+01   5.5714793126e+01    0.2818698     0.198808 -49.05 0.0008586996    1.753    0.430
       480  -8.4648     80.6843     36.6293   7.4156350857e+01   5.8778131796e+01    0.2245497    0.1546758 -48.05 0.0006643941    1.789    0.441
       481  -7.7321    133.3963     36.2221   5.9214017429e+01   4.7417099482e+01    0.1992413    0.1309972 -39.97 0.0006603679    1.617    0.382
       482  -8.1326    125.9153     35.6828   6.0751263434e+01   4.9284780096e+01    0.1975035    0.1748039  48.78  0.000353588    1.093    0.085
       483  -8.6228    112.0537     34.6925   6.3871406880e+01   5.2622447055e+01    0.2333829    0.1875531 -37.34 0.0005411689    1.337    0.252
       484  -7.8602     88.5049     34.4937   7.0690248716e+01   5.7615139661e+01    0.1377906    0.1231364   5.06 0.0008105275    1.024    0.023
       485  -9.1017     48.5228     33.3524   8.5094105413e+01   6.4397599784e+01    0.2550511    0.1991186 -42.30 0.0007220383    1.382    0.276
       486  -8.3036    119.0599     33.0673   6.1454182351e+01   5.1240795712e+01    0.2196826    0.1698713 -62.37 0.0006389626    1.701    0.412
       487  -8.6121     60.5200     32.7905   7.9964376558e+01   6.2775862583e+01     0.211247    0.2005419 -50.01 0.0005869658    1.450    0.310
       488  -9.1105     71.9779     30.7998   7.4789051201e+01   6.1209598263e+01    0.3225235    0.1706429 -40.87 0.0009792182    2.006    0.501
       489  -7.8629    139.2892     31.6505   5.6334310011e+01   4.6565926968e+01    0.1458176    0.1087249 -63.30 0.0003853083    1.665    0.399
       490  -9.2766     12.8790     30.2770   1.0024601691e+02   6.8553934111e+01      0.30817    0.1541213 -58.99  0.001398158    2.109    0.526
       491  -8.1267    101.4909     29.4637   6.4724475333e+01   5.5642391885e+01    0.2266273    0.1203987 -39.57 0.0007226189    2.066    0.516
       492  -7.9060     41.9949     30.0146   8.6511521404e+01   6.5787724109e+01    0.1545862    0.1184778 -25.11 0.0004971034    1.083    0.077
       493  -9.3592     26.1361     35.4608   9.5857015202e+01   6.6524886543e+01    0.2625436    0.1878284 -55.75 0.0008757801    1.552    0.356
       494  -8.7621     81.4138     27.5243   7.0104672643e+01   5.9964726504e+01    0.2541055    0.2138812 -52.25 0.0008027112    1.593    0.372
       495  -8.9071      3.4537     27.6926   1.0400440834e+02   6.9628292001e+01    0.2108805    0.1644493 -79.87 0.0008775038    1.876    0.467
       496  -7.9705    110.0000     27.0219   6.1441994834e+01   5.4082767930e+01    0.2205897   0.07804333 -27.71 0.0007993003    2.921    0.658
       497  -8.7864     91.7429     26.2680   6.6279569406e+01   5.8099432027e+01    0.2899068     0.192508 -46.09  0.000990445    1.896    0.472
       498  -8.6800    213.0074     26.0135   4.3336745347e+01   2.8705184177e+01    0.1931754    0.1745926 -75.40  0.001174033    1.019    0.018
       499  -9.0268     63.5246     21.1428   7.3659732253e+01   6.4012074577e+01    0.2833776    0.2003362 -44.95 0.0008981804    1.820    0.451
       500  -8.8649     48.3568     21.9426   8.0172591529e+01   6.6221504362e+01    0.2105905    0.1833666 -14.12 0.0006190682    1.194    0.162
       501  -7.8476    120.7202     21.3336   5.6630391469e+01   5.2279937048e+01     0.134465    0.1062603 -61.59  0.000347013    1.610    0.379
       502  -8.1634     19.7874     21.6051   9.3410211333e+01   6.9543449514e+01    0.1388754    0.1031975  26.69 0.0003383635    1.628    0.386
       503  -8.9397     74.0770     19.5001   6.9072307656e+01   6.2383450634e+01    0.2732076    0.1889843 -46.73 0.0009295351    1.955    0.489
       504  -8.3296     38.9701     18.5248   8.2746760610e+01   6.7976539514e+01    0.1866663     0.137126 -24.71 0.0005946862    1.160    0.138
       505  -7.9968    112.7618     17.0187   5.6816352832e+01   5.4603196932e+01     0.166165    0.1130272 -20.85 0.0003820866    1.542    0.351
       506  -8.1744     87.8089     17.3894   6.3681201974e+01   5.9982624027e+01    0.1751054    0.1550647  -7.18 0.0004675119    1.138    0.121
       507  -8.1021     30.0508     16.0680   8.5809470647e+01   6.9405802212e+01    0.1583123    0.1447094 -51.75 0.0009819695    1.711    0.415
       508  -9.1236    211.2569    247.0511   9.3237635737e+01  -5.9769000214e+00    0.2619926    0.1980404 -63.39  0.001150231    2.653    0.623
       509  -8.1263     16.9993     14.2923   9.1609447450e+01   7.0990929486e+01    0.1570336    0.1224033 -11.70 0.0005488215    1.114    0.102
       510  -7.9273    191.2146    249.4528   9.7200820775e+01  -3.2622831947e+00    0.1675721   0.09322308  45.67 0.0009340903    1.723    0.420
       511  -9.0909    175.6599    247.6485   9.9797420518e+01  -6.1695695624e-01     0.283078    0.2326875 -83.05  0.001173078    1.925    0.481
       512  -9.3346    103.6777    246.7520   1.1306763636e+02   1.0626010610e+01    0.3786148    0.2154927 -86.11  0.002046523    2.487    0.598
       513  -9.0831    242.7888    246.9279   8.7729373231e+01  -1.0440636143e+01    0.3012715    0.1428487 -29.59  0.001265064    2.218    0.549
       514  -8.6692    232.6410    247.4460   8.9545842129e+01  -9.1031801997e+00    0.1745234    0.1685749 -12.01 0.0007538242    1.640    0.390
       515  -8.5928    218.5266    247.4313   9.2005991886e+01  -7.0895082243e+00    0.2456425    0.1093173 -32.89  0.001301646    2.547    0.607
       516  -8.7784    156.1561    247.7959   1.0343523202e+02   2.4194705962e+00    0.1796056    0.1611117 -85.45 0.0006781777    1.441    0.306
       517  -8.6235    132.0966    247.9144   1.0793141558e+02   6.1531223706e+00    0.1824369    0.1337591  59.87 0.0005616962    1.336    0.252
       518  -7.9305      7.5165     15.4956   9.7221122261e+01   7.1546011340e+01    0.1142968   0.08431513 -28.85 9.751639e-05    1.022    0.022
       519  -9.9621    223.9120    244.0833   9.0538916884e+01  -7.4718471773e+00    0.3921541    0.2289852 -42.95  0.002291811    2.356    0.576
       520  -8.7714    147.1845    245.9978   1.0488331148e+02   4.0980080554e+00    0.2863063    0.1904837  78.53  0.001541902    2.483    0.597
       521  -8.6773    146.8137    240.4641   1.0425198079e+02   5.0112337089e+00    0.3488611    0.2102244  70.52   0.00142799    2.859    0.650
       522  -9.0810    120.1513    245.3363   1.0986702100e+02   8.3973303637e+00    0.2974509    0.1907584  85.91  0.001672221    2.215    0.548
