#   1 NUMBER                 Running object number                                     
#   2 MAG_AUTO               Kron-like elliptical aperture magnitude                    [mag]
#   3 X_IMAGE                Object position along x                                    [pixel]
#   4 Y_IMAGE                Object position along y                                    [pixel]
#   5 X_WORLD                Barycenter position along world x axis                     [deg]
#   6 Y_WORLD                Barycenter position along world y axis                     [deg]
#   7 A_WORLD                Profile RMS along major axis (world units)                 [deg]
#   8 B_WORLD                Profile RMS along minor axis (world units)                 [deg]
#   9 THETA_WORLD            Position angle (CCW/world-x)                               [deg]
#  10 FWHM_WORLD             FWHM assuming a gaussian core                              [deg]
#  11 ELONGATION             A_IMAGE/B_IMAGE                                           
#  12 ELLIPTICITY            1 - B_IMAGE/A_IMAGE                                       
         1  -8.4862     55.7422      9.9601   7.2542000891e+01   6.6823137072e+01    0.2030984    0.1550374 -34.77 0.0007659545    1.526    0.345
         2  -7.9961     47.4580     10.2253   7.6151323091e+01   6.8054665076e+01    0.1591905    0.1041639 -37.04 0.0009368103    1.675    0.403
         3  -8.4869     90.8458      9.1418   6.0170516170e+01   6.0390278240e+01    0.1863185    0.1770115 -54.29 0.0008782296    1.358    0.264
         4  -7.7975    101.4630      7.9895   5.6829146586e+01   5.8216381539e+01    0.1712759    0.1014215 -47.58 0.0004828992    2.314    0.568
         5  -8.6104     33.5321      5.2370   8.0024021808e+01   7.0588611173e+01    0.2528993    0.1723351 -51.49  0.001439708    2.570    0.611
         6  -8.6674     78.9079      4.3861   6.1564056890e+01   6.3281293909e+01     0.269555    0.1701126 -31.18  0.001195109    1.731    0.422
         7  -8.0208     15.7696      3.0522   8.8205863981e+01   7.2836483816e+01    0.1438951   0.07603407 -37.64 0.0005960804    1.610    0.379
         8  -7.5436    124.7645      2.3176   4.9460356032e+01   5.3318202324e+01    0.1225805   0.09799939 -57.40  0.000160294    1.506    0.336
         9  -7.6295    115.6344      2.3163   5.1272548127e+01   5.5486584562e+01     0.132321   0.09930336 -69.42 0.0002751215    1.773    0.436
        10  -8.3497     62.2270      1.5939   6.5839466738e+01   6.6663754260e+01    0.1644815    0.1398769  42.34 0.0004862932    1.356    0.263
        11  -7.9105    239.4076      1.4731   3.5714568487e+01   2.5337924294e+01    0.1263336   0.09935714 -66.87 -6.470765e-05    1.052    0.050
        12  -7.4549     39.4397      1.4723   7.5199525408e+01   7.0275925437e+01    0.1177836    0.0924948  -1.15 0.0001364134    1.047    0.045
        13  -9.3758    147.1855    245.6941   1.0522601444e+02   4.1209477272e+00    0.2980858    0.2629506  81.20  0.001816608    1.362    0.266
        14  -8.0766    191.3291    249.6811   9.7573218986e+01  -3.3555388317e+00    0.1671709    0.1268012  58.07 0.0009630513    1.770    0.435
        15  -7.9764    183.4503    250.5033   9.9124266739e+01  -2.2529556108e+00     0.120285   0.09361634  28.75 -8.841381e-06    1.034    0.032
        16  -8.7403     94.0300    249.4303   1.1547717409e+02   1.1575666086e+01    0.2937076      0.15545  66.76  0.001605103    2.085    0.520
        17  -7.2836     86.3195    250.6781   1.1697221000e+02   1.2451577578e+01    0.1215443   0.06786633  63.52 0.0003523464    1.670    0.401
        18  -8.3587    146.4485    239.9407   1.0464244463e+02   5.1287365392e+00    0.3089666    0.1849246  69.10  0.001497437    2.713    0.631
        19  -9.1483    120.2182    245.6143   1.1027625538e+02   8.3338554506e+00    0.3025014    0.1860018  78.21  0.001609408    2.306    0.566
        20  -9.2465     10.0015    245.1863   1.2954568238e+02   2.2569485362e+01    0.2819727    0.1061673  77.70   0.00125601    2.430    0.588
        21  -8.6376     67.6822    245.1760   1.1984367392e+02   1.5916314605e+01     0.206289    0.1159699  83.83 0.0009926362    1.880    0.468
        22  -8.8526    139.1646    244.0569   1.0653649414e+02   5.6396154541e+00    0.2303791    0.1577812 -80.73  0.001097994    2.149    0.535
        23  -9.9928    248.6514    242.0729   8.6312767368e+01  -1.0765896523e+01    0.3765665    0.1922436 -27.86  0.001738136    2.003    0.501
        24  -8.8640    247.5470    234.9496   8.5332636571e+01  -9.8152506402e+00    0.2054586    0.1729362 -16.83 0.0009274252    1.399    0.285
        25  -9.6145    246.5336    229.1315   8.4529708829e+01  -8.9958769457e+00    0.4956823    0.2400447 -28.88  0.002071922    2.079    0.519
        26  -8.6456    201.9937    243.5290   9.4738157306e+01  -4.1925402873e+00    0.1893598    0.1640351 -52.58 0.0008062854    1.694    0.410
        27  -8.6487    194.9498    243.5130   9.6022835232e+01  -3.1055273200e+00    0.2099808    0.1510476  19.47 0.0003475302    1.257    0.205
        28  -9.1424    193.9896    239.9206   9.5667708082e+01  -2.4754533394e+00    0.2356391     0.189472  61.27 0.0006898783    1.736    0.424
        29  -8.7794    168.9679    243.5452   1.0085320982e+02   9.8087883679e-01    0.1891658    0.1824596 -77.34 0.0007787268    1.346    0.257
        30  -8.4530     34.3661    244.1967   1.2552995085e+02   2.0156572600e+01    0.1456376   0.07881656  84.26 0.0005866351    1.643    0.391
        31  -8.9242     77.3638    243.0130   1.1793457472e+02   1.5003152385e+01    0.2222878    0.1181128  60.06   0.00128754    1.647    0.393
        32  -8.9302    213.5427    241.8464   9.2394498450e+01  -5.7296612999e+00     0.245075    0.1567484  13.98  0.001163477    1.539    0.350
        33  -9.1497    183.1688    240.3424   9.7742468755e+01  -8.2395298579e-01    0.3570117    0.2359725  64.73  0.001805409    2.553    0.608
        34  -9.3868    160.1784    240.4020   1.0208721143e+02   2.8514566219e+00     0.280791    0.2055351 -77.79 0.0008133863    2.145    0.534
        35  -8.3235    153.4876    242.0450   1.0357385886e+02   3.6756605914e+00    0.1543867    0.1240493 -54.12 0.0006974119    1.559    0.359
        36  -8.3813     88.1392    241.9890   1.1587562946e+02   1.3685832449e+01    0.1799805    0.1260125  68.14 0.0005757189    1.275    0.216
        37  -9.3042    241.4617    238.4230   8.6942686710e+01  -9.3696981552e+00    0.4173185    0.2008604  -6.59   0.00185813    3.404    0.706
        38  -9.0261    135.6639    239.0362   1.0659236394e+02   6.9955492685e+00     0.273213    0.1396931  51.69 0.0009553469    1.821    0.451
        39  -7.9721    129.2244    238.8133   1.0779882316e+02   8.0515532451e+00    0.2038448     0.112341  67.80 0.0009427461    2.756    0.637
        40  -7.9486     41.2604    239.6640   1.2408797208e+02   2.0178691524e+01    0.1144784   0.06069316  68.04  0.000327985    1.579    0.367
        41  -9.1804    230.8118    236.8918   8.8542403083e+01  -7.6731178473e+00    0.3695716    0.2698061  -6.25  0.001922494    1.288    0.223
        42  -9.0153    235.9805    230.7350   8.6624482020e+01  -7.6779479612e+00      0.27869    0.1680529 -22.46  0.000806112    1.680    0.405
        43  -8.2279    208.8449    238.3675   9.2705070527e+01  -4.5753319049e+00    0.1530116    0.1347486  10.21 0.0004743138    1.178    0.151
        44  -7.7652     13.6774    238.3131   1.2865219892e+02   2.3424316450e+01     0.113873   0.05248284  64.37 0.0007039946    1.657    0.396
        45  -9.7772    175.6183    233.3807   9.8155193897e+01   1.3985179871e+00    0.4345963    0.2599676 -59.84  0.002231935    2.668    0.625
        46  -9.9311    214.9339    233.3045   9.0798642097e+01  -4.8529660668e+00    0.4747165    0.3631241  89.24  0.002400373    3.563    0.719
        47  -8.9475    203.2514    234.9413   9.3196184410e+01  -3.2570408879e+00    0.2410858    0.1999098 -73.20 0.0009386863    2.129    0.530
        48  -8.1348    170.4341    235.9417   9.9516234444e+01   1.8616830402e+00    0.1578786    0.1239939 -42.92 0.0005702779    1.548    0.354
        49  -9.3360    108.4205    234.4004   1.1129261874e+02   1.2035396436e+01    0.2806978    0.1857654  70.82  0.001083814    1.628    0.386
        50  -7.9638     58.4094    237.0000   1.2088150903e+02   1.8576877753e+01    0.2398649   0.05429167  37.51 0.0009302011    3.898    0.743
        51  -7.5741     25.3282    236.6473   1.2663389215e+02   2.2513979522e+01    0.1200956    0.0551571  65.23 0.0007047134    1.770    0.435
        52  -8.3151    122.9942    234.3125   1.0846607796e+02   9.7905100166e+00      0.22012    0.1517538  72.39 0.0009105752    1.685    0.407
        53  -8.7146     99.6491    234.6404   1.1300080108e+02   1.3313075583e+01    0.2436289    0.1372246  67.32  0.001117054    1.990    0.498
        54  -9.5149     78.6643    234.0225   1.1691537071e+02   1.6438024884e+01    0.3062465    0.1850542 -78.62    0.0013333    1.765    0.433
        55  -9.5188      8.1530    234.5885   1.2938688574e+02   2.4647234951e+01    0.1637402    0.1014208 -85.12  0.001203057    1.408    0.290
        56  -8.3330    194.3383    232.7646   9.4515584311e+01  -1.5457043786e+00     0.201798    0.1795852  64.99 0.0008923214    1.552    0.356
        57  -9.3942    186.6343    230.9531   9.5690735629e+01  -4.2362261949e-02    0.3082888    0.2384534 -76.41  0.001592419    2.265    0.559
        58  -9.1167    141.6091    231.1751   1.0444325457e+02   7.3301026860e+00     0.601688    0.2286361  55.50  0.002057855    4.304    0.768
        59  -8.3497    132.7751    232.9239   1.0639484420e+02   8.4691279678e+00    0.1953738    0.1319362  75.70  0.001001967    1.975    0.494
        60  -8.5002     92.2843    232.0517   1.1414703495e+02   1.4863349761e+01    0.2630773     0.154934  74.99  0.001158877    1.953    0.488
        61  -8.3504    157.6227    232.2251   1.0145992002e+02   4.5310396176e+00    0.1514886    0.1183915 -31.16 0.0003779476    1.577    0.366
        62  -8.8760      1.7290    230.9172   1.3027854598e+02   2.5930222685e+01    0.1920373   0.09566281  75.09 0.0006800001    1.528    0.346
        63  -8.1133    205.0259    230.5230   9.2170306619e+01  -2.9384000923e+00    0.1934645    0.1029405  37.27  0.001030444    1.586    0.370
        64  -9.2219    151.3435    229.0152   1.0224102414e+02   6.0850463058e+00    0.2937627    0.2072185  87.83  0.001418869    2.268    0.559
        65  -9.4289    148.7822    224.8989   1.0217342686e+02   7.1947968756e+00     0.391001    0.2431132  67.68  0.001709788    2.382    0.580
        66  -8.0555    229.8114    229.0046   8.7422195938e+01  -6.5551031550e+00    0.1587849    0.1424681 -62.02 0.0009062953    1.931    0.482
        67  -9.3753     68.1637    232.2342   1.1872036260e+02   1.8190776520e+01    0.4010712    0.1876385  70.79  0.001964299    2.520    0.603
        68  -8.7265    162.1662    227.7453   9.9936701427e+01   4.4905813037e+00    0.2455327    0.1836454  70.32  0.001029631    1.805    0.446
        69  -8.7724    127.6843    227.2689   1.0668526411e+02   1.0262168350e+01    0.2560658    0.1723668  67.08 0.0007995797    1.688    0.408
        70  -8.2165    120.1199    227.6862   1.0823549556e+02   1.1401327072e+01     0.222635    0.1447078 -84.76  0.001198563    2.081    0.519
        71  -8.5677    206.1398    226.1110   9.1250211128e+01  -2.5081533398e+00    0.2186252    0.1644929 -54.73 0.0008282213    2.005    0.501
        72  -7.9027     49.7374    227.1649   1.2172854534e+02   2.1492225797e+01    0.2075279   0.08164361  65.09 0.0009504094    2.767    0.639
        73  -8.2533    200.0306    226.3293   9.2429255949e+01  -1.5553531996e+00    0.1750097    0.1394706  31.16 0.0005478261    1.100    0.091
        74  -8.9769     94.3878    224.6290   1.1297229114e+02   1.5926422739e+01     0.401047    0.1911912  65.58  0.001775248    2.753    0.637
        75  -7.8023     78.9757    226.4887   1.1616259753e+02   1.7796361515e+01    0.1801607   0.07201834  56.04 0.0008090496    2.438    0.590
        76  -8.6438    180.5874    224.3971   9.5838204636e+01   1.9334913680e+00     0.230432    0.1818098  49.83 0.0007217635    1.337    0.252
        77  -8.5330     38.3483    224.5977   1.2362842241e+02   2.3329873450e+01     0.207675   0.08088644  87.90  0.000911479    3.063    0.674
        78  -8.7760    216.4089    223.5436   8.8925672116e+01  -3.7866365218e+00      0.21547    0.2066161  62.44 0.0008634358    1.544    0.352
        79  -8.5870    172.9699    223.3468   9.7161334889e+01   3.3761257497e+00    0.2098475    0.1806042 -79.38 0.0006073453    1.607    0.378
        80  -8.0887    113.8529    224.1174   1.0905057742e+02   1.3037441839e+01    0.1990778    0.1446921  65.22 0.0007036769    1.341    0.254
        81  -8.8706    104.6723    223.5192   1.1081195593e+02   1.4578856549e+01    0.3166526    0.1960518  77.89  0.001670995    2.004    0.501
        82  -8.0109     59.7638    223.9480   1.1960750964e+02   2.0856410195e+01    0.1963428    0.1026632  72.18  0.001056213    1.941    0.485
        83  -9.2429    225.4809    221.8641   8.6990057439e+01  -4.9765936494e+00    0.2314829    0.2120261   9.41  0.001069967    1.282    0.220
        84  -9.4347    192.4829    221.4873   9.3078448983e+01   3.8789210453e-01     0.268527    0.2347414  75.32  0.001060646    1.657    0.396
        85  -8.4405    162.9711    222.5039   9.9005769464e+01   5.2020702565e+00    0.3143678    0.1562438  55.27  0.001357725    2.600    0.615
        86  -8.7398    158.8076    220.4465   9.9527519862e+01   6.2491705616e+00    0.2192028    0.1833681  88.46 0.0007843476    1.568    0.362
        87  -8.1317    140.5563    222.8011   1.0352589943e+02   8.9275687805e+00    0.1614315    0.1228452 -78.49 0.0007421919    1.688    0.408
        88  -8.9158    238.9045    221.4994   8.4541164349e+01  -6.9600706307e+00    0.1940666    0.1611191 -33.49 0.0006111808    1.541    0.351
        89  -8.7678     82.7761    220.6654   1.1485219210e+02   1.8373200484e+01    0.2336372    0.1320938  75.28  0.001035821    2.034    0.508
        90  -8.0636     73.0513    220.9822   1.1679256654e+02   1.9670859983e+01    0.2052492     0.114583  67.09 0.0008312944    1.765    0.434
        91  -7.9912     27.6165    221.2710   1.2535398402e+02   2.5162911776e+01    0.1461955   0.08645549 -72.10 0.0008994708    1.655    0.396
        92  -8.4449    202.5430    220.0431   9.0922883549e+01  -1.0637047293e+00    0.1693586     0.122481 -33.35 0.0004893959    1.532    0.347
        93  -9.1854    120.0637    218.9284   1.0715496890e+02   1.2998544146e+01    0.3858308    0.2249054  72.53  0.001563758    2.509    0.601
        94  -8.7277    248.9203    218.3294   8.2253330252e+01  -8.0268576165e+00    0.3583706    0.2266668  59.37  0.001609638    4.141    0.758
        95  -8.2981    210.0299    219.3159   8.9392873148e+01  -2.1814371326e+00    0.1770613    0.1395192  26.82 0.0003714508    1.088    0.081
        96  -7.5523    174.3177    218.6400   9.6162499736e+01   3.8966138520e+00    0.1269976   0.09916092  69.79 0.0001400967    1.761    0.432
        97  -8.6408    143.1161    216.8609   1.0217193073e+02   9.5391924958e+00    0.2884966     0.198414  85.27  0.001416584    2.234    0.552
        98  -9.3232    132.9065    216.1265   1.0415675347e+02   1.1395246534e+01    0.4628489    0.2821544  79.97  0.002049386    2.879    0.653
        99  -8.4797     61.9072    217.2603   1.1862666003e+02   2.1887370078e+01    0.2641901    0.1310345  67.03   0.00114942    2.072    0.517
       100  -8.8874     51.6833    217.1806   1.2059482204e+02   2.3195776584e+01    0.2799078    0.1503182  87.09  0.001094678    1.863    0.463
       101  -8.7689    169.3224    216.3302   9.6791325916e+01   5.1302433244e+00     0.258707    0.2194351 -86.32  0.000854323    1.615    0.381
       102  -8.2706    111.8173    217.2399   1.0862282453e+02   1.4639058577e+01    0.2182633    0.1149453  67.45 0.0009385177    2.712    0.631
       103  -8.1306     55.9756    217.2238   1.1977325087e+02   2.2653067218e+01    0.1562266    0.1233745  64.51  0.001073011    1.065    0.061
       104  -8.5900     18.4993    215.5176   1.2665342258e+02   2.7234323527e+01    0.2257458   0.08949585 -79.55  0.001222207    2.205    0.547
       105  -8.6367    232.0157    214.9357   8.4610013240e+01  -5.0648911538e+00    0.2387635    0.1909377  16.07 0.0008290489    1.052    0.049
       106  -8.4295    185.6492    214.4385   9.3246750556e+01   2.6242421525e+00    0.2251636    0.1932942  85.57 0.0008444348    1.707    0.414
       107  -8.2453    154.2054    215.1742   9.9663059719e+01   7.9356468908e+00    0.1749629    0.1466623  68.72 0.0005936112    1.364    0.267
       108  -8.9592     93.3550    214.2749   1.1204235682e+02   1.8069888961e+01    0.3961006    0.1779422  59.64  0.001573628    2.579    0.612
       109  -7.8403     41.3419    215.6692   1.2244649762e+02   2.4731679041e+01    0.1282133   0.06542669  65.75  0.000705125    1.748    0.428
       110  -9.4729     73.3532    212.0528   1.1586824920e+02   2.1395936065e+01    0.6838791    0.2448747  59.22  0.002562584    3.649    0.726
       111  -9.4747    213.7958    212.1958   8.7459088426e+01  -1.7774424625e+00    0.2940249    0.2511501  51.05  0.001614624    1.502    0.334
       112  -8.8879    161.7160    212.5284   9.7726044876e+01   7.0896467086e+00    0.2361942    0.2053459  75.53 0.0007272534    1.393    0.282
       113  -8.1041    106.4909    213.0265   1.0919506086e+02   1.6290779347e+01    0.1775625    0.1241955 -71.61  0.001011781    1.568    0.362
       114  -8.1048    224.6999    212.1485   8.5436705901e+01  -3.5363298994e+00    0.1770615    0.1555016 -37.80  0.001030282    1.475    0.322
       115  -8.9193    204.3432    211.1853   8.9068467787e+01  -5.6368052633e-02    0.2476779    0.2101462 -53.65  0.001011348    1.607    0.378
       116  -9.4362    175.5848    210.1886   9.4541733943e+01   5.0588415277e+00    0.4083083    0.2705779  68.64  0.001495268    2.560    0.609
       117  -7.6467    250.3370    211.2998   8.0755539862e+01  -7.3496723825e+00     0.127751   0.07832133   6.91 0.0007034649    1.660    0.397
       118  -8.2009    192.2964    210.6465   9.1303816756e+01   2.0783586553e+00    0.2099325    0.1597765 -51.93  0.001178887    1.694    0.410
       119  -8.9170    147.8715    210.5246   1.0025683724e+02   9.8547351495e+00    0.2989911    0.2031866  68.91     0.001314    1.964    0.491
       120  -8.8148    116.2491    210.4636   1.0683822902e+02   1.5220428865e+01    0.2908701    0.1743309  65.76 0.0008243683    1.981    0.495
       121  -8.2628     32.5373    210.5600   1.2374674428e+02   2.6748197754e+01    0.2505375   0.09951494  72.96  0.001132307    2.885    0.653
       122  -9.2392      6.3039    208.6071   1.2847037876e+02   2.9771225239e+01    0.4457557    0.1345527  82.19  0.001788521    4.062    0.754
       123  -8.4706     85.9783    209.8561   1.1306010369e+02   2.0043644061e+01    0.2893131     0.152134  69.13  0.001348208    2.318    0.569
       124  -9.3655    236.4339    207.9039   8.2559728588e+01  -4.8030751808e+00     0.386559     0.230195 -35.98  0.001533776    1.785    0.440
       125  -8.4893    139.2117    208.2028   1.0170958965e+02   1.1781565998e+01    0.2604252    0.1731361  70.42 0.0007440894    2.008    0.502
       126  -7.6056    179.2990    217.6473   9.5020725653e+01   3.2037830297e+00       0.1236    0.1003061  70.54 0.0007036536    1.695    0.410
       127  -9.3198    246.2883    207.4311   8.0746988306e+01  -6.2483917660e+00    0.2489896    0.1833255 -25.37 0.0006037438    1.343    0.256
       128  -7.9368    156.4425    208.2004   9.8122750134e+01   8.7705780142e+00    0.1678951    0.1308137 -68.83 0.0007529626    1.640    0.390
       129  -8.2489    126.4005    208.3066   1.0441410845e+02   1.3950331377e+01     0.166636    0.1251047 -77.13 0.0005671307    1.565    0.361
       130  -9.2265     99.3330    206.1510   1.0983737028e+02   1.8773905422e+01    0.3584062    0.2202299  81.35  0.001497483    2.057    0.514
       131  -8.5155     11.9987    207.0114   1.2735244694e+02   2.9559700385e+01    0.1371715   0.09919059  76.82 0.0005116443    1.004    0.004
       132  -8.5574     56.6674    205.6339   1.1862480170e+02   2.4914212711e+01    0.3131961    0.1352326  63.23  0.001315854    2.534    0.605
       133  -9.2886    194.9779    203.5438   8.9536542452e+01   2.7394192498e+00    0.3742789    0.3083578 -50.81  0.001543853    1.522    0.343
       134  -9.1756    192.4592    197.3506   8.8918275665e+01   4.1970006035e+00    0.3127008    0.2582522 -63.60 0.0009900852    1.667    0.400
       135  -8.9824    183.8240    204.0071   9.1835021831e+01   4.6330808699e+00     0.297336    0.2327636  68.99 0.0009738793    1.799    0.444
       136  -8.8763    131.2695    204.0583   1.0276930595e+02   1.3936980831e+01     0.310312    0.2169228  81.70  0.001016039    1.917    0.478
       137  -8.2214    109.0719    205.3009   1.0766683774e+02   1.7400894092e+01    0.1883655    0.1505087  58.54 0.0005997483    1.106    0.096
       138  -7.8005     92.6264    205.3123   1.1114926130e+02   1.9974014277e+01    0.1416965   0.08434445  65.76 0.0007032279    1.784    0.439
       139  -7.9171     25.3040    205.6247   1.2478356868e+02   2.8520874576e+01    0.1266859   0.06323204  68.59 0.0007029243    1.765    0.433
       140  -9.6428    164.0286    203.2148   9.5740374098e+01   8.3081569328e+00    0.4467594    0.2514851  55.42  0.001019603    2.119    0.528
       141  -9.3879    250.0838    202.1228   7.9113568632e+01  -6.1188727994e+00    0.3676921     0.168111 -34.93  0.001313044    2.154    0.536
       142  -9.9543    245.7525    193.9195   7.8308783279e+01  -4.3366429109e+00    0.4078524    0.2817604 -58.32  0.002028831    2.877    0.652
       143  -8.4351     48.1552    202.2619   1.2004445004e+02   2.6664330732e+01     0.263947    0.1108818  83.39  0.001078391    3.294    0.696
       144  -9.5023    242.9021    200.7019   8.0089359454e+01  -4.8277340797e+00    0.2695182    0.1929831 -29.87 0.0006353068    1.410    0.291
       145  -7.9401    221.8633    201.5468   8.4034100711e+01  -1.5585654991e+00    0.1980982    0.1443418 -33.01 0.0004918077    1.445    0.308
       146  -8.8510    140.3244    200.9646   1.0036742290e+02   1.2952469207e+01    0.3188592    0.2184325 -88.55  0.001059299    2.211    0.548
       147  -8.8192     79.9532    201.2938   1.1335870366e+02   2.2675493710e+01    0.3210629    0.1712135  77.61  0.001454585    2.468    0.595
       148  -7.7373     73.3119    202.6327   1.1490369813e+02   2.3333034684e+01    0.1379217   0.08072161  69.90 0.0007037545    1.765    0.434
       149  -7.8788      9.5031    202.4722   1.2755832618e+02   3.0709350832e+01    0.1126712   0.08145665  77.27 0.0008100218    1.005    0.005
       150  -9.2063    237.0057    198.7485   8.0761809517e+01  -3.6265204063e+00    0.3017575    0.1671509 -38.86  0.001219908    1.946    0.486
       151  -9.4870    149.5212    198.6494   9.8033963413e+01   1.1752838518e+01    0.4215094    0.2847732  80.29  0.001406176    2.418    0.586
       152  -8.9203    123.9973    199.2257   1.0361398409e+02   1.6132707877e+01    0.3128058    0.2094722 -82.98  0.001371639    1.986    0.496
       153  -9.3547    112.9446    198.6380   1.0592613120e+02   1.8112301984e+01    0.4506288    0.2581074  69.30  0.001651367    2.404    0.584
       154  -9.1293     88.8169    198.7145   1.1116181057e+02   2.1913425887e+01    0.3641497      0.20779  77.77  0.001383541    2.263    0.558
       155  -8.3857    177.0740    199.1801   9.2358387851e+01   6.6638029786e+00    0.2392262     0.177366  55.69  0.000710774    1.525    0.344
       156  -8.8739    133.0270    197.2504   1.0135740907e+02   1.4959108548e+01    0.4008288    0.1976918 -54.24  0.001373761    2.245    0.555
       157  -8.4739    202.3434    198.0241   8.7092757314e+01   2.3285482271e+00    0.2262505    0.1841266  59.02  0.001085336    1.599    0.375
       158  -9.4227     61.5872    197.2400   1.1680345000e+02   2.6046860353e+01    0.4064848    0.1993221  65.04  0.001409305    2.204    0.546
       159  -9.1261     13.0265    197.7065   1.2661795905e+02   3.1358767285e+01    0.3038941    0.1223788  72.56  0.001513419    2.431    0.589
       160  -9.5783    214.6411    195.1305   8.4186952273e+01   6.3531656677e-01    0.4921311    0.3588024 -32.60  0.002361986    1.417    0.294
       161  -8.9737    216.7150    188.0903   8.2443402686e+01   1.3748220381e+00    0.3141363    0.2427888 -47.72  0.001245877    1.603    0.376
       162  -7.9042     36.2065    196.7947   1.2200130639e+02   2.9191061069e+01    0.2113948   0.08588538  66.44 0.0009051787    2.736    0.634
       163  -7.6614     29.3407    197.6732   1.2344219781e+02   2.9745809257e+01    0.1286511   0.06658147  66.63 0.0007051398    1.734    0.423
       164  -8.5511    231.0656    194.3335   8.0990268895e+01  -2.0260840484e+00    0.2228055    0.1609767 -15.20 0.0005642037    1.320    0.242
       165  -8.7640    224.3492    193.8505   8.2126604865e+01  -8.3082951748e-01    0.2907237    0.2092314 -50.63    0.0013141    1.910    0.477
       166  -8.8963    185.1513    194.7115   8.9907431383e+01   5.9662651836e+00    0.2502929    0.2252693 -56.79 0.0007761109    1.357    0.263
       167  -8.8816    161.1781    194.4995   9.4853345938e+01   1.0408328277e+01    0.2769972    0.2142177  74.04 0.0008323562    1.708    0.414
       168  -8.7440     77.0724    193.9653   1.1313386934e+02   2.4640361952e+01    0.2398916    0.1764337  73.67 0.0007512734    1.260    0.206
       169  -8.8987     43.6211    193.3290   1.2019102178e+02   2.9092534764e+01    0.3468786    0.1705824  75.53  0.001706777    2.192    0.544
       170  -8.2531    198.9648    191.9482   8.6621955576e+01   3.9211613272e+00    0.1915282     0.169963  86.20 0.0005060232    1.614    0.380
       171  -8.3619    179.1279    191.7006   9.0590531808e+01   7.5999044077e+00    0.2804384    0.1844953 -48.73  0.000980477    1.738    0.425
       172  -9.1598    182.5014    185.7229   8.8774832466e+01   8.0364439171e+00    0.4642829    0.2848002 -26.11   0.00140002    1.994    0.498
       173  -8.5946    172.3385    191.8549   9.2031283294e+01   8.8310411521e+00    0.2462674    0.2102036  89.40  0.001101582    1.556    0.357
       174  -9.1946    139.5602    190.6600   9.8869958820e+01   1.5100881976e+01    0.3893566    0.2680735  88.75  0.001031562    2.186    0.543
       175  -8.2760     22.0626    192.0134   1.2448031256e+02   3.1683327983e+01    0.2113302   0.07378427  53.21 0.0008244052    2.542    0.607
       176  -7.6164    205.2780    191.6533   8.5326697409e+01   2.8343459370e+00    0.1230971    0.1102593 -85.64 0.0005273317    1.634    0.388
       177 -10.4809     92.2950    188.7750   1.0912347861e+02   2.3501695154e+01    0.9535974    0.2798851  49.94  0.003184595    3.707    0.730
       178  -8.8740      6.5206    190.9798   1.2746458648e+02   3.3344704921e+01    0.1707581   0.08712505 -83.98 0.0008379291    1.571    0.363
       179  -8.3105    148.4177    189.2074   9.6682843693e+01   1.3769210961e+01    0.2557788    0.2004346  84.56 0.0008649712    1.649    0.394
       180  -8.3766    237.2412    188.4547   7.8745918347e+01  -2.1845902366e+00    0.2338156     0.159252 -27.63 0.0006231011    1.394    0.283
       181  -8.9566    191.4635    187.5919   8.7295755734e+01   6.0324589766e+00    0.2941852    0.2422307 -76.72  0.000925026    1.799    0.444
       182  -9.2703    155.8748    187.5282   9.4764318306e+01   1.2711557133e+01     0.349653    0.2481273 -68.67 0.0009423717    1.869    0.465
       183  -9.0215    129.2406    188.6506   1.0082411214e+02   1.7359048472e+01    0.2894097    0.2075162  73.27  0.000899301    1.691    0.409
       184  -9.8232    120.8741    186.6375   1.0237675239e+02   1.9249391757e+01    0.5478992    0.2948988 -74.57  0.002171915    2.900    0.655
       185  -8.6268     34.1646    187.8912   1.2169107336e+02   3.1321825083e+01    0.3626404    0.1559282  80.03  0.001498899    2.764    0.638
       186  -8.6197    211.1222    202.2993   8.6188322012e+01   1.3855233349e-01    0.2220015    0.1961544  67.76 0.0007052114    1.633    0.388
       187  -7.9304    230.5672    187.7278   7.9803348213e+01  -9.6150631585e-01    0.1666611    0.1197462 -40.70  0.000519526    1.569    0.363
       188  -9.2137     54.8051    187.0096   1.1720954931e+02   2.9125873278e+01    0.4278454    0.2064819  70.49  0.001896317    2.474    0.596
       189  -8.6111    164.8809    186.6378   9.2660869138e+01   1.1191326943e+01    0.2575184    0.1893117 -70.58 0.0009755203    1.884    0.469
       190  -9.2270    109.5113    186.0935   1.0486076401e+02   2.1306369634e+01    0.3736154    0.2374198  71.52  0.001081318    1.955    0.488
       191  -8.6237    249.2600    185.6991   7.6110984258e+01  -3.7348514133e+00    0.2370853    0.1860261 -48.38 0.0009821143    1.763    0.433
       192  -9.1955    210.3010    184.0049   8.2869604599e+01   3.1782597174e+00    0.3565505    0.2007903 -28.22  0.001190395    1.905    0.475
       193  -8.6068    202.7872    184.8737   8.4507081433e+01   4.4050687249e+00    0.2285249    0.1930609 -61.36 0.0006818202    1.594    0.373
       194  -9.0565     66.6850    184.4058   1.1430759797e+02   2.8166262985e+01    0.3954035    0.2235649  69.72  0.001225715    1.931    0.482
       195  -8.3482    224.1676    183.6876   8.0181650030e+01   7.5893762110e-01    0.2106274    0.1730537 -32.44 0.0004735108    1.283    0.221
       196  -9.1498    174.3029    183.1366   8.9999933940e+01   1.0061587243e+01    0.3939666    0.2480847 -51.44  0.001007463    1.834    0.455
       197  -8.0687      2.0529    183.8436   1.2791816469e+02   3.5223012653e+01    0.1886879    0.1031576  47.37  0.001189779    1.706    0.414
       198  -9.2446    241.1996    181.4963   7.6673741500e+01  -1.8142285001e+00    0.4055761    0.2593399 -56.08   0.00188945    2.799    0.643
       199  -8.1414    196.8572    183.3654   8.5391411393e+01   5.7590027240e+00    0.1810586    0.1755551 -30.05 0.0006999996    1.195    0.163
       200  -9.0171     44.2444    182.2765   1.1903441286e+02   3.1435007957e+01    0.3361752    0.1795963  85.20  0.001192489    1.916    0.478
       201  -9.1167    147.5660    180.8858   9.5399928364e+01   1.5583759584e+01     0.346714    0.2492812  78.32  0.001120178    1.959    0.490
       202  -9.4709     25.6751    179.0150   1.2274509351e+02   3.4139301402e+01    0.6188022    0.2228728  76.24   0.00219211    4.446    0.775
       203  -8.6100    137.5283    179.4698   9.7404894600e+01   1.7751052596e+01    0.3048486    0.2015028  75.86 0.0009503859    2.262    0.558
       204  -9.2203    191.4164    178.2437   8.5481783863e+01   7.6840416029e+00    0.2955846    0.2607617  86.93 0.0003830356    1.532    0.347
       205  -8.2614    169.2524    178.5928   9.0208881660e+01   1.1887625776e+01    0.2446707    0.1741947 -57.89 0.0006843737    1.693    0.409
       206  -8.9565     35.7453    176.6322   1.2035794763e+02   3.3635262254e+01    0.4595386    0.1868606  78.42  0.001766244    3.579    0.721
       207  -9.5649    248.5052    176.5235   7.4413571203e+01  -2.2873498150e+00    0.4398427    0.2537379 -43.04  0.002225522    1.965    0.491
       208  -8.6419    250.5132    172.9314   7.3345654453e+01  -2.0885583242e+00    0.2303843     0.144555 -32.01 0.0006218621    1.466    0.318
       209  -8.3878    231.3128    177.2621   7.7583146171e+01   5.1327996713e-01     0.222661    0.1586242 -39.94 0.0005568965    1.507    0.336
       210  -8.3218    217.6429    177.5286   8.0169157010e+01   2.9058589728e+00    0.2120554    0.1638082 -53.33 0.0007131104    1.693    0.409
       211  -8.7750    204.9420    177.6521   8.2647752016e+01   5.2283089399e+00    0.2566117    0.1999895 -42.92 0.0007689004    1.409    0.291
       212  -8.8748    129.1767    177.3565   9.8942880569e+01   1.9732129826e+01    0.3435556    0.2169039 -82.92 0.0009887452    2.487    0.598
       213  -8.9893    183.1563    176.3339   8.6810431184e+01   9.6200013592e+00    0.2521718     0.233925 -74.64  0.000546448    1.313    0.239
       214  -8.0779     97.5232    177.5007   1.0632653746e+02   2.5155509745e+01     0.137334    0.1252984  74.73 0.0002077909    1.027    0.027
       215  -8.7448     89.0761    176.9676   1.0822193322e+02   2.6605061674e+01    0.2838826    0.1668385  69.63 0.0009082997    2.084    0.520
       216  -9.9749     57.3635    173.3865   1.1513987851e+02   3.1861869219e+01    0.8228477    0.3580262  80.34  0.002720062    4.536    0.780
       217  -8.9347     13.1881    176.8857   1.2521417020e+02   3.5772753123e+01    0.2646624    0.1218452  61.70  0.001392221    2.029    0.507
       218  -7.9252    211.5333    176.4623   8.1121182655e+01   4.2025538121e+00    0.1382887    0.1250807   6.67 0.0001496684    1.032    0.031
       219  -9.3202    158.9538    175.1114   9.1788693051e+01   1.4563823131e+01    0.4045827    0.2856099  78.89  0.001454548    2.214    0.548
       220  -9.3332    104.4265    174.8851   1.0430330944e+02   2.4607333940e+01      0.49673    0.2693199  67.75  0.001614691    2.753    0.637
       221  -9.4811     81.8336    155.0617   1.0665034726e+02   3.2776939570e+01    0.5137844    0.3172167  74.36  0.001767881    2.062    0.515
       222 -10.7410     75.8770    170.0918   1.1036895914e+02   3.0133013394e+01     1.256765    0.4718055 -76.04   0.00393918    4.457    0.776
       223  -8.2839     79.2267    158.5975   1.0786694738e+02   3.2328097659e+01     0.276079    0.1378287  31.92  0.001188798    2.292    0.564
       224  -7.8507    241.4837    174.4462   7.5202605027e+01  -8.0512720168e-01     0.133214    0.1134038  -2.98 9.674499e-05    1.009    0.009
       225  -8.3270    224.3825    174.2822   7.8244513039e+01   2.2134468773e+00    0.1826368    0.1224924 -42.01 0.0004952141    1.607    0.378
       226  -9.4573    175.6105    172.3454   8.7610831290e+01   1.1843334852e+01    0.3521721    0.2519934 -41.56  0.001164146    1.463    0.316
       227  -8.2468    143.0528    172.7589   9.4923735862e+01   1.8110772114e+01    0.2531641    0.1878505 -70.44 0.0006527097    1.629    0.386
       228  -7.7988    201.3712    172.6916   8.2345379017e+01   6.7625947953e+00    0.2041032    0.1457862  56.48 0.0005151586    1.720    0.418
       229  -8.4199    198.4193    170.2340   8.2430052971e+01   7.7661091652e+00    0.2424391    0.2033594 -77.87 0.0007544288    1.709    0.415
       230  -8.4527    134.8451    171.7494   9.6628894019e+01   1.9878923720e+01    0.2657419    0.1874236 -87.61  0.000889853    1.992    0.498
       231  -9.4588    121.3902    170.4264   9.9545690514e+01   2.2646341135e+01    0.3945402    0.2651276 -80.95  0.001060085    1.955    0.488
       232  -8.9903     45.1140    171.1049   1.1770322020e+02   3.3851871286e+01    0.3571635    0.1839707  85.01  0.001301617    2.154    0.536
       233  -8.2681    237.1796    169.8611   7.5016417266e+01   6.4169773530e-01    0.1924512    0.1757134 -29.47 0.0006773071    1.245    0.197
       234  -8.8270    230.1520    170.2112   7.6346928114e+01   1.8304707205e+00    0.2075026    0.1658206   1.14 0.0006234595    1.191    0.160
       235  -8.2532    205.6702    170.1791   8.0973148444e+01   6.3789898859e+00    0.2092534     0.172528 -48.57  0.000656073    1.402    0.287
       236  -8.5588    149.8650    169.4337   9.2732344750e+01   1.7488693607e+01    0.3092345    0.1971915 -60.46 0.0009412591    1.869    0.465
       237  -8.9114     67.1182    168.2062   1.1220414476e+02   3.1784690907e+01    0.2782148    0.1839811  86.09  0.001457496    1.563    0.360
       238  -8.2208    244.2281    169.1965   7.3650143831e+01  -4.7434623861e-01    0.1675556    0.1503568 -38.01 0.0003806435    1.334    0.250
       239  -9.1112    166.9991    168.5765   8.8721324999e+01   1.4282134946e+01    0.2902653    0.2317442  84.71 0.0008129338    1.711    0.416
       240  -8.4098     88.6015    168.9001   1.0714488258e+02   2.8512456625e+01     0.261584    0.1605982 -79.60  0.000820775    1.843    0.457
       241  -8.2579    218.8952    168.3868   7.8048104142e+01   4.1856913049e+00    0.1923415    0.1662157  22.32 0.0004813268    1.107    0.097
       242  -8.0008    211.3854    168.2062   7.9444820729e+01   5.6299257955e+00    0.1953058    0.1282391 -46.03 0.0005428848    1.696    0.410
       243  -8.7509    111.6605    167.2976   1.0132137881e+02   2.5072372310e+01    0.3616494    0.2356869  85.29  0.001211294    2.161    0.537
       244  -8.7016    192.0036    166.5999   8.2979484432e+01   9.6820421440e+00    0.2603796    0.1977431 -54.58 0.0006293066    1.573    0.364
       245  -8.9734    185.1174    166.6622   8.4425931677e+01   1.1038433968e+01    0.2451596      0.19624 -50.48 0.0006425415    1.390    0.281
       246 -10.0351     94.8181    162.3779   1.0459640104e+02   2.9034814117e+01    0.8848783    0.5081055  89.96  0.003212012    2.721    0.632
       247  -8.9379     20.4809    166.1515   1.2280113696e+02   3.7503290658e+01    0.3274374    0.1335052  60.50    0.0013272    2.611    0.617
       248  -9.8175    136.6919    164.3940   9.4809221342e+01   2.1111062173e+01    0.6411843    0.3153839  57.18  0.002150923    2.709    0.631
       249  -8.2049    233.8644    165.0949   7.4609859289e+01   1.9822275999e+00    0.1943161    0.1750778 -32.12 0.0004731298    1.225    0.184
       250  -8.6499    159.3416    164.2559   8.9549355954e+01   1.6682339228e+01    0.3080425    0.2464055 -79.99 0.0009960294    1.619    0.382
       251  -9.6339     33.3731    163.3256   1.1960239173e+02   3.6904870570e+01    0.4928795     0.194365  58.46  0.002098665    2.923    0.658
       252  -9.0101    245.9968    163.1403   7.2087677819e+01   1.5019209338e-01    0.2258139    0.1755955 -26.60 0.0005574571    1.170    0.146
       253  -8.4375    239.9146    164.1720   7.3349835314e+01   1.0514841619e+00    0.1932297    0.1766655 -33.06 0.0006091918    1.255    0.203
       254  -8.5149    213.0604    163.6521   7.8158519891e+01   6.0936148014e+00    0.2331985    0.1864178 -44.31 0.0006634018    1.369    0.270
       255  -8.4258    204.8780    162.8699   7.9587624860e+01   7.8189315881e+00    0.2386556    0.1896193 -43.40 0.0005007194    1.343    0.256
       256  -8.1104     58.6956    163.3211   1.1359165195e+02   3.4021090003e+01    0.2306129    0.1429396  30.59  0.001195979    1.880    0.468
       257  -8.7515     60.7132    160.5944   1.1274408144e+02   3.4403810069e+01    0.3352321    0.1669853  65.19  0.001153675    2.573    0.611
       258  -9.2342      3.3787    162.4735   1.2627847287e+02   3.9752814756e+01     0.359849    0.1521081  57.20  0.001869948    2.282    0.562
       259  -8.8975    151.6402    161.1563   9.0672972932e+01   1.8868451835e+01    0.3236973    0.2469987 -83.98  0.001030665    1.775    0.436
       260  -8.9572    177.4333    160.6277   8.4790882932e+01   1.3746687165e+01    0.2891825    0.2444269 -79.82 0.0007610699    1.532    0.347
       261  -9.4128    244.7059    158.6872   7.1367489497e+01   1.0667714638e+00    0.4785788    0.2489496  20.49  0.001914194    2.979    0.664
       262  -9.8577    250.1658    157.8192   7.0267712673e+01   2.4936690917e-01    0.3547422    0.1975887 -35.27 0.0007636733    1.634    0.388
       263  -8.6997    246.5719    155.5258   7.0379582167e+01   1.2327234073e+00    0.2183295    0.1538345 -23.90 0.0005354494    1.282    0.220
       264  -8.5465    237.1962    159.3887   7.2811548988e+01   2.2954384185e+00    0.2262876    0.1619107 -50.38  0.000757903    1.733    0.423
       265  -8.7598    227.4156    159.2593   7.4529799094e+01   4.1147899077e+00    0.3083399    0.1996528 -48.97 0.0009103998    1.844    0.458
       266  -8.3376    128.4426    159.2749   9.5786407933e+01   2.3811451606e+01     0.320619    0.2026141  72.94 0.0009722626    2.422    0.587
       267  -8.6698    196.8315    158.1924   8.0192638899e+01   1.0267975589e+01     0.305063     0.200215 -53.20 0.0008113862    1.845    0.458
       268  -9.6874    105.6940    157.9564   1.0113468125e+02   2.8241884610e+01    0.4601831    0.2948216  73.51  0.001056623    2.102    0.524
       269  -8.3653    188.0373    157.5834   8.1876490943e+01   1.2168822478e+01     0.274951    0.2016096 -55.06 0.0008134713    1.608    0.378
       270  -9.1011    167.5631    157.3536   8.6258364284e+01   1.6421014736e+01    0.3457202    0.2610547 -80.56  0.001083393    1.921    0.479
       271  -8.3848    217.9116    156.5626   7.5705329398e+01   6.3807383092e+00    0.2751786    0.1732934 -51.65 0.0007524578    1.983    0.496
       272  -9.0688    157.3472    156.2907   8.8343833868e+01   1.8735637280e+01    0.2713771    0.2345729  88.06 0.0007073308    1.376    0.273
       273  -9.3433    119.5112    155.2688   9.7194982375e+01   2.6387926063e+01    0.4211675    0.2836979 -81.55  0.001457418    1.997    0.499
       274  -9.3542     49.6784    155.4310   1.1479056993e+02   3.6971131268e+01    0.4432968    0.2350886  69.63  0.001751268    2.279    0.561
       275  -8.6250    144.7343    155.1911   9.1055163197e+01   2.1526198361e+01    0.3805943    0.2292054  63.69  0.001165419    2.313    0.568
       276  -9.5974    241.6131    154.1831   7.0931049495e+01   2.3303229083e+00     0.387147    0.2830279  88.29  0.001752028    2.953    0.661
       277  -7.6618    204.7358    155.3591   7.7985937208e+01   9.1945406985e+00    0.1401801    0.1153702 -68.04 0.0006970021    1.633    0.388
       278  -9.6968    132.8349    153.0236   9.3468216434e+01   2.4359728838e+01    0.4932405    0.3705788  89.75  0.001281674    1.734    0.423
       279  -9.3083    133.3376    148.3455   9.2369777043e+01   2.5307161941e+01     0.347929    0.2651836 -35.84  0.001678022    1.451    0.311
       280  -9.5886     68.0479    153.7430   1.0994708236e+02   3.5059204773e+01    0.4641472      0.26774  80.33  0.001195964    2.271    0.560
       281  -7.7514    232.4994    153.5182   7.2373519843e+01   4.1139426718e+00    0.1383177    0.1255984 -15.89 -1.223069e-05    1.071    0.066
       282  -9.0194    152.0609    152.4067   8.8738919254e+01   2.0639017859e+01     0.346061    0.2163052 -41.51   0.00104234    1.668    0.400
       283 -10.6585     54.8109    143.2860   1.1182107664e+02   3.9262331106e+01     1.084438    0.5774568 -81.14  0.003303732    2.041    0.510
       284  -9.6271     29.2031    150.5610   1.1926219014e+02   4.0280134560e+01    0.5124474    0.2211066  75.27  0.002031351    3.318    0.699
       285  -8.1763    250.4892    140.9504   6.6580790189e+01   2.8310379803e+00    0.1977617    0.1582817 -25.48 0.0004747076    1.092    0.084
       286  -9.5770    248.7580    149.6841   6.8762176626e+01   1.7621435081e+00    0.3452612    0.1970657 -32.07 0.0008792338    1.569    0.363
       287  -9.0429    246.9900    144.1456   6.7848893931e+01   2.9583843019e+00    0.3251889    0.1812005 -32.42 0.0004875379    1.612    0.379
       288  -9.1586    243.1755    149.9771   6.9755839662e+01   2.7199111031e+00    0.3227156    0.1752694 -34.26 0.0009410263    1.671    0.402
       289  -8.9090    189.4185    150.2299   7.9960989636e+01   1.3289476105e+01    0.3543496    0.2358437 -59.79 0.0009146458    2.010    0.503
       290  -8.1853    182.2252    151.2036   8.1701774183e+01   1.4603954286e+01    0.2040785    0.1791014 -75.23 0.0007084421    1.394    0.282
       291  -8.0483    162.9023    150.9640   8.5920777182e+01   1.8699132663e+01    0.2393917    0.1885069  85.69 0.0008975523    1.723    0.419
       292  -8.7436     98.3401    150.7279   1.0168293466e+02   3.1181823676e+01    0.3061072    0.2169839  79.50 0.0008417658    1.704    0.413
       293  -8.0298    213.0947    149.8753   7.5142882164e+01   8.5003118706e+00    0.2018048    0.1933967 -55.33 0.0003114634    1.218    0.179
       294  -8.7066      2.8038    150.2125   1.2550106497e+02   4.2541666058e+01     0.205259   0.08200911  65.52  0.000945001    2.771    0.639
       295  -8.4447    198.8425    149.0863   7.7766755289e+01   1.1547439762e+01    0.2174065    0.1992797 -72.27 0.0005296938    1.320    0.242
       296 -10.0450     89.0421    146.0394   1.0324321752e+02   3.3812735024e+01    0.7147995     0.391922 -86.16  0.002589985    3.134    0.681
       297  -9.1468     20.0270    152.9037   1.2171072789e+02   4.0568875091e+01    0.1985428    0.1156074  70.03 0.0006856659    1.680    0.405
       298  -9.9701     39.5904    147.2068   1.1628628289e+02   4.0035867964e+01    0.5889178     0.321485 -89.49  0.002653054    1.921    0.479
       299  -9.3970    233.2929    147.6069   7.0936349362e+01   4.9436993465e+00     0.272705    0.1723005 -34.22 0.0007750866    1.464    0.317
       300 -10.4327    106.8252    143.9071   9.8180569705e+01   3.1325261695e+01     0.860854    0.5776932 -81.27  0.002252907    1.921    0.479
       301  -8.7222     78.3514    147.2962   1.0626618707e+02   3.5146212255e+01     0.346228    0.2008147  78.51 0.0009309463    2.548    0.607
       302  -8.2162    223.1384    147.0509   7.2632028894e+01   7.0003600475e+00    0.2189866    0.1801095  -4.08 0.0004601325    1.221    0.181
       303 -10.4041    148.9063    144.7531   8.7807920730e+01   2.2938956646e+01    0.6612616    0.4258396 -70.39  0.001626616    2.281    0.562
       304  -8.8961    151.5120    135.6640   8.5100912074e+01   2.4362371309e+01     0.328103    0.1866942  33.16  0.001281021    2.041    0.510
       305  -9.7530    139.1917    145.1977   9.0255044510e+01   2.4837227545e+01     0.460697     0.320588 -89.60  0.001166838    2.228    0.551
       306  -9.2483     13.0888    145.8112   1.2270347872e+02   4.2780145487e+01    0.3782813    0.1912016  73.80  0.001339861    2.062    0.515
       307  -8.9327    241.3229    137.6927   6.7356971355e+01   5.0573065991e+00    0.5506222    0.3108626 -66.69   0.00151383    6.907    0.855
       308  -9.2786    240.3734    145.2600   6.9197388235e+01   3.9979489246e+00    0.2700049    0.1918991 -37.35 0.0005789294    1.330    0.248
       309  -8.7002    242.6629    143.2961   6.8378937826e+01   3.8912718389e+00    0.2178256    0.1742846  42.09 0.0005517522    1.373    0.272
       310  -7.9550    206.7193    146.5771   7.5633159392e+01   1.0386582705e+01    0.1889495    0.1422898  55.24 0.0006684182    1.519    0.342
       311  -8.3638    175.4491    146.2888   8.2064533946e+01   1.7010749500e+01     0.244348    0.1888194  70.61 0.0006878526    1.661    0.398
       312  -9.7917    125.1912    142.8474   9.3234520880e+01   2.8150675128e+01    0.5095313    0.3467996 -88.11  0.001400086    2.215    0.549
       313 -10.7414     69.1183    140.1368   1.0751266750e+02   3.8182654420e+01    0.9368809    0.4192538 -68.16  0.003142927    2.265    0.559
       314  -7.9002    194.3744    144.1414   7.7550352382e+01   1.3412815628e+01    0.2105159    0.1357442 -49.89 0.0004750137    1.710    0.415
       315  -8.7112    165.4259    144.1104   8.3809215366e+01   1.9591893747e+01     0.277344    0.2199715  55.00 0.0006457933    1.329    0.247
       316  -9.3287      2.6719    141.7720   1.2485251091e+02   4.4468668883e+01    0.3670929    0.1616943  77.16  0.001453945    2.416    0.586
       317  -8.3477    182.1228    141.7741   7.9575587005e+01   1.6485951097e+01    0.2578355    0.2033465 -52.78 0.0005999025    1.376    0.273
       318  -8.6647    134.4371    140.0103   9.0284633323e+01   2.6960744523e+01    0.2374189    0.1492262 -49.07  0.001026222    1.595    0.373
       319  -8.7584     84.4810    123.3650   1.0005791612e+02   3.9991070671e+01    0.5031173    0.3225058 -12.00  0.001953827    3.036    0.671
       320 -10.4827     83.3649    132.8817   1.0230341291e+02   3.7866673725e+01    0.6592943    0.3485124 -65.99  0.001377073    1.962    0.490
       321  -9.7939     23.5038    138.2538   1.1933121498e+02   4.3690533143e+01    0.5114442        0.231  66.70   0.00222602    2.874    0.652
       322  -8.1285    234.6709    138.7632   6.8722078097e+01   6.1560233910e+00    0.1996526    0.1177214 -41.14 0.0004819589    1.630    0.386
       323  -8.7008    172.3145    138.3348   8.0917515046e+01   1.9300595081e+01    0.3011861     0.247176 -85.13  0.000473608    1.584    0.369
       324  -7.9884    218.5342    138.5264   7.1543667274e+01   9.4112503187e+00    0.1448636    0.1346956 -19.65 2.431672e-05    1.038    0.037
       325  -8.4006    207.6237    138.1027   7.3508643803e+01   1.1748131448e+01    0.2316694    0.1732359 -50.16 0.0006800799    1.459    0.315
       326  -8.6423    197.5552    137.6727   7.5398750219e+01   1.3964770226e+01    0.2804641    0.2332471 -60.25 0.0008237255    1.406    0.289
       327  -9.2730    139.8378    137.6215   8.8400958939e+01   2.6390576193e+01    0.3714216    0.2576701  16.42  0.001550863    2.056    0.514
       328 -10.1588    132.5396    131.2195   8.8752344069e+01   2.9332697395e+01    0.8262083    0.5203425 -80.79  0.002050676    2.922    0.658
       329  -9.0182     39.0625    136.1667   1.1499097053e+02   4.2727667183e+01    0.2758763    0.1704038  76.82 0.0007919642    1.789    0.441
       330  -9.1459    250.6435    129.9464   6.4120669483e+01   4.5588082951e+00    0.4864691    0.1181851 -34.45  0.001509151    3.787    0.736
       331  -9.1543    248.3774    135.4480   6.5705007910e+01   4.0973234586e+00     0.311721     0.204524 -40.00  0.000812022    1.428    0.300
       332  -8.5481    246.9768    130.4821   6.4818918406e+01   5.1619944515e+00    0.2551441    0.1685392 -43.70 0.0004633284    1.488    0.328
       333  -8.0276    162.5929    136.3469   8.2654053813e+01   2.1826377958e+01    0.2284022    0.1844096 -83.55 0.0007019246    1.601    0.375
       334  -9.7054    237.0573    133.0999   6.7033761096e+01   6.6393715159e+00    0.4541465    0.1905792 -50.44  0.001546386    3.477    0.712
       335  -8.1378    231.4622    134.0307   6.8199673781e+01   7.5848267375e+00    0.2146313    0.1301337 -34.28 0.0003906088    1.517    0.341
       336  -8.4403    179.3719    134.0133   7.8337181348e+01   1.8633163861e+01    0.2607519    0.2179644  89.80 0.0007220133    1.533    0.348
       337  -9.1561    112.7267    133.3500   9.4409773241e+01   3.2731746556e+01    0.3576693    0.2635998 -89.76  0.001009298    1.754    0.430
       338 -10.4430     98.2939    130.2365   9.7640992099e+01   3.6063812411e+01    0.7143931     0.344355 -58.82  0.001744557    2.093    0.522
       339  -9.1529    143.0615    131.7424   8.6231275788e+01   2.7021001610e+01     0.307457    0.2453116 -74.53 0.0007989225    1.498    0.333
       340  -9.8122     73.2605    129.5921   1.0449266300e+02   4.0162434933e+01    0.4108062    0.2634889  88.06 0.0008655611    2.043    0.510
       341 -10.1304     12.7770    128.9310   1.2108824821e+02   4.6733753891e+01    0.5275293    0.2510537  84.17  0.002297904    2.312    0.567
       342  -8.0090    220.4740    130.2362   6.9261506168e+01   1.0476823080e+01    0.1995458     0.130647 -46.59 0.0005794153    1.580    0.367
       343  -7.8392    204.4247    130.2793   7.2281833362e+01   1.3874232192e+01    0.2087892    0.1367972 -47.29 0.0009343271    1.588    0.370
       344  -7.8814    192.5442    130.0974   7.4611622875e+01   1.6502022810e+01    0.2247808    0.1463252 -40.07 0.0004848476    1.501    0.334
       345  -9.2513    168.2925    129.4288   7.9683930533e+01   2.2019597973e+01    0.3405327    0.2550274 -63.37 0.0008170452    1.605    0.377
       346  -9.2731    152.9886    129.3165   8.3227872752e+01   2.5416664543e+01    0.3805722    0.2488918 -56.77 0.0009454153    1.719    0.418
       347  -7.9680    211.4258    129.2367   7.0693297877e+01   1.2562248861e+01    0.2120018    0.1326304 -47.44 0.0005902807    1.676    0.403
       348 -10.3695     60.1216    125.3618   1.0744765030e+02   4.2952617149e+01    0.7121424     0.405202  77.86  0.002682192    2.734    0.634
       349 -10.7249     44.8962    123.6047   1.1151433070e+02   4.5149441582e+01     1.085703    0.5355166  77.78  0.003927462    3.794    0.736
       350 -10.1012    118.2492    125.3996   9.1122171395e+01   3.3531111078e+01    0.6456441    0.4341036  82.93  0.001701541    2.398    0.583
       351  -7.8251    228.3391    125.6420   6.6795414310e+01   9.6529652674e+00    0.1486451    0.1112716 -66.48 0.0007038582    1.817    0.450
       352  -8.8935    179.3450    124.8190   7.6096407204e+01   2.0484002655e+01    0.2827569    0.2394873  88.16 0.0006827009    1.462    0.316
       353 -10.2149     28.6823    122.7458   1.1599243198e+02   4.6929807868e+01     0.680319    0.3234868  75.04  0.002721619    3.274    0.695
       354  -7.8887    187.8591    135.8402   7.6961810985e+01   1.6412828533e+01    0.2018429    0.1821476 -76.84 0.0004193982    1.305    0.234
       355  -8.0197    188.6930    124.1438   7.3947967679e+01   1.8513197330e+01    0.2406959    0.1869167 -56.68 0.0006820799    1.439    0.305
       356 -10.3552    131.6109    119.4737   8.6141346644e+01   3.2176606942e+01      0.80134    0.4968727 -84.43   0.00258074    3.632    0.725
       357 -10.4200    133.4786    110.0657   8.3224351705e+01   3.3873125704e+01    0.7051517     0.353136 -46.20  0.002107018    1.969    0.492
       358  -9.2683    158.5437    121.5028   7.9964510658e+01   2.5858259239e+01    0.3747305     0.274402 -65.32 0.0008823469    1.678    0.404
       359  -8.0151    154.3014    123.3087   8.1428391320e+01   2.6420108662e+01    0.1576366    0.1255013   0.74  0.000447041    1.602    0.376
       360  -7.8973    203.1484    122.1688   7.0563385211e+01   1.5663344986e+01    0.2091648    0.1748427 -60.28 0.0004422235    1.354    0.261
       361  -7.8103    194.9630    122.2127   7.2188609972e+01   1.7478622074e+01    0.2186876    0.1638417 -59.84 0.0005606924    1.581    0.368
       362  -8.6082    171.9715    121.5561   7.6897593528e+01   2.2812657603e+01    0.2866386    0.2131606 -57.96 0.0005448467    1.518    0.341
       363  -8.5990     99.2268    120.7035   9.5268738741e+01   3.8171299524e+01    0.2861447    0.1898523  10.33  0.001059636    2.454    0.593
       364  -9.7458     70.9761    119.4511   1.0316533211e+02   4.2945021616e+01    0.4436297     0.275196 -73.79  0.001635789    1.764    0.433
       365  -9.8935    141.5742    118.6194   8.3370333251e+01   3.0236629671e+01    0.4487328    0.3054115 -67.86  0.001091235    1.938    0.484
       366  -9.6478      2.9356    117.4511   1.2249509624e+02   5.0057836339e+01    0.4790628    0.2247867  75.58  0.002310029    2.538    0.606
       367  -8.8054    204.4675    118.0166   6.9286053775e+01   1.6141512497e+01    0.2802999    0.2289277 -85.28 0.0009695941    1.597    0.374
       368  -7.5838    231.3550    117.6713   6.4407104417e+01   1.0397865276e+01    0.1476115    0.1104477 -67.52 0.0007045626    1.778    0.438
       369  -7.5901    219.3911    116.1976   6.6102262211e+01   1.3189826140e+01    0.2174021    0.1283676 -44.47 0.0009507127    1.657    0.397
       370  -8.2491    185.8346    116.1448   7.2530967995e+01   2.0722812537e+01    0.2378851    0.2086113 -65.54 0.0005464856    1.266    0.210
       371  -9.9621    109.1863    114.2584   9.0914980268e+01   3.7863189604e+01    0.5419149    0.3645764 -75.52   0.00163347    2.048    0.512
       372  -9.2564    109.2053    108.1792   8.9368124931e+01   3.9262138084e+01    0.3870437     0.249162 -13.78  0.001435344    2.790    0.642
       373  -8.8355     59.2826    115.2442   1.0580100352e+02   4.5512281701e+01    0.2987719    0.1953566 -15.42  0.001081572    2.428    0.588
       374  -8.9924    250.1373    115.1394   6.0852472665e+01   7.0394119417e+00    0.2343831    0.2021223  50.48 0.0009493092    1.328    0.247
       375  -8.2696    192.9519    115.1562   7.0823233344e+01   1.9282056094e+01     0.235433    0.2023825 -65.90   0.00052587    1.315    0.239
       376 -10.3592     92.8614    111.8662   9.5027744183e+01   4.1366717038e+01    0.8947486    0.3495507 -55.98   0.00258158    2.569    0.611
       377 -10.0226     78.9724    112.5372   9.9311356704e+01   4.3444551783e+01    0.6176435    0.3921327 -88.08  0.002136003    2.425    0.588
       378  -8.7984     78.4584    105.4593   9.7829952995e+01   4.5207741048e+01     0.308053    0.2300652   5.77  0.001260255    1.782    0.439
       379  -8.0135    167.4575    114.5111   7.6104409448e+01   2.5286160027e+01    0.1565879    0.1527407 -62.06 0.0001396531    1.051    0.048
       380 -10.4704    122.0394    111.7579   8.6721666363e+01   3.5900523980e+01    0.6332146    0.3563794 -39.27  0.001955452    1.861    0.463
       381  -9.2203     27.8195    113.5961   1.1491848259e+02   4.9190319425e+01    0.3192364     0.112447  28.97  0.001385457    3.162    0.684
       382  -9.8878     14.1993    111.2947   1.1858791369e+02   5.0777966243e+01     0.415623    0.2219119  73.50  0.001741109    2.332    0.571
       383  -8.2901    174.8389    112.0962   7.3830915445e+01   2.4065540214e+01    0.2410772    0.2106297 -66.82 0.0005521348    1.267    0.211
       384  -8.4398    159.0883    111.8592   7.7339845934e+01   2.7760043337e+01    0.2727886    0.2202945 -45.77 0.0005758079    1.233    0.189
       385 -10.0509     66.3205    110.7317   1.0274770314e+02   4.5688806106e+01    0.4355635    0.3109036 -81.34  0.001199874    1.587    0.370
       386  -8.7736     66.6660    105.6790   1.0153906020e+02   4.6852237828e+01    0.1886248    0.1481751  -0.73 0.0008715453    1.628    0.386
       387  -7.8199    149.7872    109.9968   7.9075875153e+01   3.0274981166e+01     0.214286    0.1267894 -42.55 0.0004407308    1.672    0.402
       388  -9.0276     42.8755    109.5856   1.0971724009e+02   4.8743334490e+01    0.2943825     0.169367   4.91  0.001339478    2.799    0.643
       389 -10.4221    248.9624    107.9078   5.9366951984e+01   8.4369787356e+00    0.4606957    0.3382888 -37.89  0.002023108    1.200    0.167
       390 -10.0616    248.6064    102.7965   5.8236360549e+01   9.3312153758e+00    0.3624407    0.2984912  39.17  0.002075371    1.379    0.275
       391  -7.6833    182.5719    109.4771   7.1490145261e+01   2.2779119298e+01    0.1553501    0.1492512 -50.88 0.0001501003    1.050    0.048
       392  -8.2218    189.2351    108.1694   6.9776839007e+01   2.1474858363e+01    0.2141974    0.1783389 -63.96 0.0005117327    1.348    0.258
       393  -7.9970      5.0065    109.0000   1.2096344636e+02   5.1897474252e+01    0.1566782   0.07029137  18.48 0.0007953413    2.893    0.654
       394 -10.0470    119.2028    106.0219   8.5990140115e+01   3.7771367487e+01    0.3144053    0.2564431 -46.85  0.001185029    1.192    0.161
       395  -9.5463    150.7801    103.5172   7.7077528644e+01   3.1410542566e+01    0.5093992    0.3384209 -74.17  0.001610516    2.428    0.588
       396  -9.5538    139.7889    104.1962   8.0006557579e+01   3.3762237153e+01    0.5004933    0.2997495 -47.48   0.00120715    1.674    0.403
       397 -10.5058     45.6657    102.4890   1.0749687514e+02   5.0149881962e+01    0.7408784    0.4153586  71.60  0.003052625    3.085    0.676
       398 -10.6322     22.9488    102.8122   1.1472250070e+02   5.2142815637e+01    0.7017909    0.3694368  76.45  0.002521317    2.818    0.645
       399  -8.3133    166.8174    104.3004   7.3535148299e+01   2.7506685607e+01    0.2756834    0.2034498 -49.71 0.0005399985    1.391    0.281
       400 -10.6378    108.8239     98.8600   8.6989368423e+01   4.1447748138e+01    0.7190992    0.4703469  76.83   0.00119823    2.766    0.638
       401  -8.8718    107.4614     92.6831   8.5654190639e+01   4.3082196540e+01    0.6670437    0.2895955  30.51  0.002121137    3.472    0.712
       402  -8.8755      6.8400    103.2465   1.1970793150e+02   5.3126630820e+01    0.2475638    0.1556271  55.63 0.0009944128    1.870    0.465
       403 -10.3164    128.4407    102.0399   8.2386344573e+01   3.6715988579e+01    0.4090115    0.3166373 -59.25 0.0009399237    1.396    0.284
       404  -8.0186    175.5122    102.0764   7.1020151217e+01   2.5887608211e+01    0.2390696    0.1519946 -40.87  0.000594413    1.540    0.351
       405  -8.0213    159.7283    101.1518   7.4296386079e+01   2.9811391929e+01    0.2506103    0.1900278 -55.84 0.0004013552    1.427    0.299
       406  -9.3606     82.0315     99.7110   9.5308869945e+01   4.6001918498e+01    0.4774917    0.2762106 -65.09  0.001006463    2.004    0.501
       407 -10.2888     63.8860     96.3330   1.0026495526e+02   4.9435389389e+01    0.6143547    0.3881168 -79.80  0.001935606    2.179    0.541
       408  -9.2921     94.9461     97.0777   9.0631663607e+01   4.4436788831e+01    0.3128588    0.2550701 -73.77 0.0005138721    1.414    0.293
       409 -10.3718    123.8155     91.3664   8.0609760789e+01   4.0002993485e+01    0.5903611    0.4519835  28.15  0.001327226    1.454    0.312
       410  -8.6624    151.1395     95.5814   7.4771360449e+01   3.2958322523e+01    0.3159671    0.1957757  34.09  0.001267027    1.890    0.471
       411  -9.8342    247.1239     93.4145   5.6259121939e+01   1.1135370557e+01    0.2839684     0.205016  19.15  0.001417841    1.917    0.478
       412  -9.2789    139.1776     92.5147   7.6864330735e+01   3.6353941932e+01    0.4147169    0.2977465 -84.70 0.0008073111    2.155    0.536
       413  -9.1711     45.6806     92.9241   1.0549519571e+02   5.2408431966e+01    0.4404579    0.2588249  -5.58  0.001970854    2.781    0.640
       414  -8.1006    164.8459     94.1370   7.1171007214e+01   2.9989564168e+01    0.2445229    0.2084168 -67.65 0.0005573333    1.308    0.236
       415  -7.7559    188.5269     93.5375   6.6033053732e+01   2.4389844647e+01    0.1533479    0.1493845 -42.44 7.626053e-05    1.002    0.002
       416  -8.2574    176.4599     93.1181   6.8366420044e+01   2.7382845207e+01    0.2397305     0.150326 -40.75 0.0006245929    1.559    0.359
       417  -9.5138      5.1612     92.2352   1.1872242566e+02   5.5763811520e+01    0.3195105     0.192812  58.73  0.001335173    2.069    0.517
       418  -7.9311    157.8280     91.8699   7.2128206211e+01   3.2116040598e+01    0.2161821     0.184509 -66.93 0.0003767651    1.305    0.234
       419  -9.6401     34.9425     90.0819   1.0850480705e+02   5.4130644949e+01    0.5045022    0.2734483 -82.42  0.001778973    2.487    0.598
       420  -8.9682     35.4045     82.8092   1.0678192597e+02   5.5767523555e+01    0.4394756    0.2093441 -31.42  0.001889438    2.746    0.636
       421  -9.0370     22.9349     90.3056   1.1259161002e+02   5.5072737592e+01    0.3079086    0.2286169 -39.30  0.001399515    1.340    0.254
       422  -7.9929    151.1564     89.1683   7.2920986129e+01   3.4237997324e+01    0.2189818    0.1856945 -69.26 0.0005207137    1.342    0.255
       423 -10.1938     86.5888     85.6672   9.0061541767e+01   4.8443924966e+01    0.7136549    0.4197943 -49.38  0.001569648    1.598    0.374
       424  -8.6909     65.6290     87.2442   9.7409304795e+01   5.1301879284e+01    0.4118626     0.241272   2.65   0.00163541    3.080    0.675
       425  -9.8614     48.4521     84.2294   1.0253701786e+02   5.4120400651e+01    0.4839382    0.3189309  80.09  0.001851426    2.488    0.598
       426  -7.4739    179.2804     85.6443   6.5699356355e+01   2.8085739643e+01    0.1617778    0.1189125 -66.64 0.0006695339    1.660    0.397
       427  -9.4229    105.8931     71.3290   7.9587744987e+01   4.7855975289e+01    0.5834737    0.2021333 -46.30  0.001691188    3.003    0.667
       428  -9.8609    104.8106     83.2079   8.3653083830e+01   4.5642836032e+01    0.4963587    0.3413284 -67.33  0.001132924    1.990    0.498
       429  -8.3739    104.8344     77.3822   8.1846964169e+01   4.6850942120e+01    0.2961963    0.2057099  27.48  0.001340819    1.631    0.387
       430  -8.1527    109.2164     75.5698   7.9960732406e+01   4.6335442018e+01    0.2600825    0.1899342  24.06  0.001215389    1.568    0.362
       431  -8.5233    157.9930     83.8362   6.9758539164e+01   3.3629788056e+01    0.2815405     0.217078 -40.14 0.0004403264    1.287    0.223
       432  -9.7505     10.0874     81.6803   1.1541966816e+02   5.7901615778e+01    0.4195088    0.2625328  81.26  0.001889532    1.997    0.499
       433  -7.6610    170.5209     83.5363   6.6914080849e+01   3.0623861760e+01    0.1561467     0.150446 -69.86 9.603691e-05    1.054    0.052
       434  -8.9616    140.6894     82.7689   7.3591031906e+01   3.7963415570e+01    0.3000023    0.2647175 -69.94 0.0006820909    1.270    0.213
       435  -9.7233     24.6989     80.5997   1.1009321856e+02   5.7171860861e+01    0.4067973    0.2449832  88.98  0.001406778    2.312    0.567
       436  -8.4309    150.3246     80.6865   7.0606784957e+01   3.6080309233e+01     0.288697    0.1782218 -47.52 0.0006616502    1.689    0.408
       437  -8.8902    119.4352     80.3294   7.8505124010e+01   4.3229848069e+01    0.3471912     0.236776 -59.30 0.0008796145    1.788    0.441
       438  -8.8882     74.5094     80.3466   9.2504475663e+01   5.1560555588e+01    0.3306197    0.2205132 -66.73  0.001146849    1.862    0.463
       439  -8.4081    166.8433     79.6831   6.6580147765e+01   3.2236294040e+01    0.2601904     0.209033 -24.02 0.0003978041    1.329    0.248
       440  -7.9074    184.1982     78.0527   6.2594154948e+01   2.8229961515e+01    0.2104078    0.1198837 -34.67 0.0006820967    1.744    0.427
       441  -9.8595     63.5918     74.0817   9.4460838865e+01   5.4509523348e+01    0.5880263    0.2982241 -64.70  0.002306759    2.808    0.644
       442  -8.9296     63.6856     65.0676   9.1669875633e+01   5.6405667412e+01    0.6685418    0.2712082 -32.98  0.002322909    3.391    0.705
       443  -9.4031    128.1926     75.4806   7.4580264363e+01   4.2256198262e+01    0.3571216    0.2471342 -58.54  0.000635204    1.761    0.432
       444  -8.5208    140.3560     75.5071   7.1445874981e+01   3.9437007971e+01    0.2748138    0.2398378 -48.73  0.000611366    1.178    0.151
       445  -9.7228     82.6163     71.8157   8.7176589941e+01   5.2081996541e+01    0.8411019    0.3486966 -45.01  0.001775129    2.238    0.553
       446  -9.1950    249.9854     82.1953   5.3249151703e+01   1.2303838637e+01    0.4008974    0.1145946 -45.88  0.001300996    3.515    0.716
       447  -8.3085    163.4690     73.4524   6.5459700315e+01   3.4192750140e+01    0.2637711      0.13773 -46.28 0.0006462611    2.011    0.503
       448  -7.9089    151.5097     73.5199   6.8148876288e+01   3.7125264958e+01    0.1542975    0.1508994 -76.25 0.0008097025    1.053    0.051
       449  -8.6757    115.7065     72.9389   7.7225350872e+01   4.5497816808e+01    0.2750103    0.1994015 -53.65 0.0007860564    1.534    0.348
       450  -9.5859     95.1356     69.9941   8.2487844860e+01   5.0221123748e+01    0.7709643    0.2644587 -45.27  0.002236151    2.844    0.648
       451  -8.0896     42.2704     72.6466   1.0182072953e+02   5.7386280214e+01    0.2457453    0.1477018 -66.14 0.0008567126    1.765    0.433
       452  -7.8613    175.4931     72.5241   6.2704725423e+01   3.1356920454e+01    0.1519146    0.1500172 -74.79 6.238056e-06    1.005    0.005
       453  -9.3072     29.2752     70.8500   1.0622824193e+02   5.8996377183e+01    0.5459933    0.2447603 -14.59  0.001904361    4.998    0.800
       454  -8.2556    205.8401     70.8687   5.6808080906e+01   2.4117791618e+01    0.2236242    0.2053901  -2.11 0.0006939376    1.229    0.186
       455  -9.6582     51.4416     69.5528   9.7557473917e+01   5.7043931007e+01    0.4457421    0.2482652 -68.12  0.001532099    2.456    0.593
       456  -8.9466     16.6737     70.2096   1.1082573715e+02   6.0074155519e+01    0.2554263    0.1774754 -89.78  0.001060893    1.776    0.437
       457  -7.8370    157.4255     76.5486   6.7718757675e+01   3.5126457028e+01    0.1544555    0.1496144 -68.15 0.0002926993    1.057    0.054
       458  -7.4785    157.2939     69.7065   6.5669187411e+01   3.6384805928e+01    0.1537911    0.1208923 -73.45 0.0002325198    1.557    0.358
       459  -8.7375    147.0738     68.3790   6.7584820548e+01   3.9128581111e+01    0.2883319    0.2171998 -44.76  0.000570507    1.358    0.264
       460  -8.6150    138.6448     66.1538   6.8905174012e+01   4.1554229407e+01    0.3265866    0.1750931 -46.95 0.0008824416    2.029    0.507
       461  -8.7415    121.7352     66.1630   7.3314110535e+01   4.5463791387e+01     0.338229    0.2203688 -56.57 0.0009085146    1.935    0.483
       462  -9.0828    110.1005     63.8635   7.5848160793e+01   4.8415027260e+01    0.3152749    0.2321016 -55.19 0.0007200972    1.595    0.373
       463  -8.9722     37.2879     64.5670   1.0152378941e+02   5.9644003424e+01    0.2490928    0.2001966  84.04 0.0008222272    1.742    0.426
       464  -8.4050     18.1860     63.2080   1.0865713608e+02   6.1507778886e+01    0.3660807    0.1075889 -35.59  0.001233328    4.699    0.787
       465  -8.1652    158.2329     62.0267   6.3091946731e+01   3.7462745561e+01    0.2141791    0.1993221 -46.11 0.0004602365    1.090    0.083
       466  -9.4847     97.7652     60.0705   7.8297706248e+01   5.1628703660e+01    0.4845156    0.3304553 -22.87  0.002302631    1.584    0.369
       467  -9.6318     73.3330     59.6045   8.6364755131e+01   5.6062247324e+01    0.3829406    0.2320252 -53.66  0.001065391    1.851    0.460
       468  -9.8383     23.5549     56.6265   1.0481788391e+02   6.2525748677e+01    0.4285901    0.2792749  85.59  0.002025565    2.766    0.638
       469  -8.2491    130.8805     58.1110   6.8198315710e+01   4.4787778332e+01    0.2293136    0.2024527 -70.18 0.0005667554    1.322    0.243
       470  -9.3733      7.3291     56.9997   1.1154348713e+02   6.3494064934e+01    0.3089769    0.1877419 -79.27  0.001051179    1.879    0.468
       471  -9.2233    119.1648     55.1358   7.0266881391e+01   4.7986276762e+01    0.5014947    0.2210703 -43.09  0.001657662    2.398    0.583
       472  -8.4806    140.0077     56.0346   6.5263505489e+01   4.2951536262e+01    0.2393724    0.1827028 -69.66 0.0006002466    1.687    0.407
       473  -9.2663     54.2459     55.2894   9.2030583403e+01   5.9656639961e+01    0.2982704    0.2084978 -61.81 0.0009229194    1.764    0.433
       474  -8.7428     44.1268     55.6066   9.6139272077e+01   6.0806014441e+01    0.2459167    0.1909648 -74.27 0.0008401913    1.758    0.431
       475  -8.6661    105.9082     53.5060   7.3474227663e+01   5.1147361002e+01    0.2659606    0.1966481 -52.08 0.0006657531    1.588    0.370
       476  -8.2786     76.9851     51.0000   8.2000729016e+01   5.7087590589e+01    0.3090915    0.1120398  29.48 0.0009323753    4.591    0.782
       477  -9.5578     92.3878     50.7166   7.6661669082e+01   5.4351620978e+01    0.4084916    0.2359825 -47.50  0.001105665    1.945    0.486
       478  -8.3501    144.6336     48.8177   6.1803846479e+01   4.2955373919e+01    0.2088243    0.1329421 -43.29 0.0004753023    1.655    0.396
       479  -8.0495    129.8412     49.0627   6.5364881721e+01   4.6506023733e+01    0.2393744    0.1612812 -58.46 0.0004299663    1.956    0.489
       480  -8.6446    120.9023     47.6113   6.7144199476e+01   4.8817871748e+01    0.2607218     0.204915 -39.54 0.0004856313    1.327    0.247
       481  -8.6614    112.3842     47.0809   6.9272813611e+01   5.0816758556e+01    0.3161776    0.2211106 -56.42 0.0009343936    1.874    0.466
       482  -9.0766     82.0632     46.4440   7.8514665277e+01   5.7008378436e+01    0.3094307    0.2240824 -49.01 0.0008081935    1.590    0.371
       483  -8.4812     45.0181     44.7622   9.2082539352e+01   6.2830484936e+01    0.2249793    0.1591257 -41.35 0.0006051015    1.238    0.192
       484  -8.6317     16.6294     44.7813   1.0439436244e+02   6.5466215082e+01    0.1973984    0.1624229 -78.41 0.0005927783    1.564    0.361
       485  -9.0256    132.9403     43.5173   6.2682506550e+01   4.6605623399e+01    0.2704442    0.1984374 -51.01 0.0006611964    1.562    0.360
       486  -8.5547     92.8297     42.9959   7.3608397775e+01   5.5555304465e+01    0.2690961    0.1867733  -8.29  0.001302931    1.646    0.392
       487  -9.4439     69.5323     40.9730   8.0893742096e+01   6.0078957366e+01    0.5167112    0.2329502 -42.38   0.00137245    2.170    0.539
       488  -8.8966     58.3867     42.7222   8.5869200792e+01   6.1469511975e+01    0.2483171    0.2104017 -68.81  0.001048584    1.729    0.422
       489  -9.5442      5.0304     41.9977   1.0878589016e+02   6.6722792093e+01    0.3065493    0.2021996 -84.18  0.001522235    2.125    0.529
       490  -8.6180    105.9773     41.4950   6.9025841538e+01   5.3080351572e+01    0.2552878    0.1903968 -46.03 0.0005141707    1.522    0.343
       491  -8.0584    140.2684     41.6313   6.0350773119e+01   4.5091704279e+01    0.1497164    0.1112406 -62.12 0.0003564509    1.663    0.399
       492  -8.7582     36.9091     40.7108   9.4078550428e+01   6.4496509801e+01    0.2342396    0.1629623 -50.01 0.0006968339    1.412    0.292
       493  -8.4940     95.3720     38.1473   7.0920776037e+01   5.5802992772e+01    0.2502395     0.203252 -59.62 0.0009197505    1.654    0.396
       494  -8.1607     80.6177     36.7603   7.5214769411e+01   5.8856572384e+01    0.1851031    0.1205424 -41.54 0.0006398959    1.634    0.388
       495  -8.2261    125.9732     35.7085   6.1571890990e+01   4.9378468853e+01    0.1993259    0.1746483  46.04 0.0003069132    1.082    0.076
       496  -9.3224     26.1471     35.4160   9.6987518625e+01   6.6531576339e+01     0.266296    0.1890503 -57.80 0.0008965842    1.589    0.371
       497  -8.8909    111.9673     34.6036   6.4732889480e+01   5.2766186629e+01     0.261601    0.1881273 -46.42 0.0006492805    1.618    0.382
       498  -7.9637     88.5596     34.4956   7.1632234431e+01   5.7703248339e+01    0.1366349    0.1233541   2.88 0.0001122637    1.037    0.036
       499  -9.0315     48.5216     33.1561   8.6127715466e+01   6.4477139189e+01    0.3041272    0.1958452 -41.37  0.001252853    1.468    0.319
       500  -8.4268    119.0635     32.8809   6.2233978722e+01   5.1381265120e+01    0.2546916    0.1714877 -43.10 0.0005933428    1.662    0.398
       501  -8.6447     60.8353     32.6469   8.0853458381e+01   6.2818732425e+01    0.2404182    0.1707894 -38.73 0.0008048266    1.411    0.291
       502  -8.9672     72.0909     31.0626   7.5895483719e+01   6.1239386045e+01    0.2696154    0.2023196 -50.89 0.0007611398    1.766    0.434
       503  -7.6201    139.3169     31.6942   5.7132154483e+01   4.6668297286e+01    0.1442718    0.1107401 -70.52 0.0003786672    1.628    0.386
       504  -9.0128     12.9929     30.1380   1.0135338409e+02   6.8551037566e+01    0.2704116    0.1508266 -59.74  0.001538167    1.874    0.466
       505  -8.0606    101.7327     29.7678   6.5695261332e+01   5.5669092552e+01    0.1758335     0.163546 -62.36 0.0009125232    1.344    0.256
       506  -7.7651     42.0157     29.9797   8.7643843691e+01   6.5831492794e+01    0.1526294    0.1207541 -22.08 0.0003245935    1.038    0.036
       507  -9.0264     91.7188     26.5417   6.7365170059e+01   5.8188137461e+01    0.3091157    0.2072174 -41.39   0.00104812    1.708    0.415
       508  -8.9815     81.3801     27.3770   7.1059946049e+01   6.0099037335e+01     0.278099    0.2121905 -46.68 0.0008444877    1.641    0.391
       509  -8.5384      3.8425     28.1088   1.0518590941e+02   6.9491107166e+01     0.160826    0.1355702 -52.19 0.0006072801    1.274    0.215
       510  -7.6872    136.4527     27.5921   5.6299765017e+01   4.7886413329e+01    0.1418998    0.1300814  47.65 0.0001784737    1.013    0.013
       511  -7.6284    109.7216     27.3462   6.2531891088e+01   5.4231829577e+01    0.1343703    0.1082463 -61.21 0.0003169059    1.634    0.388
       512  -8.2042    104.4278     23.1990   6.2307034471e+01   5.5920594509e+01    0.1828369    0.1240816 -37.68 0.0004847981    1.623    0.384
       513  -8.0322     34.7752     23.5719   8.8221436096e+01   6.7737495404e+01     0.151534    0.1092747  34.82  0.000945112    1.695    0.410
       514  -8.9617     63.5474     21.1345   7.4757691464e+01   6.4108452621e+01    0.2806502     0.200736 -45.85 0.0009321604    1.810    0.447
       515  -8.8659     48.3410     21.8908   8.1336751350e+01   6.6301879079e+01    0.2084744     0.181284 -13.20 0.0006995038    1.171    0.146
       516  -8.0948    120.9499     20.9990   5.7304557318e+01   5.2403983376e+01    0.2122137    0.1649097 -62.15 0.0007253675    1.653    0.395
       517  -7.7020     19.5057     21.5297   9.4809340091e+01   6.9588840711e+01    0.1158877   0.09208412 -26.78 4.670369e-05    1.082    0.075
       518  -8.9094     74.0875     19.4897   7.0125751159e+01   6.2500738742e+01    0.2725188    0.1852633 -45.94 0.0009415596    1.937    0.484
       519  -7.9732     87.8540     17.8049   6.4844691050e+01   6.0062037075e+01    0.1642849    0.1577791 -46.40 0.0004684888    1.331    0.249
       520  -8.0755     38.8017     18.5915   8.4100999732e+01   6.8046438420e+01    0.1492455    0.1090676  35.69 0.0009355946    1.645    0.392
       521  -7.7474    112.6607     16.8095   5.7644219794e+01   5.4798338367e+01     0.176331     0.120569 -33.37 0.0003621957    1.584    0.369
       522  -8.0831     30.2002     16.4151   8.7200756312e+01   6.9380576031e+01    0.1424264    0.1055097  32.09 0.0005603369    1.638    0.390
       523  -8.2392     97.2083     15.2164   6.0999301153e+01   5.8406680819e+01    0.1716514    0.1536789 -44.56 0.0004801957    1.366    0.268
       524  -7.9081      7.4736     15.4776   9.8613498500e+01   7.1541096124e+01    0.1126978    0.0850241 -30.19  0.000809183    1.049    0.047
       525  -7.9845     17.1594     14.2062   9.2854375221e+01   7.1007165966e+01    0.1400588    0.1234127 -26.92 0.0005406706    1.334    0.250
       526  -7.5295     83.6601     11.3134   6.3269104735e+01   6.1634350291e+01    0.1197904    0.1037592 -67.46 0.0003599219    1.698    0.411
       527  -9.2377    218.8383    247.5801   9.2328947808e+01  -7.2105164488e+00    0.3223189    0.1928059 -25.03  0.001593075    1.858    0.462
       528 -10.0026    223.8924    244.1899   9.0917074420e+01  -7.5419905453e+00    0.4098354    0.2387838 -42.97   0.00240272    2.358    0.576
       529  -9.0586    175.6334    247.7844   1.0018910996e+02  -6.7011541301e-01    0.2725821    0.2181974  80.90  0.001077045    1.962    0.490
       530  -8.8794    132.5162    248.0926   1.0825737289e+02   6.0456872459e+00    0.2849411    0.1693491  65.27  0.000805771    2.123    0.529
       531  -8.9826    112.7983    248.7092   1.1197992057e+02   8.9516179403e+00    0.2395298    0.1644198  59.91 0.0009205259    1.309    0.236
       532  -9.2294    103.7826    246.8632   1.1345532397e+02   1.0593095292e+01    0.3767399    0.2035357 -85.04  0.001661807    2.773    0.639
       533  -9.1640    242.8782    247.0711   8.8086922701e+01  -1.0534440387e+01    0.2933926    0.1493829 -28.64  0.001261057    2.071    0.517
       534  -8.8524    232.6398    247.2645   8.9869667251e+01  -9.1453344359e+00    0.1980327     0.172244 -16.27  0.000780024    1.431    0.301
       535  -9.2007    211.0134    246.7014   9.3586566952e+01  -5.9529501917e+00    0.2044551     0.167583 -53.05 0.0007395888    1.923    0.480
       536  -8.8453    156.0323    248.0715   1.0386824585e+02   2.3704190379e+00    0.1841879    0.1489893  42.02 0.0005208534    1.050    0.048
       537  -7.7871     63.6704    248.6758   1.2080920423e+02   1.5826456276e+01   0.09223503   0.08849502  -0.11 0.0007050018    1.700    0.412
