#   1 NUMBER                 Running object number                                     
#   2 MAG_AUTO               Kron-like elliptical aperture magnitude                    [mag]
#   3 X_IMAGE                Object position along x                                    [pixel]
#   4 Y_IMAGE                Object position along y                                    [pixel]
#   5 X_WORLD                Barycenter position along world x axis                     [deg]
#   6 Y_WORLD                Barycenter position along world y axis                     [deg]
#   7 A_WORLD                Profile RMS along major axis (world units)                 [deg]
#   8 B_WORLD                Profile RMS along minor axis (world units)                 [deg]
#   9 THETA_WORLD            Position angle (CCW/world-x)                               [deg]
#  10 FWHM_WORLD             FWHM assuming a gaussian core                              [deg]
#  11 ELONGATION             A_IMAGE/B_IMAGE                                           
#  12 ELLIPTICITY            1 - B_IMAGE/A_IMAGE                                       
         1 -14.9266      2.5800    130.9538   1.4306323242e+02   4.7377861850e+01     5.724861    0.6544895 -72.48   0.01730478    5.476    0.817
         2 -13.4842    199.3205     27.4650   6.6517296878e+01   3.1895949529e+01     1.486983     1.308892  26.13   0.00638058    1.360    0.265
         3 -13.4617    214.7566      8.7388   5.9982793114e+01   3.0207244018e+01    0.9575729     0.818447  68.60  0.002765079    1.202    0.168
         4 -10.9665      3.7108      3.1597   1.1336102381e+02   7.3744816157e+01    0.2772588      0.16936  -5.50  0.001880517    1.569    0.363
         5 -11.1759    161.8510    249.4246   1.2294515481e+02   2.2574941925e+00    0.2952791    0.1211228  42.20  0.001478748    1.933    0.483
         6 -11.8196    239.1692    249.1284   1.0945697291e+02  -9.2322589375e+00    0.3788215    0.1998385  32.33  0.002346956    1.525    0.344
         7 -11.2829    248.7246    249.2299   1.0790934518e+02  -1.0532250598e+01    0.4056094    0.2417222  20.41  0.002697733    1.364    0.267
         8 -12.6075    140.7022    248.8711   1.2669528438e+02   5.6220725821e+00    0.6549442    0.3347648  44.96  0.003688791    1.557    0.358
         9 -11.3058    123.6223    250.1681   1.2992167521e+02   8.0336468481e+00    0.4680694    0.1088202  43.26  0.001837338    3.247    0.692
        10 -11.4761     98.8054    248.3520   1.3418085076e+02   1.1979116613e+01    0.3282919    0.2614788   7.48  0.002142119    2.103    0.525
        11  -9.0472     66.5256    250.4607   1.3999105015e+02   1.6029707417e+01    0.1115954   0.08167868  62.37 6.729503e-05    1.013    0.012
        12 -11.3228     46.7995    248.9781   1.4321042863e+02   1.8726554708e+01    0.3322935    0.2151376  47.92  0.001697721    1.330    0.248
        13 -13.2987     33.3739    246.1250   1.4525456124e+02   2.0768318758e+01     1.636634     1.094306 -46.49   0.01073598    2.776    0.640
        14 -13.1397     45.9554    215.2663   1.4098872072e+02   2.5002918618e+01     1.025557      0.76531  78.06  0.006743158    1.077    0.072
        15 -14.0354     35.5087    226.9481   1.4372796238e+02   2.3979521808e+01    0.6867453    0.4864706  60.47    0.0023928    1.128    0.114
        16 -12.6573     19.5468    240.3811   1.4720400991e+02   2.3267939558e+01    0.6512377    0.3759952 -78.71  0.004667496    1.626    0.385
        17 -12.9531      7.1695    248.6861   1.4953725192e+02   2.3080285038e+01     1.168947     0.502847  42.22   0.00545446    1.979    0.495
        18 -12.5538     12.1635    242.1386   1.4847453513e+02   2.3713773502e+01    0.6102229    0.2734755  68.88  0.003912505    1.772    0.436
        19 -11.8689    125.1127    232.2498   1.2760949550e+02   1.0691301560e+01    0.3839036    0.1712388  40.92  0.001901375    1.883    0.469
        20 -12.9145     92.4664    227.6820   1.3330843221e+02   1.6458948187e+01     1.621109    0.1249422  46.44  0.003935777    8.395    0.881
        21 -12.0442    112.3785    231.6097   1.2995197904e+02   1.2781220104e+01    0.6031469    0.1440616  39.14  0.002166787    3.729    0.732
        22 -12.9879     30.3776    233.2809   1.4501231418e+02   2.3382556432e+01    0.2597866    0.2398112  65.15 0.0007340184    1.465    0.318
        23 -12.8229      9.9310    229.2984   1.4823603978e+02   2.6230828427e+01    0.6378004    0.3582189  87.91  0.004491545    1.436    0.304
        24  -9.4076    173.6690    223.0087   1.1706864743e+02   4.2216959463e+00    0.2794249    0.1151636  48.69  0.001201657    2.471    0.595
        25 -11.7939     54.7629    210.4097   1.3890366494e+02   2.4887742724e+01      1.07075     0.269859  55.95  0.003392108    5.571    0.820
        26  -8.8838    152.4948    213.0744   1.1967537007e+02   9.4341929633e+00    0.1632969    0.1303717 -51.83  0.000348845    1.447    0.309
        27 -12.4811      9.8612    207.1177   1.4709529354e+02   3.0447347943e+01    0.6031866    0.3974494  32.30  0.002894102    1.886    0.470
        28 -10.6439     55.8112    206.0505   1.3830797054e+02   2.5630530829e+01    0.4155578    0.1526511  55.12  0.001867903    2.643    0.622
        29 -11.7952     58.0539    199.3164   1.3722152543e+02   2.6723616548e+01    0.2579418    0.2148278 -84.99 0.0005163907    1.163    0.140
        30 -10.9217     39.6869    198.6209   1.4085377913e+02   2.9077673757e+01    0.5896087    0.1973625  66.39  0.001966596    5.258    0.810
        31  -9.7014    194.0119    197.0208   1.0882625231e+02   4.7837156031e+00    0.3622417     0.198039 -65.32  0.001041394    7.095    0.859
        32  -9.8752      8.9465    193.9389   1.4649256066e+02   3.3173430015e+01    0.1737024    0.1245524  76.01  0.000732887    1.053    0.050
        33 -12.0332     64.6982    190.7640   1.3495279650e+02   2.7654297966e+01    0.2524782    0.2273065 -85.24 0.0004683936    1.187    0.158
        34 -12.6461      3.7867    170.8250   1.4602050121e+02   3.8459831330e+01     1.221457    0.3555586 -73.24    0.0057082    2.627    0.619
        35 -13.9997     10.0035    157.1932   1.4364883080e+02   4.0932391624e+01     2.772918     1.024647  86.24   0.01159233    3.208    0.688
        36 -10.2743    225.5102    249.0415   1.1172473533e+02  -7.3125169653e+00    0.1556649    0.1043077 -24.52  0.001045612    1.630    0.386
        37 -10.8281     75.5151    177.6746   1.3100948060e+02   2.9004159319e+01    0.2346223    0.2049571  80.42  0.000415773    1.021    0.021
        38 -13.1898     61.8765    175.8742   1.3385890679e+02   3.1259279615e+01    0.4918447     0.269056 -47.61  0.001623567    2.302    0.566
        39 -10.3778     96.2896    152.6889   1.2222585066e+02   3.1459503511e+01    0.3196836    0.2752798 -55.71 0.0007427217    1.182    0.154
        40  -9.4830     99.1224    148.6365   1.2077999200e+02   3.1917142181e+01    0.2527523    0.1974088 -52.05 0.0007383831    1.288    0.224
        41 -12.0697     84.7239    151.7649   1.2494818430e+02   3.3512050752e+01    0.2915343    0.2447472 -49.57 0.0005854024    1.279    0.218
        42 -12.2535     67.2413    143.4928   1.2802668201e+02   3.7973932127e+01    0.6717699    0.4205899  64.49  0.002835219    1.835    0.455
        43 -10.0275    108.5932    137.7466   1.1622045029e+02   3.2764360120e+01    0.4129103    0.2926361  -7.82  0.001329445    2.428    0.588
        44 -10.6228     95.5540    134.8399   1.1901378926e+02   3.5708807272e+01    0.2370965    0.2345038  47.51 0.0004184782    1.117    0.105
        45 -11.5555     26.4967    128.9909   1.3663621365e+02   4.5973736594e+01    0.4405987    0.2076928  50.80  0.002161793    2.395    0.582
        46  -8.7425     76.1498    129.3755   1.2314905584e+02   4.0049523072e+01    0.1892249    0.1225148  51.28 0.0004512367    1.667    0.400
        47  -8.8161    106.1125    124.0900   1.1388279057e+02   3.6345055938e+01    0.1970773    0.1893501 -18.65 0.0002887266    1.139    0.122
        48  -8.9499     39.7844     95.5481   1.2718375225e+02   5.2531419566e+01    0.1638019    0.1182908  47.51 0.0006827747    1.631    0.387
        49 -11.0234    242.1689     93.4972   7.7683081201e+01   1.2430975582e+01    0.2639401    0.1729321 -19.84  0.001277848    1.689    0.408
        50  -8.3869     65.2898     81.6511   1.1539882309e+02   5.2602075031e+01    0.1344432    0.1065105 -87.03 0.0004197448    1.665    0.399
        51 -10.3465    158.5075     76.8086   8.7858813104e+01   3.4838684082e+01    0.2858414    0.2207073  52.80 0.0006171142    1.300    0.231
        52 -12.3628      3.2735     48.5034   1.2988128928e+02   6.5590441081e+01    0.6748651    0.1873438 -53.33  0.003161153    2.313    0.568
        53 -11.3498    172.7424    248.4192   1.2085778990e+02   7.0033497873e-01    0.3369502    0.1793125  52.96  0.001788829    2.105    0.525
        54  -9.3053     95.8698    173.0557   1.2569748749e+02   2.6949653339e+01     0.215962    0.1633893  73.31 0.0005745345    1.351    0.260
        55 -10.9012    198.9605    246.7115   1.1596000341e+02  -3.1190755340e+00    0.1723425    0.1273233  31.11 0.0008561226    1.073    0.068
        56 -11.9867     83.4740    168.4661   1.2789334877e+02   2.9890607077e+01    0.6715103    0.6193884 -36.52  0.004153921    1.352    0.260
