#   1 NUMBER                 Running object number                                     
#   2 MAG_AUTO               Kron-like elliptical aperture magnitude                    [mag]
#   3 X_IMAGE                Object position along x                                    [pixel]
#   4 Y_IMAGE                Object position along y                                    [pixel]
#   5 X_WORLD                Barycenter position along world x axis                     [deg]
#   6 Y_WORLD                Barycenter position along world y axis                     [deg]
#   7 A_WORLD                Profile RMS along major axis (world units)                 [deg]
#   8 B_WORLD                Profile RMS along minor axis (world units)                 [deg]
#   9 THETA_WORLD            Position angle (CCW/world-x)                               [deg]
#  10 FWHM_WORLD             FWHM assuming a gaussian core                              [deg]
#  11 ELONGATION             A_IMAGE/B_IMAGE                                           
#  12 ELLIPTICITY            1 - B_IMAGE/A_IMAGE                                       
         1 -14.3671    163.6024     54.7131   7.3682644136e+01   3.6586642694e+01     1.749169     1.378289  23.56   0.00641739    1.525    0.344
         2 -14.2554    177.1467     39.3114   6.7507115159e+01   3.5468872018e+01    0.9896532    0.8188508  59.45  0.003180998    1.132    0.116
         3 -13.6141    181.5368     32.6646   6.5250437363e+01   3.5255788023e+01    0.6641113    0.4414497  52.59  0.001352872    1.457    0.313
         4 -14.8184    197.9834      7.8925   5.7646611216e+01   3.4199921222e+01     2.052171     0.847374  62.36   0.01038475    2.047    0.512
         5  -9.9008    117.9393     23.6881   7.3713113723e+01   5.0476132395e+01    0.1784452    0.1407264  53.43 0.0003721227    1.136    0.120
         6 -13.6960    249.0319    248.8406   1.0022380302e+02  -1.2952960963e+01     1.214174    0.6073979 -36.01   0.00676517    1.975    0.494
         7 -12.7822    248.1458    243.7068   9.9491620410e+01  -1.2145796565e+01    0.5124842    0.2961953  19.66  0.002971838    1.635    0.388
         8 -17.3488     84.7707    182.9212   1.2359370157e+02   2.6113819210e+01     8.136108     3.816558 -60.93   0.03409616    2.113    0.527
         9 -10.0402    172.7721    189.0763   1.0411325605e+02   9.2271821305e+00    0.2145491    0.1995945 -82.99  0.001187308    1.298    0.230
        10 -11.8574    203.9394    200.3377   9.9822115159e+01   1.4406190196e+00    0.2936563    0.2398344   2.49  0.001652473    1.198    0.165
        11 -11.7175    160.1245    198.3911   1.0871457052e+02   9.6779162075e+00    0.6078832    0.4685417  86.86  0.001559581    1.958    0.489
        12 -12.7320    153.4257    201.1616   1.1072296150e+02   1.0331549132e+01    0.5543727    0.3239469 -45.25  0.002012328    1.765    0.433
        13 -10.3618     30.5452    213.5194   1.3956958733e+02   2.6158238583e+01    0.1212511   0.09823856  84.40  0.000808533    1.021    0.020
        14  99.0000     11.7930    205.5939   1.4258935221e+02   2.9761396043e+01    0.3135082    0.2501515 -67.42   0.00221333    1.265    0.210
        15 -10.3122    169.1322    177.9969   1.0265375425e+02   1.2186654345e+01    0.2614942    0.2082711 -67.92 0.0006568022    1.580    0.367
        16 -11.4006    204.5709    176.4140   9.4849027655e+01   5.7811692862e+00    0.4963452    0.2956597 -50.48  0.001800092    1.868    0.465
        17  -9.4655    198.5441    177.5402   9.6297934942e+01   6.6824366070e+00    0.1433429     0.134114 -14.34  4.73732e-05    1.037    0.036
        18 -10.6425      2.7203    176.7550   1.4189672784e+02   3.6895537333e+01    0.1064542   0.07693875 -52.06 0.0002874774    1.453    0.312
        19 -10.6035    165.6920    172.6762   1.0230576229e+02   1.3965104456e+01    0.2581798    0.2435626 -83.38 0.0003597154    1.217    0.178
        20 -10.7419    204.9472    166.8615   9.2754216729e+01   7.5372217750e+00    0.3326267    0.2926647 -28.44  0.001161542    1.061    0.057
        21 -10.3304    200.7959    168.5715   9.3946889292e+01   7.9937437741e+00    0.2680371    0.2591514 -71.44 0.0007717956    1.210    0.174
        22 -11.8081    189.3159    155.1034   9.3354549409e+01   1.2894114375e+01    0.4861682    0.4616247 -30.11  0.001813013    1.038    0.037
        23 -11.8912    193.4986    165.7756   9.4830165959e+01   9.9421915625e+00    0.3307506    0.3199031 -22.33 0.0007339522    1.072    0.067
        24 -11.1460    190.4622    161.2972   9.4483718008e+01   1.1426497933e+01    0.3988524    0.3012701  69.33  0.001885338    1.835    0.455
        25 -11.3084    229.8171    165.8392   8.7854653623e+01   3.1819367178e+00    0.1877738    0.1635222 -57.84 0.0006568164    1.353    0.261
        26 -11.2417    113.5759    160.7103   1.1229290689e+02   2.6549620987e+01    0.3559993    0.2789396  84.67 0.0009067187    1.648    0.393
        27 -11.4090    120.4619    157.2967   1.0983160783e+02   2.6083641046e+01    0.4359926    0.2267384 -44.27  0.001753767    1.918    0.479
        28 -10.2864    129.8130    157.1606   1.0745808011e+02   2.4356298936e+01    0.2261023    0.2051101  77.09 0.0005287445    1.239    0.193
        29 -10.9898    154.0520    154.0014   1.0090018010e+02   2.0275583851e+01    0.2947946    0.2072581 -73.83 0.0008098508    2.106    0.525
        30 -12.3628    134.0058    146.0086   1.0392605098e+02   2.6049133579e+01     1.382505    0.3385178 -52.53  0.003193286    5.846    0.829
        31 -11.3925    164.3829    152.1993   9.8112714934e+01   1.8559811484e+01    0.3454362    0.2790514 -72.20  0.001017582    1.549    0.355
        32 -10.7899    174.3952    148.9769   9.5150459090e+01   1.7178439091e+01    0.3172354    0.2781824 -69.62 0.0008049175    1.318    0.241
        33 -10.4343    125.1248    162.2082   1.0970150447e+02   2.4094119337e+01    0.2215744    0.2034482 -10.50 0.0003973971    1.157    0.136
        34 -12.2482    144.6923    146.3814   1.0138985942e+02   2.3829872795e+01    0.5520548    0.4073186  82.98  0.002375791    2.067    0.516
        35 -13.0219    101.6218    137.4576   1.1040463710e+02   3.4042543816e+01    0.3597447    0.2958947 -35.71 0.0005272343    1.205    0.170
        36 -12.2308    105.9876    130.8102   1.0767801924e+02   3.4781430787e+01    0.4579872    0.3675267 -50.77  0.001180327    1.225    0.183
        37 -11.4241    106.3918    124.6456   1.0608463928e+02   3.6085350717e+01    0.2977525     0.237799 -18.23 0.0004848456    1.390    0.280
        38 -17.1301     64.7026    239.8904   1.3540586511e+02   1.6480795169e+01     7.915352     5.785517  52.86   0.03222556    1.215    0.177
        39 -11.7489    135.6385    126.4938   9.8862578215e+01   2.9991962191e+01    0.8747283    0.1954434 -46.71  0.002246639    4.589    0.782
        40 -11.4015    117.9625    128.9702   1.0402296691e+02   3.2965517000e+01    0.3330187    0.2714705 -14.29 0.0006251752    1.385    0.278
        41 -11.0194    161.0057    128.1355   9.3215545158e+01   2.4308341918e+01    0.4194971    0.3334447 -78.66  0.001977778    1.648    0.393
        42 -10.4851    121.4879    123.3663   1.0171325640e+02   3.3507256720e+01    0.2795162    0.1848373  11.26  0.001123771    2.262    0.558
        43 -10.3907    112.6121    118.2313   1.0278998710e+02   3.6329286329e+01    0.2551371    0.2012328  38.54 0.0004186606    1.297    0.229
        44 -11.2427    167.9141    112.8779   8.7916336464e+01   2.5856354255e+01    0.3998425    0.3001408 -80.44  0.001473192    1.858    0.462
        45 -10.7683    134.6310    106.6395   9.4025462023e+01   3.4307358757e+01      0.46119    0.1452392 -44.28  0.001444644    3.198    0.687
        46 -10.6560    205.5052    110.1740   7.9931296532e+01   1.8162376447e+01    0.3027062     0.206171  43.47 0.0009123019    1.596    0.373
        47 -19.1487     41.3228     98.6120   1.1930483058e+02   5.1270097349e+01     16.23638       1.2377 -55.57   0.03068063   11.615    0.914
        48 -10.0856    149.8569     81.2975   8.3598560817e+01   3.5651278374e+01    0.2407766    0.1930513 -47.60 0.0006377164    1.316    0.240
        49 -10.9063     85.1410     77.0302   9.9326010753e+01   4.9498427669e+01    0.2184078    0.1880263  22.03 0.0003803374    1.130    0.115
        50 -10.8130    176.6300     74.7836   7.6520295930e+01   3.0625124933e+01    0.2748827     0.218234 -83.64 0.0003202709    1.457    0.313
        51  -9.6180    102.4746     72.4517   9.2846500032e+01   4.7144971090e+01    0.1415259    0.1262564   8.59 0.0008078359    1.039    0.037
        52 -12.2311    193.9442    196.0655   1.0101333775e+02   3.9855666581e+00     1.230325    0.7264364 -69.56  0.003918498    4.983    0.799
        53 -10.9578      1.1331    193.1958   1.4367703501e+02   3.3387370541e+01   0.09160055   0.06079646 -69.07 0.0005746862    1.285    0.222
        54 -11.4322    167.5991    231.5810   1.1302126073e+02   1.9996383028e+00    0.3344342     0.238188 -18.52 0.0009706177    1.677    0.404
        55 -12.9235    141.8706    188.9488   1.1104615093e+02   1.5018122433e+01    0.5487735     0.376299 -55.14  0.002614977    1.557    0.358
        56 -10.4141     13.5145     59.9335   1.1921596125e+02   6.1425921215e+01    0.1704579    0.1535084   7.23 0.0004010573    1.351    0.260
        57 -10.0869    228.1290    232.1507   1.0109778565e+02  -7.7130733003e+00     0.156818    0.1451678 -10.93  0.000484995    1.296    0.229
