#   1 NUMBER                 Running object number                                     
#   2 MAG_AUTO               Kron-like elliptical aperture magnitude                    [mag]
#   3 X_IMAGE                Object position along x                                    [pixel]
#   4 Y_IMAGE                Object position along y                                    [pixel]
#   5 X_WORLD                Barycenter position along world x axis                     [deg]
#   6 Y_WORLD                Barycenter position along world y axis                     [deg]
#   7 A_WORLD                Profile RMS along major axis (world units)                 [deg]
#   8 B_WORLD                Profile RMS along minor axis (world units)                 [deg]
#   9 THETA_WORLD            Position angle (CCW/world-x)                               [deg]
#  10 FWHM_WORLD             FWHM assuming a gaussian core                              [deg]
#  11 ELONGATION             A_IMAGE/B_IMAGE                                           
#  12 ELLIPTICITY            1 - B_IMAGE/A_IMAGE                                       
         1 -13.0878     68.6941    144.0069   9.9880499783e+01   3.7620576514e+01     2.506387     1.319696  87.19  0.005996529    4.197    0.762
         2 -12.2817    197.3611     42.7256   4.2308688409e+01   3.0648171950e+01    0.9598926     0.830089 -68.41  0.003351329    1.058    0.055
         3 -12.4565    206.1573     34.0505   3.9131316737e+01   2.9730615099e+01    0.7373147    0.6895501 -19.37  0.001295121    1.324    0.245
         4 -11.6880     27.4915     33.6512   8.5624502588e+01   6.7148211942e+01    0.5219143    0.2859196 -50.62  0.002767911    2.069    0.517
         5 -11.9006    232.0575     10.0793   3.1437065190e+01   2.6824406095e+01    0.7482249     0.562736  52.93  0.004902519    1.699    0.411
         6 -11.3237    228.4402      4.6998   3.0586005390e+01   2.8150678964e+01    0.6472825    0.3874713  52.84  0.003761889    2.100    0.524
         7  -9.7095     37.8284      7.1741   6.8333915567e+01   6.9577077478e+01     0.175249    0.1151137  11.16  0.001085466    1.357    0.263
         8  -9.7647     28.8074      7.4189   7.2790035975e+01   7.0813815681e+01    0.1676926   0.09065086  22.58 0.0006088435    1.720    0.419
         9  -9.7569     32.7240      4.4804   6.9316285078e+01   7.0618827602e+01    0.2999191   0.09169623 -26.33  0.001231366    3.610    0.723
        10 -10.5490    119.9969    213.9613   9.8169302082e+01   1.3199615075e+01    0.4475406    0.2333302 -59.25  0.002030441    2.188    0.543
        11 -10.3163    115.3182    248.9711   1.0376021036e+02   7.2445649290e+00    0.3124157    0.2327335  86.95  0.001880822    1.719    0.418
        12  -9.7099    106.8641    249.9287   1.0558810524e+02   8.3160290233e+00    0.2895913    0.1476602  41.02  0.001513847    1.606    0.377
        13  -9.5325     72.1833    250.1897   1.1254928012e+02   1.3106060378e+01    0.2328158    0.1365661  46.73 0.0004977842    1.384    0.278
        14 -10.0246     73.0767    245.3364   1.1193877691e+02   1.3902682233e+01    0.4470267    0.2869345  56.76  0.001514149    1.355    0.262
        15  -9.8820     78.9324    238.6238   1.1011269912e+02   1.4404946919e+01    0.3611526    0.2419947 -43.63  0.001792978    2.039    0.510
        16 -17.0821      8.7209    245.8078   1.2413577676e+02   2.1290503817e+01     12.58427     4.167612 -78.71     0.016434    2.773    0.639
        17  -9.0959     32.1047    203.7785   1.1685359573e+02   2.7610710755e+01    0.3013613    0.1614639 -80.75  0.001067951    1.725    0.420
        18  -9.7121    111.1099    203.7794   9.8701128478e+01   1.6785966275e+01    0.2170454    0.1757104  66.24 0.0006776954    1.300    0.231
        19 -10.3881    121.8974    198.0155   9.5265297474e+01   1.6239882093e+01    0.4428154    0.3054409 -82.85  0.001506178    2.022    0.505
        20  -9.7648     60.8395    198.3682   1.0981012817e+02   2.5430755347e+01    0.2478835    0.2219146  55.44 0.0004564241    1.117    0.105
        21  -9.9082    194.1453    197.4404   7.9104939383e+01   3.7871169371e+00    0.3816096    0.1999341 -46.11  0.001724331    2.079    0.519
        22  -8.0553    115.3116    193.3443   9.6072097127e+01   1.8375578943e+01    0.1444313    0.1122526 -15.20 0.0004469634    1.705    0.413
        23 -12.0762     57.2555    184.9825   1.0909397719e+02   2.9024454464e+01    0.8434535    0.6912488  54.18  0.004286714    1.172    0.147
        24  -9.7186     65.9030    179.4240   1.0622114377e+02   2.9225062994e+01     0.316949    0.2221466  75.76 0.0009307154    1.531    0.347
        25  -9.1129    146.8067    187.1006   8.7495631921e+01   1.4191137891e+01    0.2902966    0.1814446 -72.42  0.001153115    2.670    0.625
        26  -7.7355     72.4391    188.4668   1.0580810349e+02   2.6169104384e+01    0.1367587    0.1241547  79.19 5.037122e-06    1.008    0.008
        27  -8.5529     23.5613    185.9421   1.1724863433e+02   3.2569741049e+01    0.1902755     0.175573 -13.41 0.0007258035    1.475    0.322
        28  -8.3039     69.9218    183.7617   1.0579939260e+02   2.7635094147e+01    0.1917974    0.1648245  58.30 0.0004000069    1.109    0.098
        29  -8.9299     99.1550    180.8041   9.7996549202e+01   2.3925581302e+01    0.2448408    0.2302443  68.88 0.0006639895    1.018    0.018
        30  -9.0231     46.5106    177.4740   1.1085700470e+02   3.2136390484e+01    0.2652009    0.1198384 -69.19 0.0007691197    2.029    0.507
        31  -9.5399    186.8595    175.2197   7.6209196255e+01   9.2047814667e+00      0.32101    0.3018546 -39.66  0.001303996    1.166    0.143
        32  -9.9653    114.3744    173.6679   9.2896063469e+01   2.3020980929e+01    0.2625429    0.2104177 -67.75  0.001328459    1.328    0.247
        33 -10.7050    102.6389    172.0170   9.5605772488e+01   2.5428685941e+01    0.5251738     0.298509  42.80  0.002296136    1.725    0.420
        34 -10.7554     75.4253    166.7855   1.0188281762e+02   3.0976246075e+01    0.4261236    0.3449446 -76.34  0.001370432    1.201    0.167
        35  -8.8828     39.4665    177.3354   1.1259344041e+02   3.2967332930e+01    0.2445002    0.1918919  75.15   0.00102624    1.174    0.148
        36 -10.8790     71.5530    171.2894   1.0360317292e+02   3.0423768641e+01     0.551922    0.3282531 -40.55  0.002072399    2.082    0.520
        37  -9.6723     32.6122    165.1647   1.1296201983e+02   3.6648378639e+01    0.2975639    0.1594857 -59.88 0.0008614305    1.687    0.407
        38 -11.0807     83.3856    159.7931   9.8563307428e+01   3.1511961504e+01    0.6472574    0.5673689 -81.43  0.003548044    1.125    0.111
        39 -11.9891     72.2583    153.2339   1.0049929741e+02   3.4800089073e+01    0.5051568    0.4927111  50.07  0.001042502    1.101    0.092
        40  -9.6765    141.2535    249.2532   9.8505883050e+01   3.3037028613e+00     0.302833    0.1753694  30.70  0.001627812    1.534    0.348
        41  -9.9580    133.7926    143.6619   8.1684029374e+01   2.6366908045e+01     0.714742    0.2551449 -54.80    0.0021077    3.491    0.714
        42 -10.7854     54.7044    147.5666   1.0453447869e+02   3.8565294122e+01    0.7053131    0.4619761 -45.09    0.0034962    1.596    0.373
        43  -7.7607    175.2815    149.3071   7.3079648414e+01   1.6651829805e+01    0.1517695    0.1171451  -5.30 0.0002577788    1.560    0.359
        44  -7.5954    110.3361    148.7083   8.9027866254e+01   2.9683896768e+01      0.15684    0.1197667  73.62 0.0007024192    1.640    0.390
        45  -9.4115     40.4889    146.9646   1.0850025563e+02   4.0349273962e+01    0.3236702    0.2319495 -48.32  0.001414601    1.411    0.291
        46  -9.6705    103.5417    138.2260   8.8637017675e+01   3.3454534102e+01    0.5197561    0.3358747 -17.72  0.001997286    2.519    0.603
        47 -10.6516     91.3244    137.4934   9.1983496595e+01   3.5761736538e+01    0.3100606    0.2647096 -33.08   0.00159524    1.241    0.194
        48 -11.2300     43.8083    130.0809   1.0487300731e+02   4.4232969744e+01    0.5601606    0.3236129 -83.43  0.002498337    2.059    0.514
        49  -9.3517    105.9590    130.9262   8.6281630224e+01   3.4775454643e+01    0.3779955    0.3294103 -69.59  0.001223544    1.213    0.176
        50  -9.4220    135.5081    127.9818   7.7491388431e+01   2.9593492807e+01    0.3707392    0.1520508 -52.16  0.001208832    2.705    0.630
        51  -9.3209     99.6308    124.8486   8.6676254208e+01   3.7395004499e+01    0.2958039    0.2513579  -0.53  0.001019774    1.361    0.265
        52  -7.6451     93.3262    125.7081   8.8751517723e+01   3.8305828568e+01    0.1530542    0.1198692  75.82 0.0003313129    1.619    0.382
        53 -10.0215    118.4361    123.7950   8.1028514017e+01   3.4053841026e+01    0.3487279    0.2673689  16.06  0.001590143    1.578    0.366
        54  -9.8942    113.1489    128.6198   8.3693700304e+01   3.3963379480e+01    0.4339513    0.2831281  17.18  0.001243629    2.149    0.535
        55  -8.3085    108.6121    118.1108   8.2379077883e+01   3.7308262003e+01    0.2148362    0.1918406 -43.19 0.0004530794    1.089    0.081
        56  -8.7692    231.4091    113.5301   5.4332833783e+01   1.2101956205e+01    0.2443253     0.213493 -37.83  0.001006601    1.019    0.019
        57 -11.6239     43.0049    109.9371   1.0136320332e+02   4.9319886565e+01    0.5740452    0.4224654 -43.62   0.00290174    1.261    0.207
        58 -10.2096    119.1895    103.7981   7.5528846789e+01   3.8407720509e+01    0.4870574     0.247416 -27.51  0.001591882    3.078    0.675
        59 -10.0105    114.6554    111.2422   7.8844425680e+01   3.7689775654e+01    0.3429642    0.2233938 -42.18  0.001492806    1.513    0.339
        60 -10.2836     52.2559    109.2546   9.8089312036e+01   4.8427814684e+01    0.3238129    0.2283151 -60.73   0.00166797    1.312    0.238
        61  -8.4968    206.0095    110.2847   5.7727049793e+01   1.7841106541e+01    0.2835111    0.2132063 -75.20  0.001378747    1.709    0.415
        62  -9.6954    129.4124     96.4447   7.0658093594e+01   3.7765532204e+01    0.3935422    0.2590919  73.64  0.001392165    2.425    0.588
        63  -9.4587     52.9404     93.7109   9.4175443397e+01   5.2045284400e+01     0.188184    0.1813138   6.42 0.0007062894    1.135    0.119
        64  -9.1359    156.4247     88.4646   6.1811007512e+01   3.3145004588e+01    0.3330249    0.2251699 -77.35  0.001111937    2.291    0.563
        65  -8.5079     89.1151    210.8485   1.0477321943e+02   1.8679677200e+01    0.2059005    0.1604582  67.38 0.0006467067    1.267    0.211
        66 -10.5591     90.6429    151.5756   9.5044265684e+01   3.2393360037e+01    0.6978032    0.4564837 -24.71  0.001825314    2.235    0.552
        67  -8.0950     75.4981     85.4868   8.3888424730e+01   5.0643508946e+01    0.1457831    0.1343343 -23.22 -9.290824e-05    1.005    0.005
        68 -11.7226    185.6447     52.0205   4.6328088102e+01   3.2140140489e+01    0.6097657    0.5321587   7.91  0.001149121    1.455    0.313
        69 -10.6329    120.3229    246.1741   1.0240211409e+02   6.9933234494e+00    0.2957817     0.169287  48.07  0.001262557    1.591    0.371
        70  -8.5409    127.6649    242.3072   1.0039929458e+02   6.5673992246e+00    0.1305989   0.08888571  59.51 0.0006718035    1.672    0.402
        71  -8.9104     73.4396     54.6862   7.4428153357e+01   5.7042365900e+01    0.2615616    0.1291046 -43.65 0.0006433558    2.097    0.523
        72  -8.9293    107.6048    204.7635   9.9665607377e+01   1.7139423287e+01    0.1875147    0.1329083 -74.07 0.0007121055    1.626    0.385
        73 -16.0262      2.5218    218.5400   1.2391450711e+02   2.7316864592e+01     16.59218          nan -73.87   0.01734188   12.610    0.921
        74 -10.6398     94.1823    236.7466   1.0674269834e+02   1.2615382336e+01     0.530976     0.272058 -73.50  0.002530969    2.527    0.604
        75  -8.1734    168.2639    233.1962   9.0654986471e+01   1.8139416161e+00    0.1686344    0.1431318  47.74  0.000546044    1.329    0.247
        76 -11.4093    143.3159    227.3331   9.5010338745e+01   6.8180755666e+00    0.5042907    0.4061223  12.32    0.0029606    1.311    0.237
        77  -9.6183    139.0410    216.2581   9.4254741752e+01   9.6108465600e+00    0.1987744    0.1688559  37.98  0.001157255    1.070    0.065
