#   1 NUMBER                 Running object number                                     
#   2 MAG_AUTO               Kron-like elliptical aperture magnitude                    [mag]
#   3 X_IMAGE                Object position along x                                    [pixel]
#   4 Y_IMAGE                Object position along y                                    [pixel]
#   5 X_WORLD                Barycenter position along world x axis                     [deg]
#   6 Y_WORLD                Barycenter position along world y axis                     [deg]
#   7 A_WORLD                Profile RMS along major axis (world units)                 [deg]
#   8 B_WORLD                Profile RMS along minor axis (world units)                 [deg]
#   9 THETA_WORLD            Position angle (CCW/world-x)                               [deg]
#  10 FWHM_WORLD             FWHM assuming a gaussian core                              [deg]
#  11 ELONGATION             A_IMAGE/B_IMAGE                                           
#  12 ELLIPTICITY            1 - B_IMAGE/A_IMAGE                                       
         1 -14.8075    187.1901     42.0993   5.0855417543e+01   3.3063343119e+01     1.358055     1.028606  27.70  0.004114981    1.663    0.399
         2 -14.4326    213.0114     10.7712   3.9307674410e+01   3.0450764039e+01    0.9934111    0.7185802 -45.76  0.004244992    1.312    0.238
         3 -13.6613    207.7908     12.2765   4.0188451217e+01   3.1549776789e+01    0.7725299    0.3145605 -36.65  0.002984212    2.259    0.557
         4 -12.8072    242.9773      3.0663   3.5102533219e+01   2.4378497197e+01    0.7883585    0.2464996  80.06   0.00311777    3.395    0.705
         5 -10.7905     44.1739    221.0119   1.2159217353e+02   2.3341811175e+01    0.1765511    0.1247405 -85.14  0.001191481    1.285    0.222
         6 -14.2106    247.2411    241.7274   8.5807777382e+01  -1.0567828998e+01     1.257571    0.5032213 -29.75  0.006613181    2.578    0.612
         7  99.0000     93.2291    232.9165   1.1331374121e+02   1.4506716339e+01     7.715569     5.555837  44.33   0.04943827    1.240    0.193
         8 -10.9037     61.3354    219.8672   1.1822840164e+02   2.1429654068e+01    0.1360231    0.1216121 -65.63 0.0004662004    1.432    0.302
         9 -10.7130     56.5657    217.9716   1.1898803892e+02   2.2419930610e+01     0.219558   0.08287743  85.42 0.0006549559    6.307    0.841
        10 -12.4487     75.2291    249.1622   1.1811845594e+02   1.4151760091e+01    0.2879259    0.1325879 -61.29  0.001616525    2.490    0.598
        11 -10.0504     48.7278    217.4609   1.2045542600e+02   2.3497946564e+01    0.2178217    0.1131346  31.40 0.0006789309    2.308    0.567
        12  -9.3379     51.7004    215.2703   1.1970354568e+02   2.3572178352e+01    0.1187319   0.09984167  75.04 0.0001922359    1.123    0.110
        13 -10.4611     54.7879    211.1436   1.1874393206e+02   2.4024469774e+01    0.3361919    0.1220565  52.53   0.00153181    2.467    0.595
        14 -10.7564     44.1589    211.3977   1.2085317059e+02   2.5272050725e+01    0.2242316    0.1171281 -85.79  0.001239423    1.820    0.451
        15 -11.1576     39.4463    212.6133   1.2185805141e+02   2.5575578579e+01    0.1155456   0.09009217  72.49 0.0007968554    1.036    0.034
        16 -11.0068     66.9494    205.7520   1.1577361699e+02   2.3552904564e+01    0.1786877    0.1672444 -40.34  0.001082054    1.499    0.333
        17 -10.2149     72.0533    202.4284   1.1436351381e+02   2.3551296822e+01    0.2530173    0.1301413  78.26  0.001128211    2.544    0.607
        18 -10.1371     59.0419    201.9646   1.1702942377e+02   2.5392012674e+01    0.1678548     0.144223  79.23 0.0003800486    1.102    0.093
        19 -11.5527    192.0115    193.0179   8.7411519086e+01   4.9655176949e+00    0.7827656    0.3984407 -62.16  0.002261135    6.438    0.845
        20  -9.7402    223.2697    198.6357   8.2477782060e+01  -1.3859519175e+00    0.1155294    0.1050209 -65.83 0.0006506583    1.656    0.396
        21 -10.7382     82.0887    195.0499   1.1136490070e+02   2.3689337393e+01    0.1941068    0.1693453  78.34 0.0004905158    1.043    0.041
        22 -12.3256    151.7569    192.5405   9.5702293192e+01   1.2466170679e+01    0.4034669    0.2084873 -57.09  0.001724719    2.393    0.582
        23 -12.9693    149.3864    187.2698   9.5293463364e+01   1.3933512099e+01    0.3992038    0.3441559 -66.87  0.001435199    1.303    0.232
        24 -11.8979     63.2014    193.4165   1.1527352632e+02   2.6682714736e+01    0.3166855    0.2192268 -39.80  0.001407361    2.164    0.538
        25 -12.8267     99.3130    180.8350   1.0555235590e+02   2.4135281213e+01      0.39475    0.3449457 -60.68 0.0005888241    1.215    0.177
        26 -12.4428     95.7285    189.2794   1.0759135020e+02   2.2856910834e+01    0.4554756    0.3527726  55.98  0.001659704    1.178    0.151
        27 -11.3337     52.3761    249.9056   1.2215807265e+02   1.6972769841e+01    0.1688028   0.09207737 -82.03 0.0008833804    1.837    0.456
        28 -10.9275     29.0725    184.7122   1.2172923354e+02   3.2627882713e+01      0.14982    0.1263527  63.64 0.0003714896    1.198    0.166
        29  99.0000     42.2556    173.4437   1.1778462425e+02   3.3731155115e+01     9.364823    0.3568176 -58.02   0.02305105    8.145    0.877
        30 -12.8062    143.7139    178.0579   9.4888819622e+01   1.6860117926e+01    0.4527555    0.2570813 -46.53  0.001344557    1.870    0.465
        31 -11.4761    149.4164    177.1989   9.3448648745e+01   1.5952248972e+01    0.2573177    0.2191725  61.01  0.000301024    1.223    0.182
        32 -11.4097    187.3438    175.9736   8.5038814744e+01   8.8476188665e+00    0.3373861    0.2655951 -38.66  0.001089014    1.315    0.240
        33  -9.5127     66.2795    176.2581   1.1258712199e+02   3.0104424351e+01    0.1150015    0.1008498 -40.71            0    1.471    0.320
        34 -12.4049    139.4871    171.6222   9.4651326136e+01   1.9011421945e+01    0.4103915    0.2542586  45.20  0.001892304    1.544    0.352
        35 -10.3497     58.3033    228.4346   1.1952586819e+02   2.0155071838e+01    0.1124518   0.08740104  76.17 7.462844e-05    1.079    0.073
        36 -10.5145    185.5078    169.9163   8.4179426214e+01   1.0326261414e+01    0.2129581    0.1414786 -40.37 0.0005580626    1.541    0.351
        37 -11.4031    240.4921    169.4815   7.3603050381e+01   1.3463694859e-01    0.1350522    0.1152127  -6.94 -4.890433e-05    1.001    0.001
        38 -11.6404      5.6657    161.7990   1.2496056947e+02   3.9878402926e+01    0.3020124    0.1839056  29.36  0.001454033    2.008    0.502
        39 -11.7660     92.6949    156.5659   1.0322962868e+02   3.0783252278e+01    0.2523368    0.2369231 -61.79 0.0003376353    1.129    0.114
        40 -12.6667     98.0927    150.4864   1.0075852164e+02   3.1329112086e+01    0.5621682    0.4566655 -22.24  0.002884695    1.623    0.384
        41 -11.8857    133.7523    145.1767   9.0640841782e+01   2.5943967623e+01     1.153213    0.2670642 -54.16  0.002525654    6.639    0.849
        42 -10.9677    187.0985    151.5078   7.9870345258e+01   1.3512660251e+01    0.2263709    0.1452995  43.47 0.0009330795    1.557    0.358
        43 -10.4872    175.1251    149.1761   8.1900940493e+01   1.6483247211e+01    0.2061643    0.1851957  86.82  0.000666916    1.322    0.244
        44 -10.9246    107.2352    145.8382   9.7498007933e+01   3.0838863202e+01     0.226773    0.1935132  84.97  0.001186566    1.228    0.186
        45 -11.7803    108.8135    136.9862   9.5245773814e+01   3.2643286490e+01    0.4571727    0.2745147 -35.84  0.001889123    2.073    0.518
        46 -12.5104     97.4079    136.3675   9.8166755058e+01   3.4814922830e+01     0.298683    0.2758999 -52.80  0.001042402    1.096    0.088
        47 -12.0110    105.9269    130.9399   9.4698105599e+01   3.4602764320e+01     0.444243    0.3255522 -54.91  0.001827162    1.313    0.238
        48 -18.0546     21.3440     97.1955   1.1325218016e+02   5.3825622797e+01     13.89962     1.897105 -67.14   0.03603628    6.328    0.842
        49 -11.0221    115.6025    128.4081   9.1518252162e+01   3.3382820915e+01    0.2878392    0.2614386 -16.48  0.000753814    1.245    0.197
        50 -11.7853     50.3826    224.8883   1.2072488155e+02   2.1832240613e+01    0.1901605    0.1106451  89.66  0.001141198    1.623    0.384
        51 -11.4243    103.5438    123.9005   9.3754581899e+01   3.6706262389e+01    0.2890855    0.2492184 -20.28 0.0006663153    1.355    0.262
        52 -10.6712    120.4697    123.0323   8.8937398638e+01   3.3674819449e+01    0.2200024    0.1305996 -27.96 0.0008087566    2.451    0.592
        53 -10.6039    135.0000    119.9911   8.4378550013e+01   3.1360120508e+01    0.2632541   0.08815951 -45.97 0.0008010345    2.933    0.659
        54 -10.3405    110.8273    117.8718   9.0291783356e+01   3.6761496579e+01    0.2182906    0.2037621 -24.65 0.0003269581    1.139    0.122
        55 -10.7219    231.1448    113.9156   6.2751399501e+01   1.1103667819e+01    0.2250544    0.2146214  43.73 0.0007357291    1.158    0.136
        56 -10.7126    167.4483    112.1906   7.4537428095e+01   2.5752689708e+01    0.3256843    0.2426588 -84.13  0.001082139    1.910    0.477
        57 -12.3103    119.2502    110.8230   8.6175601526e+01   3.6714665214e+01    0.5674344    0.3288439  60.38  0.002166987    2.337    0.572
        58 -10.6423    205.5316    110.2063   6.6268155269e+01   1.7339664195e+01    0.2666284    0.2158175  50.87 0.0006391743    1.307    0.235
        59 -11.0061    135.0000    106.9802   8.0952670392e+01   3.4230598042e+01    0.2683374   0.08842482 -44.08 0.0008064659    2.970    0.663
        60  -9.7644    153.4943     82.4973   6.9358244932e+01   3.4950281935e+01    0.1551505    0.1529294  -7.78  0.000810565    1.022    0.021
        61 -13.8249    171.8716     56.5712   5.7688928890e+01   3.4845801859e+01    0.7987377    0.5868347  -3.56  0.001059984    1.785    0.440
        62 -10.5773     55.4704    222.9388   1.1961280416e+02   2.1577820302e+01    0.1382048   0.09778608  86.42 0.0003699365    1.253    0.202
        63 -13.5188    192.1383     35.8713   4.8372249115e+01   3.2643195110e+01    0.5881529    0.5351938  71.22  0.001739905    1.086    0.080
        64 -11.0987     62.0893    244.8201   1.2011006597e+02   1.6645527636e+01    0.1823525    0.1250081 -80.42 0.0009286525    1.479    0.324
        65 -10.6304     71.4642    242.6660   1.1826490969e+02   1.5798106476e+01    0.1291211    0.1008487 -89.82 0.0002632769    1.267    0.211
        66 -10.3307    189.7412     14.9850   4.2848479730e+01   3.5720614965e+01     0.167316    0.1169086 -29.45 0.0006226369    1.531    0.347
