#   1 NUMBER                 Running object number                                     
#   2 MAG_AUTO               Kron-like elliptical aperture magnitude                    [mag]
#   3 X_IMAGE                Object position along x                                    [pixel]
#   4 Y_IMAGE                Object position along y                                    [pixel]
#   5 X_WORLD                Barycenter position along world x axis                     [deg]
#   6 Y_WORLD                Barycenter position along world y axis                     [deg]
#   7 A_WORLD                Profile RMS along major axis (world units)                 [deg]
#   8 B_WORLD                Profile RMS along minor axis (world units)                 [deg]
#   9 THETA_WORLD            Position angle (CCW/world-x)                               [deg]
#  10 FWHM_WORLD             FWHM assuming a gaussian core                              [deg]
#  11 ELONGATION             A_IMAGE/B_IMAGE                                           
#  12 ELLIPTICITY            1 - B_IMAGE/A_IMAGE                                       
         1 -13.2401    187.2790     22.4191   7.1218477960e+01   3.5239207559e+01     1.735956     1.130664   3.11  0.007466019    2.012    0.503
         2 -13.0349    193.3269     16.9324   6.8800964917e+01   3.4295241912e+01     1.264747    0.8381231 -50.48  0.004652028    1.594    0.373
         3 -13.4147    200.0558      9.3355   6.5836335526e+01   3.3371168435e+01     1.550368    0.8443901  51.05  0.001448548    1.824    0.452
         4 -12.1271     33.0000      6.4496   1.0567802809e+02   6.9291575071e+01     1.953542    0.1606065 -38.94  0.004527932   10.365    0.904
         5  -9.1993    221.3783    245.2971   1.1665590413e+02  -4.7799943916e+00     0.121223   0.06919158  18.77 0.0007023742    1.755    0.430
         6 -10.0612    143.7046    249.1607   1.3040139228e+02   6.6591951520e+00    0.2368858    0.1680022  72.83  0.001129388    1.787    0.440
         7  -9.9591    141.4900    244.9637   1.3030725768e+02   7.5785070964e+00    0.2655281    0.1388806 -45.38   0.00154631    2.510    0.602
         8 -10.4886    134.3371    249.4100   1.3202855493e+02   8.0328356292e+00    0.3656513    0.1580964  48.38  0.001991797    1.866    0.464
         9 -10.2583    126.3438    248.6527   1.3330986385e+02   9.3259109170e+00    0.3362365    0.1647078  60.37  0.001772052    2.414    0.586
        10 -10.2768    121.3311    244.6658   1.3375385967e+02   1.0644802827e+01    0.2785948     0.134767  55.61  0.001304197    1.973    0.493
        11 -11.8454    126.3129    240.7865   1.3247985092e+02   1.0480820364e+01    0.4193811    0.3538646  77.86  0.001857267    1.274    0.215
        12 -11.5645    109.2930    248.1249   1.3614518345e+02   1.1871470514e+01    0.6185775    0.2432965  46.23  0.003355531    1.949    0.487
        13  -9.4643     97.3097    250.3270   1.3834537360e+02   1.3212057442e+01    0.1965247    0.1014724  51.17 0.0009469612    1.501    0.334
        14  -9.7967    100.9733    250.0098   1.3771033137e+02   1.2755795653e+01    0.2809999     0.230735 -59.96  0.002199765    1.575    0.365
        15 -10.3671     97.7887    246.2020   1.3790178478e+02   1.3772115576e+01    0.2820359    0.1393812  61.44  0.001611729    2.049    0.512
        16 -10.8972     87.5261    249.3744   1.3987614655e+02   1.4675675627e+01    0.4032596    0.3103182  75.48  0.002149882    1.200    0.167
        17 -10.6388     81.7340    246.9010   1.4062636597e+02   1.5820911121e+01    0.4207154    0.2471667 -85.98  0.002280243    1.927    0.481
        18  -9.2172     83.6229    241.8021   1.3989559891e+02   1.6375193317e+01    0.1923912     0.171366  60.20 0.0008291877    1.263    0.208
        19 -11.1365     84.4372    237.6116   1.3940150169e+02   1.6939528990e+01    0.4041438     0.246305  38.07   0.00188884    1.630    0.386
        20 -12.2710     51.1808    228.1673   1.4428197475e+02   2.2689590115e+01    0.4261801    0.3393983 -55.83  0.002448602    1.762    0.432
        21 -15.8538     59.6158    216.2470   1.4190981383e+02   2.3779450484e+01     25.89251       8.3837 -83.02    0.0747408    8.862    0.887
        22 -10.6967     98.5616    222.9910   1.3552573328e+02   1.7410343661e+01    0.2873884    0.2383858  52.94 0.0003369034    1.110    0.099
        23  -9.6505    152.4853    243.7189   1.2825228988e+02   6.0610736753e+00    0.1772099    0.1155028 -58.08  0.001125818    2.056    0.514
        24  -8.2123    220.2554    223.3127   1.1344618203e+02  -2.1136665822e+00    0.1176362   0.07798307  11.10 0.0001885618    1.526    0.345
        25  -9.9347    149.9898    222.3168   1.2597073175e+02   9.5683634330e+00     0.182301    0.1780097 -39.69 0.0001814093    1.239    0.193
        26 -10.6377    142.0189    221.9245   1.2739532926e+02   1.0923600418e+01    0.2446187    0.1805186  54.09 0.0004430932    1.231    0.188
        27 -11.2005    142.3268    218.6795   1.2690849107e+02   1.1386453041e+01    0.5029487    0.3216073 -64.04  0.001018968    2.040    0.510
        28  -9.7341    110.8106    222.5200   1.3323681821e+02   1.5694485950e+01    0.1684277    0.1628098  18.66 0.0008023361    1.345    0.256
        29 -10.0266    104.9113    222.8664   1.3435549852e+02   1.6510175155e+01    0.2247417    0.1904866  -1.61 0.0004375788    1.844    0.458
        30  -9.5971    105.0341    218.9411   1.3390249994e+02   1.7158751004e+01    0.1853245    0.1631952 -80.78 0.0003378051    1.241    0.194
        31 -11.0304     45.8056    219.1864   1.4455196416e+02   2.4878393267e+01    0.3904833     0.202392 -67.42  0.002284537    1.939    0.484
        32  -9.4360    163.7986    221.6455   1.2332584796e+02   7.3957220820e+00    0.1609723    0.1434236  25.62 0.0008514592    1.130    0.115
        33 -10.4065     90.8321    219.1109   1.3653561578e+02   1.9174378054e+01    0.3583819    0.2104045  54.88   0.00118761    1.456    0.313
        34  -9.4469    177.3964    218.4682   1.2035220193e+02   5.5864431124e+00    0.2467968    0.2278859 -80.48  0.001135368    1.431    0.301
        35  -8.3495    134.0067    217.9693   1.2837506685e+02   1.2846120755e+01     0.192323    0.1303296  66.31 0.0006906819    1.674    0.403
        36 -10.5669     41.0650    213.2873   1.4494811391e+02   2.6469417244e+01    0.3961985    0.2396544  34.92  0.002625844    1.892    0.471
        37  -9.5160    183.6582    214.1489   1.1853009362e+02   5.1468568322e+00    0.2829734    0.1771615  56.92 0.0008823875    1.968    0.492
        38 -10.3045    101.2309    212.2514   1.3386283394e+02   1.8885135158e+01    0.4069796    0.2393374  49.35  0.002386807    1.447    0.309
        39  -8.5285     88.6480    213.8245   1.3639484740e+02   2.0412502483e+01    0.1541379   0.09867261 -84.55 0.0004632685    1.715    0.417
        40  -9.1187    152.0612    212.0583   1.2414913292e+02   1.0831367010e+01    0.1982935    0.1871379 -19.67 0.0007395613    1.247    0.198
        41 -11.3010    146.5019    240.4761   1.2890890083e+02   7.4419692724e+00    0.4160549    0.2234704  39.99 4.861861e-05    1.511    0.338
        42  -8.1557     33.2784    211.3169   1.4616294098e+02   2.7667692609e+01   0.09079091    0.0760349 -62.68 0.0004176275    1.573    0.364
        43  -8.1501     80.6702    210.2921   1.3752107397e+02   2.2148502673e+01    0.1218539   0.07297694  66.21 0.0004395346    1.627    0.385
        44  -9.4043    134.5235    208.5391   1.2701709329e+02   1.4329397458e+01     0.261207    0.1752275 -39.94  0.001168035    1.885    0.470
        45 -10.5758    133.2305    202.6093   1.2644003081e+02   1.5561950283e+01    0.2680416    0.2207868 -42.30 0.0002057079    1.445    0.308
        46  -9.1956    134.7934    196.1866   1.2519523213e+02   1.6431536789e+01    0.3012572    0.1990163 -36.43  0.001617583    1.955    0.488
        47  -8.3195    197.6391    208.1601   1.1497852427e+02   3.6034703409e+00    0.1563225    0.1127403 -17.15 0.0003288845    1.573    0.364
        48 -10.2198     92.6854    204.7948   1.3464899721e+02   2.1477666493e+01    0.6038971    0.2841202  53.42  0.002976259    1.989    0.497
        49  -9.3049     89.3006    204.6832   1.3528890423e+02   2.1981763846e+01    0.1907087    0.1395742  66.47 0.0008751408    1.229    0.186
        50 -10.0458    174.2763    205.7937   1.1896006534e+02   8.0035843751e+00    0.3517576    0.2337189  30.59  0.001004519    1.416    0.294
        51  -8.2283    183.3232    206.3046   1.1733210179e+02   6.3499172374e+00    0.1293935   0.09063386  14.48 0.0003300052    1.639    0.390
        52 -10.2349    165.9417    204.4991   1.2034786021e+02   9.6580365348e+00    0.3458996    0.2852609 -22.93  0.002005633    1.423    0.297
        53  -8.8183    148.4274    205.7354   1.2392278481e+02   1.2474803129e+01    0.1542243     0.121671 -32.34 0.0004343836    1.554    0.357
        54  -8.2818    114.4267    206.5174   1.3064455257e+02   1.7902325026e+01    0.1212148    0.1051676  57.67 9.030501e-05    1.027    0.027
        55 -10.3945     41.1377    204.3344   1.4427152650e+02   2.8113985344e+01     0.320232    0.1375063 -80.14  0.001744476    2.282    0.562
        56  -9.9298     89.9974    236.1660   1.3832187102e+02   1.6422953314e+01    0.2514908    0.1719685  70.18  0.001739523    1.348    0.258
        57  -9.8042    247.9978    204.9929   1.0556212408e+02  -4.3308736634e+00    0.1520879    0.1185288  12.41 0.0005250987    1.002    0.002
        58  -9.1720    125.8925    205.3672   1.2826103283e+02   1.6283252884e+01    0.2031184    0.1337481  55.38 0.0006737616    1.421    0.296
        59 -10.0790    108.5991    203.0824   1.3134745670e+02   1.9422448409e+01    0.2782516    0.2131562 -39.71 0.0005878592    1.729    0.422
        60 -12.1488     19.0824    249.7558   1.5055076810e+02   2.2596742078e+01    0.1983101    0.1473387  84.97  0.000624019    1.253    0.202
        61  -8.6200    156.6653    204.2856   1.2210606765e+02   1.1301559374e+01    0.1265673   0.09292929  65.37 0.0002800764    1.624    0.384
        62  -9.2626    103.2430    203.3757   1.3243183412e+02   2.0183831808e+01    0.2124601    0.1810919   5.89  0.000941646    1.697    0.411
        63  -8.6920    224.7324    202.2533   1.0906485174e+02  -2.1299241507e-01    0.1692949    0.1209749  15.42 0.0003700359    1.280    0.219
        64 -10.2435    197.2960    200.6490   1.1376017653e+02   4.7339104615e+00    0.3311664     0.241727  53.99  0.001895973    1.585    0.369
        65  -9.3436     70.2701    201.9008   1.3864439593e+02   2.5086892807e+01     0.309979    0.1232471  50.81  0.001384747    2.254    0.556
        66  -8.6196    122.7680    200.9538   1.2827489966e+02   1.7570337656e+01    0.1485028    0.1042538 -56.84 0.0005445852    1.589    0.371
        67  -8.5459    169.7499    200.3891   1.1895246548e+02   9.6433650375e+00    0.1776028    0.1086207  34.59 0.0002538609    1.505    0.335
        68  -8.1246    158.6844    199.3007   1.2093257212e+02   1.1769117712e+01     0.126665   0.09643313  68.55  0.000268206    1.614    0.381
        69  -9.5741    141.6159    198.2712   1.2414495906e+02   1.4904104941e+01    0.2825009    0.2099074  12.77 0.0009473492    1.826    0.452
        70  -8.2315     86.2998    199.2528   1.3526294477e+02   2.3421793844e+01    0.1012061    0.0942171   6.97 0.0002231086    1.498    0.333
        71 -15.8861      9.0585    245.5139   1.5182543726e+02   2.4243566800e+01     4.719661     1.224231 -78.21   0.02563198    3.494    0.714
        72 -11.2533     96.2406    239.0867   1.3751670521e+02   1.5095232827e+01     0.384259    0.2812332  83.99  0.001713591    1.405    0.288
        73  -9.4061    100.7493    198.0513   1.3226709064e+02   2.1545282153e+01    0.1942191    0.1553932  50.24 0.0002742836    1.134    0.118
        74  -8.7025     92.4962    232.4866   1.3754831273e+02   1.6679441114e+01    0.1601172     0.105193 -70.42  0.001064983    1.687    0.407
        75  -8.6971     95.5325    196.9564   1.3316981093e+02   2.2527500044e+01    0.1690763    0.1153614 -65.63 0.0003766622    1.531    0.347
        76 -11.0176     78.1148    187.7113   1.3557224333e+02   2.6792500209e+01    0.2735696    0.2064343 -53.22 0.0007028678    1.539    0.350
        77 -11.1500     73.5175    194.5215   1.3725315833e+02   2.6075045691e+01    0.3668915    0.2331607 -51.80  0.001998787    1.887    0.470
        78  -8.1899     70.7185    190.2611   1.3734902630e+02   2.7275840140e+01    0.1456729   0.09131218 -70.99 0.0001652397    1.547    0.353
        79  -8.5766    114.2523    196.1955   1.2932521989e+02   1.9803411286e+01    0.2053693   0.07800028  48.09 0.0007105743    2.425    0.588
        80 -10.3674    172.8513    193.4221   1.1718269460e+02   1.0210227811e+01    0.3594833    0.2241049 -31.56  0.001663967    1.915    0.478
        81  -8.2192     82.4177    194.4356   1.3548188650e+02   2.4885261922e+01    0.1207186   0.09940851  71.47 -9.500715e-06    1.041    0.039
        82  -8.9342    249.5226    192.9897   1.0308937799e+02  -3.1305485542e+00    0.1764438   0.09356084  -4.73 0.0008094072    2.486    0.598
        83  -9.8671    191.5246    191.1857   1.1317410555e+02   7.1784765079e+00    0.2507763    0.2208996   9.43 0.0006508651    1.095    0.087
        84  -8.6047    113.2356    192.0207   1.2895829124e+02   2.0745128593e+01    0.1494464    0.1045697 -60.04 0.0003741696    1.537    0.350
        85  -9.4645    135.5238    190.2106   1.2413933456e+02   1.7382651750e+01    0.2168058    0.1872245  30.43 0.0003044024    1.203    0.169
        86  -9.8578     20.4912    191.0941   1.4706212846e+02   3.2749293975e+01    0.1578845   0.08573453 -81.65  0.001015399    1.543    0.352
        87  -8.2693    197.7020    189.7274   1.1173372946e+02   6.2791278720e+00    0.1313905   0.09301247  14.38 0.0002194628    1.527    0.345
        88 -10.1767    108.0467    241.3065   1.3569980581e+02   1.3082210174e+01    0.2709566    0.1352448 -71.26  0.001293262    2.705    0.630
        89  -9.4899    249.9830    188.0267   1.0206673728e+02  -2.5897776332e+00    0.2124785     0.130429   7.34  0.001136865    1.734    0.423
        90  -9.5560    173.3455    239.9498   1.2412972339e+02   3.2962202316e+00    0.2447752    0.1933092 -71.42  0.001097227    1.921    0.479
        91  -8.6574    191.9822    197.9895   1.1429345200e+02   6.0650221884e+00    0.1546039    0.1356515  21.00 0.0004191644    1.042    0.040
        92  -9.7996    159.7663    194.1317   1.1988230140e+02   1.2440846874e+01    0.2668223    0.1902964  52.87 0.0009961297    1.386    0.279
        93  -8.5638     67.5231    186.5107   1.3758342347e+02   2.8433193321e+01    0.1171312    0.1016484  80.11 0.0008091686    1.070    0.065
        94 -10.1972    135.0994    241.1460   1.3098524102e+02   9.0995422138e+00    0.1730843    0.1373128  34.26 0.0006697933    1.250    0.200
        95  -8.6284    134.6657    180.3118   1.2273581495e+02   1.9365611181e+01    0.1368938   0.09940624  72.32 0.0007044611    1.681    0.405
        96  -8.9229    128.8592    179.3727   1.2380795833e+02   2.0555084900e+01    0.2026692    0.1736269 -82.48 0.0002843045    1.269    0.212
        97 -10.0526    115.7704    240.1645   1.3424931187e+02   1.2138084543e+01    0.1955486    0.1645203  70.52 0.0006092847    1.168    0.144
        98  -9.9323     37.1555    179.8235   1.4300835627e+02   3.3320472081e+01    0.1776888    0.1374862 -82.68  0.000395039    1.137    0.121
        99 -11.4412     87.6411    175.9913   1.3211343393e+02   2.7812761334e+01    0.4651766    0.2589057  36.78 0.0007275503    1.867    0.464
       100 -10.3243    181.3903    176.1822   1.1236894234e+02   1.1476313600e+01    0.4448631    0.2842752  55.03  0.002068089    1.777    0.437
       101 -10.5593     73.8712    173.7007   1.3476550273e+02   3.0206006886e+01     0.428705    0.2602964 -44.73  0.002280283    2.130    0.531
       102 -11.4323     92.3992    167.3023   1.2984846186e+02   2.8905333060e+01    0.5560821    0.4150753 -37.44  0.001983149    1.729    0.421
       103 -11.6371    134.4475    234.8959   1.3038038708e+02   1.0125183122e+01    0.4356495    0.2792872 -84.74  0.002468223    2.472    0.595
       104 -10.9236    249.3485    171.3409   9.8873586598e+01  -3.2732495828e-01    0.3297136    0.2662624  34.50  0.002048972    1.292    0.226
       105  -8.8076    100.8418    170.1706   1.2841308670e+02   2.7016093949e+01    0.1909031      0.16053  76.89 0.0003055013    1.152    0.132
       106 -10.5503    136.0091    228.2263   1.2929902673e+02   1.0899414892e+01    0.3257138    0.1946197 -47.75  0.001860503    2.066    0.516
       107  -8.8192    118.9997    236.5518   1.3330407115e+02   1.2216111278e+01    0.2082662    0.1391785  86.82 0.0009959132    1.945    0.486
       108  -9.6212    107.6278    168.1499   1.2660197825e+02   2.6348916980e+01     0.227764    0.1814326  39.00 0.0003604846    1.282    0.220
       109  -8.2534     85.0030    168.2190   1.3161701213e+02   2.9801399522e+01    0.1563072    0.1372347 -89.84 0.0002783401    1.044    0.042
       110  -9.3762     84.9549    165.0301   1.3117412812e+02   3.0478216767e+01    0.1981224    0.1521142  71.75 0.0003060046    1.287    0.223
       111 -10.2657    121.8075    232.6757   1.3238171376e+02   1.2397476481e+01    0.2231376    0.1883973  26.58 0.0008174942    1.400    0.286
       112 -10.0853    246.7511    232.9900   1.1055877137e+02  -7.2319466736e+00    0.1358002   0.08778585 -19.99 0.0003952099    1.598    0.374
       113  -9.2608    175.8671    166.1230   1.1152276172e+02   1.4271921358e+01    0.2029961    0.1857536  69.06 0.0002809068    1.269    0.212
       114  -7.7794    124.3407    165.2878   1.2241909204e+02   2.4108238386e+01    0.1323281    0.1083103   1.83 0.0002809642    1.642    0.391
       115 -10.9538     98.6074    231.2873   1.3635884919e+02   1.6020253986e+01    0.3152373    0.2635008  29.33  0.002278845    1.495    0.331
       116 -11.0325    244.9660    162.3224   9.7749304974e+01   1.6682753119e+00    0.3356177    0.1747441 -27.02  0.001615618    1.850    0.459
       117  -9.3750     59.2073    159.4639   1.3618714026e+02   3.5087289240e+01    0.2005403    0.1497539 -73.24 0.0003245317    1.200    0.167
       118  -8.7010    119.8817    159.0466   1.2231569957e+02   2.6157762910e+01    0.1987368     0.171363  80.15 0.0003527285    1.214    0.176
       119 -11.9557     18.9713    171.6258   1.4592919358e+02   3.6750738951e+01    0.7880529    0.2957516  83.53  0.003387179    3.521    0.716
       120 -11.6078    111.4139    229.9789   1.3394576789e+02   1.4379517373e+01    0.4615529    0.3386345  46.12  0.001905349    1.158    0.136
       121  -9.6666    104.6832    229.3499   1.3508356290e+02   1.5466859310e+01    0.1857884    0.1348279  60.75 0.0007363915    1.180    0.153
       122  -9.6319    156.0986    231.9488   1.2613556314e+02   7.1476769608e+00    0.1848612    0.1475245  36.42  0.001261357    1.090    0.083
       123 -12.3863     32.4845    153.8244   1.4148835282e+02   3.9212901966e+01      0.63052    0.3076565 -58.26  0.002045402    1.914    0.477
       124 -11.1242    243.6124    155.2114   9.6471903738e+01   2.9139691320e+00    0.3734836    0.2797555  87.34  0.001752382    2.928    0.658
       125  -8.1942    115.5531    157.4993   1.2302517812e+02   2.7226313632e+01    0.1346997     0.127835  75.64 0.0001236023    1.008    0.008
       126  -8.4098     88.7607    156.9695   1.2910006085e+02   3.1635583543e+01    0.1611682    0.1042111 -61.17            0    1.496    0.331
       127  -9.2291     74.2267    156.7960   1.3242022035e+02   3.3736311129e+01     0.267075    0.1534008  51.54 0.0006059306    1.756    0.431
       128  -8.8197    134.7375    155.6572   1.1832450886e+02   2.4172406175e+01    0.1831615    0.1778646 -13.73 0.0007149864    1.107    0.097
       129  -8.3551    124.9601    154.2201   1.2027188482e+02   2.6252922469e+01    0.1809841    0.1097773  43.33 0.0003161133    1.599    0.375
       130  -9.1435    113.9104    152.3278   1.2247127229e+02   2.8590590154e+01    0.2393821    0.1832472 -69.62 0.0006948796    1.387    0.279
       131 -11.0684    249.4616    149.9450   9.4363564551e+01   2.5913910476e+00    0.4161925    0.2949569 -42.17  0.002273323    1.624    0.384
       132  -8.5610    146.1059    152.1431   1.1507679025e+02   2.2715631526e+01    0.1916595    0.1646241  73.39 0.0003883516    1.313    0.239
       133  -9.6184    103.6207    150.7906   1.2460326956e+02   3.0642246091e+01    0.3421905    0.2533876 -38.68  0.001344526    1.571    0.363
       134  -8.9396    106.4558    146.0220   1.2306654232e+02   3.1196875829e+01    0.2965103    0.2110013 -13.15 0.0008594316    2.347    0.574
       135 -11.0764    129.4689    232.9728   1.3104555206e+02   1.1184299092e+01    0.3432969    0.1980737  46.90  0.002058269    1.399    0.285
       136 -12.3927     67.4964    143.5864   1.3205404416e+02   3.7515973744e+01    0.8463652    0.5315235 -86.33  0.004389028    1.802    0.445
       137 -11.2442     73.5695    139.5163   1.2992689804e+02   3.7615721431e+01     0.646181    0.4460805 -85.89  0.002541104    1.582    0.368
       138 -10.6635    142.4268    228.6747   1.2818767049e+02   9.8159228696e+00    0.3112278    0.2395006 -60.89  0.001468308    1.598    0.374
       139 -10.6423    133.6456    142.6650   1.1596753687e+02   2.7029929578e+01    0.8273302    0.2890306 -51.63  0.002829848    3.114    0.679
       140  -8.4704     86.1279    147.8094   1.2824424221e+02   3.4008686429e+01    0.1651461    0.1501127 -35.55            0    1.295    0.228
       141 -11.7536     23.4859    154.9046   1.4356036200e+02   3.9820651110e+01    0.3567359     0.305274  51.56  0.001034842    1.320    0.242
       142 -12.7413     45.7718    246.2465   1.4634024478e+02   2.0313797894e+01    0.6084489     0.501661  54.38   0.00317176    1.342    0.255
       143 -10.9385    248.2392    141.1100   9.2628345463e+01   4.0784010804e+00    0.5799006    0.2414974  37.75  0.002376482    2.590    0.614
       144 -11.9528    248.4009    134.6558   9.1160069167e+01   4.9832000800e+00    0.8066226    0.3707674 -33.51  0.003560298    1.999    0.500
       145 -12.3832     43.0261    237.2852   1.4622474370e+02   2.2081700994e+01    0.3255085    0.2829899  47.64  0.000268487    1.478    0.323
       146  -9.8156    250.0000    242.9749   1.1161728344e+02  -8.6942169975e+00    0.1554676   0.05815355 -29.34 0.0007410782    2.946    0.661
       147 -10.0948     79.5531    229.1019   1.3949908642e+02   1.8996515409e+01    0.1443399    0.0997242 -78.33 0.0004582685    1.501    0.334
       148  -8.8882    119.2167    138.3403   1.1849529768e+02   3.0621175001e+01    0.2042093    0.1741054  22.89 0.0003419646    1.323    0.244
       149 -10.1389    113.3863    136.2539   1.1948429447e+02   3.2110287487e+01    0.3195145    0.2960807  47.11  0.001426678    1.096    0.087
       150 -10.3989     59.1716    134.5258   1.3270911323e+02   4.0571799193e+01    0.4492957    0.2098134 -73.89  0.001858581    2.371    0.578
       151  -9.0058    136.7704    134.0493   1.1337684389e+02   2.8204825524e+01    0.1936459    0.1895895 -50.93  0.001102516    1.030    0.029
       152 -11.1020     44.6831    130.1934   1.3570175492e+02   4.3172545997e+01    0.3879241    0.1995824 -72.13  0.001429689    1.772    0.436
       153  -9.5905     66.1940    127.1814   1.2971233827e+02   4.1349393374e+01     0.399377    0.1812651 -69.46  0.001543957    2.415    0.586
       154  -9.7118    190.9339    228.0165   1.1933626092e+02   2.0334766406e+00    0.1806467    0.1434276  30.38 0.0003052705    1.013    0.013
       155  -8.8054    118.4904    128.4709   1.1657421178e+02   3.2865062688e+01    0.1411904    0.1389021 -47.73 0.0001907026    1.032    0.031
       156  -8.0119     93.4609    127.4706   1.2270168661e+02   3.7377092002e+01    0.1375857    0.1278533 -76.19 2.670347e-05    1.028    0.027
       157  -9.0723     85.9744    126.7335   1.2448973650e+02   3.8697389104e+01    0.2292662    0.1890984 -20.11  0.001023436    1.527    0.345
       158  -9.4967    209.7139    125.7779   9.5822548459e+01   1.4264494666e+01    0.2675574    0.2334224  -3.94  0.000511547    1.111    0.100
       159 -10.0966    164.7015    226.3790   1.2382695283e+02   6.5559982250e+00    0.1913747    0.1708284 -43.84 0.0007824979    1.375    0.273
       160  -8.1856    124.7010    125.3503   1.1433580794e+02   3.2367982551e+01    0.1488777     0.115438 -89.13 0.0007036569    1.689    0.408
       161  -8.6869    114.7396    122.9732   1.1629134193e+02   3.4735394799e+01    0.2005874       0.1754 -52.22 0.0002830749    1.114    0.102
       162  -9.5340     92.2462    226.3416   1.3700194533e+02   1.7736826622e+01     0.365366    0.1526665  64.36  0.001526105    3.679    0.728
       163  -8.5644    142.6965    119.2911   1.0851666507e+02   3.0040416300e+01    0.1465412    0.1200033  89.96  0.000202344    1.571    0.363
       164  -7.9771    130.6961    119.2901   1.1143280478e+02   3.2479541403e+01    0.1452088    0.1177255  87.41 0.0001699559    1.570    0.363
       165 -11.1383     32.7480    116.1335   1.3674801017e+02   4.7487733468e+01    0.5124603    0.1101996 -64.10   0.00186465    3.444    0.710
       166  -9.9522    249.5080    117.5022   8.7054700376e+01   7.2820240481e+00    0.2423035    0.1878862 -29.66 0.0007293018    1.182    0.154
       167 -11.3935    248.7533    112.7163   8.6051356222e+01   8.1380608382e+00    0.5903512     0.453763   2.30  0.003219753    1.373    0.272
       168 -10.2639    101.4716    241.5185   1.3684806885e+02   1.3982478703e+01    0.3169689    0.1317477 -66.37  0.001663586    3.045    0.672
       169  -9.6059    168.5347    113.5412   1.0113494171e+02   2.5578889734e+01    0.3174767    0.2675264 -79.27  0.001321536    1.511    0.338
       170  -9.4194     82.3022    114.0177   1.2287281275e+02   4.2089984860e+01    0.1925471    0.1633098 -58.70 0.0001588919    1.083    0.076
       171  -8.6876    238.5281    121.9727   8.9851514786e+01   8.8188308598e+00    0.1981164    0.1160872  -5.79 0.0007479192    2.388    0.581
       172  -9.9281     59.1165    110.7132   1.2861500341e+02   4.5944256804e+01    0.4477954    0.2556066  88.34  0.001877759    2.959    0.662
       173  -9.9167     70.1711    110.9693   1.2558148144e+02   4.4483852856e+01     0.194382    0.1678049 -84.42 0.0002514795    1.194    0.163
       174  -8.4636     79.8308    108.8446   1.2243609209e+02   4.3609797595e+01    0.1792618    0.1528779 -86.75 0.0003027252    1.278    0.218
       175  -9.7360    103.8540    237.8676   1.3608730155e+02   1.4217366600e+01    0.1795465    0.1098124  64.62 0.0006172897    1.602    0.376
       176 -10.9595    248.1844     99.7814   8.3065364400e+01   1.0161254702e+01    0.5087801    0.3682593   4.90  0.002607107    1.624    0.384
       177  -9.0476    134.2371    104.9960   1.0694882478e+02   3.4720212533e+01    0.2074923    0.1242397 -42.85 0.0008871816    1.641    0.390
       178  -8.8496     76.2774     98.9908   1.2121022014e+02   4.6314899860e+01    0.1855529    0.1605711 -53.42 0.0003357607    1.044    0.042
       179  -8.5045     63.6241     98.2855   1.2475902590e+02   4.8178874824e+01    0.1323072   0.09932175  75.06 0.0007016218    1.719    0.418
       180 -10.1998    117.6839    224.2795   1.3217608206e+02   1.4366611346e+01    0.2430946    0.1830548  45.20  0.000371809    1.146    0.128
       181  -8.6192    101.8655     87.8568   1.1092392358e+02   4.4580680080e+01    0.1877777    0.1652155 -68.26  0.001020761    1.278    0.217
       182  -8.7014     52.7568     82.6112   1.2447971793e+02   5.2943662389e+01    0.1576435    0.1205864  45.15 0.0002757925    1.559    0.358
       183 -14.2194     26.8935    248.1658   1.4932319920e+02   2.2053523217e+01    0.9006053    0.3918292  38.19  0.005860564    2.272    0.560
       184  -9.1580    204.8421    249.5965   1.2003793211e+02  -2.7633989073e+00     0.154218   0.08641683  44.12 0.0009320537    1.555    0.357
       185 -10.6884    150.1744    247.7251   1.2912701102e+02   5.8701756508e+00    0.4205271    0.1285548  45.72  0.001891596    2.612    0.617
       186 -10.4554    247.9658    246.9930   1.1256364696e+02  -8.7960339177e+00    0.2456282    0.0991543  38.19  0.001355545    1.982    0.495
       187  -9.5636    132.2361    224.4347   1.2952218026e+02   1.2087674016e+01    0.1721883   0.09367053  49.71 0.0006431423    1.578    0.366
