#   1 NUMBER                 Running object number                                     
#   2 MAG_AUTO               Kron-like elliptical aperture magnitude                    [mag]
#   3 X_IMAGE                Object position along x                                    [pixel]
#   4 Y_IMAGE                Object position along y                                    [pixel]
#   5 X_WORLD                Barycenter position along world x axis                     [deg]
#   6 Y_WORLD                Barycenter position along world y axis                     [deg]
#   7 A_WORLD                Profile RMS along major axis (world units)                 [deg]
#   8 B_WORLD                Profile RMS along minor axis (world units)                 [deg]
#   9 THETA_WORLD            Position angle (CCW/world-x)                               [deg]
#  10 FWHM_WORLD             FWHM assuming a gaussian core                              [deg]
#  11 ELONGATION             A_IMAGE/B_IMAGE                                           
#  12 ELLIPTICITY            1 - B_IMAGE/A_IMAGE                                       
         1  -9.0215     45.9934     21.5769   1.0598647808e+02   6.6981536347e+01    0.3900064    0.1752119 -29.43  0.001042478    2.241    0.554
         2 -11.6452     79.6958     23.4390   9.3826072699e+01   6.1356157999e+01    0.8887906    0.3113841  41.66  0.003515101    2.838    0.648
         3  -8.1493    144.9136     23.4496   7.6949549621e+01   4.6631526889e+01    0.2461923    0.1927585   9.79 0.0003178547    1.461    0.316
         4  -8.6792      9.5445     19.8265   1.2265095103e+02   7.0880871937e+01    0.2269268    0.1407559  -6.08  0.001183109    1.747    0.428
         5  -9.2508     27.3811     22.4599   1.1487487392e+02   6.8960096561e+01    0.6171547    0.2455739 -29.09  0.002660859    3.109    0.678
         6  -9.6644     64.1263     14.5565   9.5312674981e+01   6.5283598610e+01    0.4755262    0.2612704  11.66  0.001980832    2.597    0.615
         7  -9.4393    128.0576     15.7657   7.7519048398e+01   5.1712533398e+01    0.4580922     0.288704  12.06  0.001105046    1.994    0.498
         8  -9.4288    134.0153     13.5640   7.5476447740e+01   5.0467829812e+01    0.2717037    0.2194501  30.31   0.00020949    1.242    0.195
         9  -8.3138    137.3970     10.5001   7.3697741756e+01   4.9924653233e+01     0.219964    0.1905884  55.49 0.0004361524    1.049    0.046
        10  -8.9649    120.6244     15.5595   7.9058632396e+01   5.3533028828e+01    0.3827917    0.2156131   5.83  0.001611612    2.480    0.597
        11  -8.7947     96.5488     13.3680   8.4183103651e+01   5.9229160226e+01    0.4017542    0.2174431   1.04  0.001722709    2.548    0.608
        12  -9.5014     79.3569     12.9443   8.9186530608e+01   6.2757657223e+01    0.3847511    0.2443558  50.35  0.001261986    1.627    0.385
        13  -9.1697     74.4929     13.5346   9.1092450998e+01   6.3597096491e+01     0.331375    0.2121385  12.82  0.001201848    1.715    0.417
        14  -9.0108    125.1889     10.3394   7.6026652470e+01   5.2966806714e+01    0.2534325    0.1852202  29.75 0.0004079133    1.379    0.275
        15  -9.4554    130.0467      6.4342   7.3558051206e+01   5.2142812201e+01    0.4319997    0.1813356  38.15  0.001180467    2.648    0.622
        16  -7.8320    142.6239      9.7215   7.2474274406e+01   4.8674682279e+01    0.1532522   0.09130942  39.92 0.0003090316    1.703    0.413
        17  -9.2716     70.9016      9.0152   9.0173244380e+01   6.4784978194e+01    0.4451342    0.1625247  39.87  0.001855952    2.659    0.624
        18  -9.2784     76.3788      5.7602   8.6746621237e+01   6.4125776518e+01    0.3246273      0.26838 -29.68  0.002063356    1.355    0.262
        19  -8.6704     34.1053      9.5929   1.0570481749e+02   7.0261646928e+01     0.322179    0.1622454  17.17  0.001651669    2.488    0.598
        20  -9.3131     32.1698      6.1139   1.0486473378e+02   7.0983979089e+01    0.2280862     0.177923  -7.14 0.0003710981    1.052    0.050
        21  -9.6390     46.7349      6.4043   9.8285277771e+01   6.9032519609e+01    0.2289421    0.1866944  -4.10 0.0002999191    1.040    0.039
        22  -9.1630     40.8303      6.6120   1.0102448948e+02   6.9824787124e+01    0.4027775    0.2292186   4.83  0.002137314    2.182    0.542
        23 -10.2499      8.6321      5.1754   1.1687023758e+02   7.3408140069e+01    0.5243942    0.2460488   1.38 0.0002992245    2.930    0.659
        24  -8.9146    119.2308      6.8844   7.5913701326e+01   5.4732979442e+01      0.24363    0.1858408  41.04 0.0002401096    1.189    0.159
        25  -8.7276    100.6950      6.3631   8.0013402311e+01   5.9049930481e+01    0.2633222    0.1900171 -49.05  0.001383504    1.779    0.438
        26  -7.3933    179.3221      5.3201   6.5653609223e+01   3.9528743802e+01    0.1455336   0.09611477  41.21  0.000704474    1.672    0.402
        27  -9.4558    110.5132      3.0878   7.6262842456e+01   5.7126970403e+01    0.4102639    0.1919084 -31.34   0.00186484    2.253    0.556
        28  -8.1289    105.7579      1.3954   7.6629588888e+01   5.8365143567e+01    0.3102558   0.08198646  52.97  0.001139657    2.864    0.651
        29  -8.2605     91.3099      4.7772   8.1797557853e+01   6.1226693037e+01    0.3004372    0.1406424  30.92 0.0009690068    2.379    0.580
        30  -7.7675     84.3193      3.9480   8.3414235423e+01   6.2749519537e+01    0.1862483    0.1508121   8.74  0.001152923    1.124    0.111
        31  -8.5801    236.3175      2.0455   5.9299507531e+01   2.5435464893e+01    0.2265034    0.1974672  73.83 0.0006918753    1.218    0.179
        32  -8.5972    143.2055      2.1217   6.9657077971e+01   4.9212645223e+01    0.2231954    0.1970292  54.36 0.0003286169    1.028    0.028
        33  -8.0238    156.0000      8.4424   6.9837058963e+01   4.5346877168e+01    0.2928174   0.08131641 -21.91 0.0009389017    3.968    0.748
        34  -8.2702     57.6233      2.7458   9.1891515229e+01   6.7786867982e+01    0.2281901    0.1275077  33.14  0.001262354    1.690    0.408
        35  -7.9958    158.9003      1.8869   6.7223364414e+01   4.5185447686e+01    0.2213454    0.1684918  43.84  0.001133295    1.310    0.237
        36  -7.9336      3.3833      1.4417   1.1810501996e+02   7.4373827648e+01     0.192698   0.09610721  18.57 0.0008678379    2.207    0.547
        37 -10.4037     13.3991     94.1802   1.3893455052e+02   5.5242767349e+01    0.4691463    0.3521541   6.18  0.003001896    1.790    0.441
        38  -9.1447    207.8924    249.6368   1.1809294205e+02  -4.2929656091e+00    0.2309208    0.1185576  48.31  0.001292753    1.914    0.478
        39 -10.1509    196.8294    249.1937   1.1992006559e+02  -2.5177361837e+00    0.4387908    0.1639766  49.58  0.001966638    2.870    0.652
        40  -8.4028     43.3293     92.3828   1.2918277818e+02   5.3116811014e+01    0.2775968     0.179171 -36.89  0.001033907    1.724    0.420
        41  -8.0764     96.3656     90.3168   1.1206093756e+02   4.6035378050e+01    0.3460232    0.2190966  14.27  0.001380629    2.696    0.629
        42  -7.5333    110.1715     90.6225   1.0813468435e+02   4.3342938935e+01    0.2121136    0.1406071  32.24 0.0005260342    1.739    0.425
        43  -8.1868     18.3313     86.3169   1.3612593821e+02   5.6669426835e+01    0.1254553   0.07292136 -43.87 0.0007047048    1.686    0.407
        44  -7.8221    126.0261     83.7663   1.0175887217e+02   4.1432891198e+01    0.2535522    0.1780135  17.09 0.0009288859    2.020    0.505
        45 -10.0968     37.4649     81.0292   1.2870408341e+02   5.6265480484e+01    0.5838728    0.3202015 -16.86  0.002580713    3.231    0.691
        46  -8.7510     87.5272     79.1389   1.1157503067e+02   5.0001049346e+01    0.4152402    0.2638977  12.98    0.0012257    2.542    0.607
        47  -9.7591      7.5588     77.8949   1.3827623449e+02   5.9224392334e+01    0.4373349    0.2129917 -38.26  0.001989947    2.215    0.549
        48  -7.8054    184.3313     77.9878   8.6699445035e+01   2.8337675180e+01    0.2181146     0.193368 -38.73 0.0005047183    1.126    0.112
        49  -8.6214     43.9686     77.9480   1.2576053294e+02   5.6295747186e+01    0.1872265    0.1607099 -60.20 -0.001877172    1.060    0.056
        50  -8.5627     49.9667     76.7564   1.2339061668e+02   5.5898510200e+01    0.3624026    0.1940945  10.32   0.00155838    3.163    0.684
        51  -7.7530    105.8053     76.3955   1.0517177083e+02   4.7177506437e+01    0.2087726    0.1388753  32.85 0.0009491496    1.686    0.407
        52  -8.1870     23.4579     69.4757   1.3107587951e+02   6.0015620265e+01    0.2084638      0.17464 -57.68 0.0005170715    1.046    0.044
        53 -10.1399     24.2151     73.4255   1.3166124895e+02   5.9095346488e+01     0.656221    0.2127753 -41.93  0.002615619    3.356    0.702
        54  -9.0948     28.6892     69.0051   1.2906267300e+02   5.9698916129e+01    0.3209518    0.1372977 -38.98  0.001469481    2.492    0.599
        55  -8.0256     74.9694     74.3086   1.1420612161e+02   5.3071874223e+01    0.1850484    0.1750001  13.15  0.000376429    1.138    0.121
        56  -8.1583    105.5547     67.7084   1.0246763204e+02   4.8948014947e+01    0.3969569     0.242116  -8.15   0.00142324    3.208    0.688
        57  -8.8406     83.8177     64.1703   1.0810091801e+02   5.3710770131e+01    0.4911206    0.2956753 -13.27  0.001935322    2.910    0.656
        58  -8.5582    192.1073     63.5923   8.1147343886e+01   2.8714734835e+01    0.2521629    0.2145035 -21.94 0.0003115406    1.260    0.207
        59  -8.8998     16.3283     64.3024   1.3256545800e+02   6.1641278170e+01    0.2667809    0.1327995 -47.55 0.0007906931    1.646    0.392
        60  -8.3978     19.3066     61.3312   1.3076596532e+02   6.2070749712e+01    0.1852925    0.1386662 -38.95 0.0007542379    1.234    0.190
        61  -7.1214    147.6943     63.6411   9.0036148141e+01   4.0094626444e+01    0.1611252    0.1201549  15.15 0.0007040016    1.727    0.421
        62  -9.3992     36.2105     59.2199   1.2372135534e+02   6.1105520230e+01    0.4095244    0.2325009   3.80  0.002047107    2.584    0.613
        63  -7.8214    122.1698     61.6817   9.5749839071e+01   4.6508552834e+01    0.3418149    0.1776644  28.77    0.0011722    3.058    0.673
        64  -9.5882     62.5481     61.3713   1.1452865650e+02   5.7572102428e+01    0.3854599    0.2529354  18.14  0.001332833    1.877    0.467
        65  -8.1559     57.0210     62.2250   1.1679788520e+02   5.8137173997e+01    0.2801318    0.1547824  36.74  0.001399544    2.032    0.508
        66  -9.0236     25.8929     61.0396   1.2817343171e+02   6.1634745459e+01    0.3274891    0.1802617 -34.51  0.001781084    1.872    0.466
        67  -8.5532     97.0209     58.5097   1.0194300440e+02   5.2379783458e+01    0.4033533    0.2258218  -7.21  0.001176509    5.102    0.804
        68  -7.8276    111.3048     58.3258   9.7615021884e+01   4.9497122087e+01    0.2286585    0.1663806  10.92 0.0009760763    1.764    0.433
        69  -7.9064     49.1419     57.8867   1.1838311441e+02   5.9997059922e+01    0.1937304     0.169461 -67.37  0.001232506    1.296    0.229
        70  -9.9165     75.1872     50.0176   1.0612995936e+02   5.7858438919e+01     0.351032    0.2693805 -20.88 0.0003003667    1.292    0.226
        71  -6.7877    132.6981     52.6772   8.9952886815e+01   4.5592403935e+01    0.1545403    0.1150778  17.24 0.0007028464    1.633    0.387
        72  -9.3631    247.4265     50.0095   6.9838851389e+01   1.7048540702e+01     0.288405    0.2563861 -60.67 0.0004354927    1.026    0.025
        73  -8.0787    250.7575     46.9746   6.8747352639e+01   1.6698254509e+01    0.3022453    0.1254435 -31.46  0.001252984    2.233    0.552
        74  -8.2729    118.2798     51.0751   9.3114556158e+01   4.9213108345e+01    0.2555813    0.1988836  46.68 0.0006009802    1.272    0.214
        75  -9.2439     45.8096     49.0397   1.1682063621e+02   6.2150043682e+01    0.3432101    0.2234822 -16.48  0.001472215    1.820    0.451
        76  -7.9679    106.9250     48.7394   9.5454459404e+01   5.2086499480e+01    0.3100256    0.1573257  30.17  0.001152546    2.749    0.636
        77  -8.9653      3.6490     40.1592   1.3193254368e+02   6.7377473194e+01    0.6501696    0.1306282 -57.26  0.002782556    2.912    0.657
        78  -9.4073      6.4814     33.7651   1.2886558759e+02   6.8480979895e+01     0.352755    0.2388611 -30.61  0.001513514    1.331    0.249
        79  -9.0232      1.8566     28.7122   1.2952113338e+02   6.9695893565e+01    0.5246038    0.1199035 -55.63  0.002368486    2.740    0.635
        80  -9.4696     11.7896     46.4762   1.3008754460e+02   6.5652067967e+01    0.6763306    0.2673303 -33.34  0.001961903    2.813    0.644
        81  -8.6488      6.8164     47.6434   1.3246931569e+02   6.5702301808e+01    0.4606991    0.2027801  40.23  0.002108631    3.191    0.687
        82  -9.3628     56.4585     43.0572   1.1049622403e+02   6.1943977154e+01    0.5419085    0.2626965 -21.56  0.001998805    3.749    0.733
        83  -8.2824    113.1694     42.5808   9.1402939581e+01   5.1717968520e+01    0.3999666    0.2253461   6.32  0.001259034    3.808    0.737
        84  -8.6748     92.2284     37.8676   9.5758621283e+01   5.6846182297e+01     0.298579    0.2715642 -39.71 0.0008074534    1.210    0.174
        85 -10.1738     83.2093     40.0660   9.9576530345e+01   5.8201502027e+01    0.4317511     0.277944 -14.32 0.0002187353    1.842    0.457
        86  -8.7837     87.6899     37.9614   9.7254275756e+01   5.7708238131e+01    0.2502052    0.2378311  38.70 0.0006607466    1.190    0.159
        87  -9.0150     35.4862     38.4538   1.1740903196e+02   6.5295983181e+01    0.6046253    0.1502525 -48.17  0.002302318    3.146    0.682
        88  -9.5275     38.2806     35.5926   1.1515277287e+02   6.5529045395e+01    0.3072235    0.1989106   5.99  0.001132209    1.823    0.452
        89  -7.6942    124.1825     39.5949   8.7403363938e+01   4.9639579659e+01    0.2065891    0.1263822  43.11 0.0003620747    1.603    0.376
        90  -9.9475     69.3050     35.8914   1.0280563063e+02   6.1277588513e+01    0.6860328    0.3663944  23.41   0.00307156    2.467    0.595
        91  -7.6820    188.6550     36.5204   7.3765070260e+01   3.3538989512e+01    0.2420592    0.1384389 -29.10  0.000740769    1.816    0.449
        92  -9.1519     56.0413     35.4082   1.0769825473e+02   6.3357650899e+01    0.4964089    0.2760316 -18.22  0.001331485    2.383    0.580
        93  -9.1876     61.8913     26.8869   1.0181708474e+02   6.3887209343e+01    0.4277573    0.2711653  16.50  0.002209728    1.812    0.448
        94  -7.8317    106.2363     36.5824   9.1048921175e+01   5.4145976118e+01     0.198868    0.1248248  39.90 0.0005119959    1.573    0.364
        95  -9.2246     22.8964     35.8365   1.2202911168e+02   6.6950027406e+01    0.4268292    0.1958017  20.80  0.002261472    2.581    0.613
        96  -8.9085     22.0051     32.0546   1.2111769302e+02   6.7732548064e+01    0.2484381    0.2020189  17.41   0.00116346    1.430    0.301
        97  -7.2472    145.6650     33.6627   8.0389728506e+01   4.5172408406e+01    0.1590345    0.1067995  28.65 0.0007051805    1.747    0.428
        98  -9.5206    142.4525     28.6430   7.9279485856e+01   4.6632262689e+01    0.3131681    0.2349186  49.88 0.0005172628    1.249    0.199
        99  -9.3124     42.3953     27.8550   1.1028636792e+02   6.6415003084e+01    0.3176547    0.1857071 -13.65 0.0006221677    2.112    0.527
       100  -7.6009    249.0224    249.6521   1.1130578700e+02  -1.0356709484e+01     0.190829   0.06021379  27.37 0.0007049551    4.454    0.776
       101  -8.7598    217.9989    250.0000   1.1644057499e+02  -5.8775327270e+00    0.1911657   0.05048756  41.41 0.0008024006    2.942    0.660
       102  -9.3032     60.4534    249.0311   1.4347096352e+02   1.8102691930e+01    0.1924476    0.1426329  66.20 0.0003780811    1.077    0.072
       103  -7.8844    128.9155     22.7941   8.0004372556e+01   5.0715511159e+01    0.2262448    0.1748115  31.50 0.0006406354    1.299    0.230
       104  -8.2836     92.1760     21.3134   8.8907439078e+01   5.9201571489e+01    0.3969181     0.207043  19.76  0.001269473    2.935    0.659
       105  -8.5189    140.4750     20.0686   7.6600840506e+01   4.8147167574e+01    0.2599082    0.1732702  45.78 0.0002958212    1.419    0.295
       106  -9.2564    170.2101    247.0327   1.2426482304e+02   2.0028541203e+00     0.214007    0.1448185  48.69  0.001162101    1.256    0.204
       107  -8.2716      5.2604     18.4160   1.2432730228e+02   7.1404496029e+01    0.2090385   0.09204595 -44.98 0.0005743703    1.645    0.392
       108  -7.5030     85.4788    245.4702   1.3899630359e+02   1.5332070146e+01    0.1141342    0.0832857  60.33 0.0001438161    1.002    0.002
       109  -8.2552    228.6763    243.3457   1.1368062007e+02  -6.7699979015e+00    0.1010713   0.08579522  56.15 0.0007050105    1.739    0.425
       110  -7.3379    127.5178    236.4177   1.3064885998e+02   1.0456309433e+01    0.1209681   0.09352121  50.90 2.999237e-05    1.028    0.027
       111  -9.3189    188.1500    233.8383   1.1929258951e+02   8.0898777480e-01    0.2638699    0.1816335 -33.64  0.001659435    1.795    0.443
       112  -8.5740     38.4070    227.3361   1.4578534767e+02   2.4534396790e+01     0.182817    0.1288469  68.76 0.0002154143    1.009    0.009
       113  -7.0145     35.5229    214.4360   1.4547132420e+02   2.7244935546e+01    0.1107742   0.08195452  72.23 0.0001099686    1.036    0.035
       114  -7.9343    118.7560     24.3823   8.2964540709e+01   5.2962217412e+01    0.2109528    0.1152322  46.17 0.0009435347    1.704    0.413
       115  -7.5998    189.4609     15.5332   6.7448109608e+01   3.5833007677e+01    0.1413496    0.1289147  85.16 0.0001427785    1.011    0.011
       116 -10.3844    124.0032    205.9959   1.2759207653e+02   1.6219849790e+01    0.1847104    0.1536951  57.24   0.00116134    1.002    0.002
       117  -8.0875     10.9806    206.7434   1.4937071644e+02   3.1265805049e+01    0.1275636   0.07748844  45.22 0.0008942854    1.580    0.367
       118  -9.9322    182.0825    197.2487   1.1467051605e+02   7.2390595339e+00    0.2085686    0.1960428  33.25  0.000244888    1.095    0.087
       119  -7.7825    205.7531    151.7085   1.0112196606e+02   1.0159793643e+01    0.2243906     0.112247 -47.84 0.0008941025    2.360    0.576
       120  -7.2148    197.2872    146.3010   1.0157757584e+02   1.2898282521e+01    0.1462052    0.1120712   9.39 0.0002614163    1.558    0.358
       121  -9.1009     67.4066    144.6630   1.3154302500e+02   3.8082695388e+01    0.4203643    0.2591585  69.85  0.002106604    1.815    0.449
       122  -8.3158    192.2064    133.8498   9.9737938027e+01   1.6267550498e+01    0.2096879    0.2008176 -58.28 0.0003215914    1.119    0.106
       123  -7.8399      5.6611    133.7285   1.4556042120e+02   4.6899439008e+01    0.1075292   0.07401243 -52.82 0.0002704222    1.605    0.377
       124 -10.1983    238.2935    125.6827   8.9404619968e+01   7.6362700716e+00    0.2841488    0.2539085  32.24 0.0003532107    1.150    0.130
       125  -7.3131    132.7090    124.6649   1.1094839761e+02   3.1309163183e+01    0.1501232    0.1226504  -7.38 0.0007022562    1.636    0.389
       126  -8.3190     12.0651    121.9329   1.4280701135e+02   4.9072217483e+01    0.1889117    0.1145729 -49.97  0.001137577    1.750    0.428
       127  -7.4563    119.4851    118.9999   1.1297233272e+02   3.5260737817e+01     0.198964    0.1298789 -26.04  0.000643439    2.250    0.556
       128  -7.7415     99.8463    118.8416   1.1817003783e+02   3.8999328329e+01    0.2910493    0.1824069  17.06  0.001151756    2.775    0.640
       129  -7.3355     39.2135    110.0719   1.3369641828e+02   4.9461761705e+01    0.1766336   0.08652732 -64.98  0.000838124    1.691    0.409
       130  -8.6434      2.2105    109.5437   1.4411056033e+02   5.2500650728e+01    0.2902518   0.09434462 -49.91  0.001311968    3.096    0.677
       131  -7.7709    123.1975    107.7993   1.0922166810e+02   3.6974613060e+01    0.3561684    0.1947961  21.59  0.001066572    4.227    0.763
       132  -8.9645    241.9754    106.9962   8.4425521832e+01   9.8034505820e+00    0.2309453    0.1670651 -63.01 0.0009413065    1.749    0.428
       133  -7.2570     76.2865    107.3190   1.2226064538e+02   4.5505574272e+01    0.1378343    0.1035973 -31.80 0.0002718102    1.593    0.372
       134  -7.5504    133.5099    106.0333   1.0608585573e+02   3.5157233335e+01    0.2205452    0.1362827 -21.71 0.0006069584    2.575    0.612
       135  -7.4178    109.4604    106.5003   1.1259167887e+02   4.0012635825e+01    0.1476231    0.1421943 -52.50  0.000290532    1.046    0.044
       136  -9.1590     14.5411    105.2440   1.4013712814e+02   5.2666911624e+01    0.3274573     0.121763 -45.37  0.001452058    3.062    0.673
       137  -9.3887    247.2612    102.7840   8.2632591718e+01   9.3316072685e+00    0.3024672    0.2015418 -63.79  0.001412466    2.034    0.508
       138  -7.6595     94.0056    103.4963   1.1619879592e+02   4.3521572094e+01    0.1973566    0.1317478  10.04 0.0007758834    2.557    0.609
       139  -7.0553    140.3635     99.2931   1.0253319908e+02   3.5042159893e+01    0.1595814    0.1240463  12.10 0.0004521645    1.707    0.414
       140 -10.6848    242.4885     95.7180   8.1636786596e+01   1.1450626276e+01    0.4865109    0.2946505 -34.50  0.002317082    1.510    0.338
