#   1 NUMBER                 Running object number                                     
#   2 MAG_AUTO               Kron-like elliptical aperture magnitude                    [mag]
#   3 X_IMAGE                Object position along x                                    [pixel]
#   4 Y_IMAGE                Object position along y                                    [pixel]
#   5 X_WORLD                Barycenter position along world x axis                     [deg]
#   6 Y_WORLD                Barycenter position along world y axis                     [deg]
#   7 A_WORLD                Profile RMS along major axis (world units)                 [deg]
#   8 B_WORLD                Profile RMS along minor axis (world units)                 [deg]
#   9 THETA_WORLD            Position angle (CCW/world-x)                               [deg]
#  10 FWHM_WORLD             FWHM assuming a gaussian core                              [deg]
#  11 ELONGATION             A_IMAGE/B_IMAGE                                           
#  12 ELLIPTICITY            1 - B_IMAGE/A_IMAGE                                       
         1 -13.7873      3.4572     82.6827   1.3564604273e+02   5.7813183075e+01     1.980302    0.2544049 -62.40   0.00684094    4.333    0.769
         2 -14.2783      8.1857    153.6354   1.4409160812e+02   4.1936742490e+01     2.799704     1.042241 -79.05     0.013063    2.370    0.578
         3 -14.6698      2.7924    129.4673   1.4270975711e+02   4.7713236894e+01     3.866474    0.4406518 -68.09   0.01246987    4.788    0.791
         4 -13.5567    199.1691     27.6539   6.7784035316e+01   3.2287301130e+01     1.599731     1.283558  41.98  0.006801765    1.462    0.316
         5 -13.5502    215.2119      8.3712   6.1331777737e+01   3.0654915749e+01    0.9906983    0.7633582  70.54  0.002738822    1.211    0.175
         6 -11.5658      2.8046     13.4488   1.1705040838e+02   7.0361241995e+01    0.3569582    0.1401506 -50.54  0.001925234    2.712    0.631
         7 -10.7659      3.3444      3.3401   1.1261850801e+02   7.1720840751e+01    0.2657646    0.1389845 -22.06  0.001800503    1.544    0.352
         8 -11.3794     50.2817    236.0599   1.4336304223e+02   1.9857075123e+01    0.2723379     0.193564 -86.57  0.001868822    1.226    0.184
         9 -11.9023    247.3298    249.4855   1.0876234592e+02  -1.3726132242e+01    0.5911294    0.3661943  23.66  0.003697832    1.379    0.275
        10 -12.0831    238.5520    247.4982   1.0996797548e+02  -1.2200780993e+01    0.3935325    0.2774145  15.02   0.00255626    1.242    0.195
        11 -11.7887    230.6367    248.6192   1.1155653771e+02  -1.1150280588e+01    0.3858576    0.2774221  -7.80  0.002489813    1.420    0.296
        12 -10.9762    122.9440    249.8172   1.3165262555e+02   6.4974537099e+00    0.3035513     0.134819  48.72  0.001486696    1.859    0.462
        13 -13.7242     33.1351    247.1469   1.4704851569e+02   1.9873224362e+01     1.550467     1.123803  43.98   0.01131909    1.614    0.381
        14 -13.4412      8.8840    241.4827   1.5052734395e+02   2.3617767307e+01       1.5028     1.132591 -76.70   0.01197303    1.478    0.323
        15 -13.2200     45.5416    215.7826   1.4247650737e+02   2.4523412462e+01       1.1385    0.8112387 -84.61   0.00606416    1.186    0.157
        16 -14.1028     34.6201    227.6205   1.4541319337e+02   2.3442464588e+01    0.7330436    0.5214768  73.58  0.002412892    1.067    0.062
        17 -12.1230    173.1598    248.5085   1.2210579686e+02  -1.7625281783e+00    0.5180114    0.2758715  47.29  0.002704018    1.643    0.391
        18 -12.7300    109.4041    231.3696   1.3198820291e+02   1.2074615701e+01    0.9289137    0.2002231  47.06  0.003071723    3.951    0.747
        19 -12.1995     95.4372    228.8085   1.3437242409e+02   1.4816091228e+01     0.721622    0.1813594  49.26  0.002553387    3.604    0.723
        20 -12.0711    123.1536    232.0076   1.2940301667e+02   9.6574466501e+00     0.642333      0.16591  48.69  0.002188367    3.602    0.722
        21 -13.0558     30.2326    233.5741   1.4659639335e+02   2.2786390642e+01    0.2768655    0.2286277 -81.88 0.0008309014    1.369    0.270
        22  -9.9050    173.9991    223.0921   1.1802964444e+02   2.2319292417e+00     0.273404    0.2088062  60.58  0.001530062    1.437    0.304
        23 -11.1845     57.9537    212.6667   1.3983544281e+02   2.3579943712e+01    0.5289534    0.1620632  54.82  0.002023561    3.534    0.717
        24  -8.7627    152.4668    213.2077   1.2076555199e+02   7.9947900636e+00    0.1670441    0.1319491 -74.71 0.0003251396    1.492    0.330
        25 -12.3277      9.7008    207.0233   1.4826570758e+02   3.0285179475e+01    0.6127893    0.3992423  34.92  0.003067165    1.958    0.489
        26 -10.1591     56.6263    206.1521   1.3942663389e+02   2.5137366734e+01    0.3397076    0.1180852  52.07  0.001452001    2.764    0.638
        27 -11.8539     57.7544    199.6431   1.3850607393e+02   2.6395701911e+01    0.2695798    0.2196934 -75.69 0.0005158455    1.201    0.167
        28 -10.0929      8.5471    193.6990   1.4751298916e+02   3.3169610504e+01    0.2114132    0.1374771  68.62 0.0006891073    1.319    0.242
        29 -12.1142     64.5042    191.0487   1.3611658620e+02   2.7387088250e+01     0.269188    0.2334753 -74.02 0.0004863868    1.203    0.169
        30 -11.6246    140.0517    248.3971   1.2830077363e+02   3.8896420916e+00     0.414249    0.2415659 -60.62  0.002260508    2.099    0.524
        31 -12.3554      3.6315    170.6419   1.4662485971e+02   3.8548337668e+01    0.9006938     0.321146 -74.71  0.004498789    2.141    0.533
        32 -11.2582    161.3311    247.6961   1.2421216942e+02   3.8295929005e-01    0.4025644    0.1972317 -51.59  0.002006129    2.501    0.600
        33 -11.2984    152.2450    248.5277   1.2603353407e+02   1.8002825028e+00    0.2963002    0.2034312  60.96  0.001719349    1.502    0.334
        34 -10.8352     75.4003    177.8886   1.3199617064e+02   2.8834482437e+01    0.2499563    0.2086486 -84.65 0.0003766876    1.047    0.045
        35  -8.7827     95.9495    172.9876   1.2652955032e+02   2.6768633683e+01    0.2231629    0.1549181  77.41  0.000490836    1.624    0.384
        36 -12.0833     83.4885    168.4416   1.2870377139e+02   2.9815376522e+01    0.7654735    0.6576166 -35.73  0.004396015    1.469    0.319
        37 -13.1250     61.5734    176.2727   1.3487381612e+02   3.1134791082e+01    0.5099413    0.2703176 -47.78  0.001624995    2.263    0.558
        38 -10.5442     95.9949    153.0005   1.2299035287e+02   3.1444202447e+01    0.3276081    0.3054074 -61.72 0.0007331164    1.106    0.096
        39  -9.4589     99.0995    148.6937   1.2138557261e+02   3.1936483817e+01    0.2226057    0.2031307 -57.62 0.0004510075    1.101    0.092
        40 -12.0492     84.6136    151.9138   1.2562411188e+02   3.3537958227e+01    0.3078178    0.2462034 -47.40 0.0007194305    1.316    0.240
        41 -12.0882     67.6349    143.5022   1.2841832515e+02   3.8009833362e+01    0.6563296    0.4216781  68.00  0.002399925    1.913    0.477
        42 -10.0940    108.6487    137.7375   1.1668561409e+02   3.2825227714e+01    0.4817704    0.3352106  -9.22   0.00139081    2.561    0.609
        43 -10.6267     95.5252    135.0777   1.1952807584e+02   3.5757490281e+01    0.2478091    0.2345976 -46.70 0.0003975848    1.110    0.099
        44 -11.0444     26.6512    129.0230   1.3664864448e+02   4.5984911492e+01    0.3373446    0.2061571  57.58  0.001308424    1.959    0.490
        45  -9.1052    106.0939    124.1349   1.1428182692e+02   3.6452316895e+01    0.2018912    0.1908117 -25.19 0.0002840944    1.138    0.121
        46 -10.0953    243.7643     91.7698   7.7032571703e+01   1.2139363320e+01    0.2401424   0.09154544 -46.80 0.0008893025    2.467    0.595
        47 -10.8131    158.5593     76.5643   8.8274550849e+01   3.5028305705e+01    0.2689683    0.2650709  72.49 0.0007522457    1.008    0.008
        48  -9.6989    166.3125     68.3259   8.4284664567e+01   3.4565100753e+01    0.1523869    0.1168468  20.67 0.0003051954    1.663    0.399
        49 -11.5475      2.7824     49.7479   1.2868070777e+02   6.4336511503e+01    0.3212304    0.1698939 -37.11  0.001423944    1.505    0.336
        50 -11.8901     99.5307    248.4036   1.3576975048e+02   1.0492677832e+01    0.4230248    0.3253379  38.61   0.00274039    1.461    0.316
        51 -10.7867     81.3926    249.1421   1.3907526955e+02   1.3097603015e+01    0.2475486    0.1401258  53.88   0.00126108    1.426    0.299
        52 -11.0062    198.7825    246.6707   1.1704596340e+02  -5.8055249464e+00    0.2256868    0.1791837 -51.79  0.001433084    1.649    0.393
