#   1 NUMBER                 Running object number                                     
#   2 MAG_AUTO               Kron-like elliptical aperture magnitude                    [mag]
#   3 X_IMAGE                Object position along x                                    [pixel]
#   4 Y_IMAGE                Object position along y                                    [pixel]
#   5 X_WORLD                Barycenter position along world x axis                     [deg]
#   6 Y_WORLD                Barycenter position along world y axis                     [deg]
#   7 A_WORLD                Profile RMS along major axis (world units)                 [deg]
#   8 B_WORLD                Profile RMS along minor axis (world units)                 [deg]
#   9 THETA_WORLD            Position angle (CCW/world-x)                               [deg]
#  10 FWHM_WORLD             FWHM assuming a gaussian core                              [deg]
#  11 ELONGATION             A_IMAGE/B_IMAGE                                           
#  12 ELLIPTICITY            1 - B_IMAGE/A_IMAGE                                       
         1 -14.6404    208.7780     64.9975   3.3951968446e+01   2.6300081639e+01     2.552425     1.645801  71.31   0.01394488    1.608    0.378
         2 -13.5747    187.0001     35.4651   3.0123277810e+01   3.4933168202e+01    0.9342556    0.6853843 -81.67  0.001534706    1.354    0.262
         3 -13.4460    153.7767     60.2167   4.1255281356e+01   3.8673118258e+01     1.054083    0.5272603 -35.05  0.001194715    2.026    0.506
         4 -12.7241    129.0352     45.0607   4.1714910862e+01   4.5838086679e+01     1.312943     1.045809 -55.61  0.008079132    1.423    0.297
         5 -13.6755    159.1596     38.6858   3.4776944372e+01   4.0394361005e+01    0.9811603    0.5903828  51.10  0.003629067    1.633    0.388
         6 -14.2423      9.0860     68.5527   8.2454150901e+01   6.0008246677e+01      1.60315    0.8894118 -22.26  0.008174862    1.849    0.459
         7 -14.7313     53.9491     72.6641   6.9194391374e+01   5.4626854687e+01     2.108377     1.308896   2.66   0.01091882    2.145    0.534
         8 -14.2839     12.2535     35.9237   7.1121808644e+01   6.4952031828e+01      1.40538    0.9277529 -21.39  0.006939226    1.170    0.145
         9 -14.6217     34.7623     69.1427   7.4154458296e+01   5.7526732588e+01     1.168499       1.0513 -72.76  0.005085846    1.638    0.389
        10 -13.5671     78.9382     59.5647   5.7852416206e+01   5.3091214157e+01     1.428863    0.8438194 -24.22  0.007546052    1.742    0.426
        11 -13.3278     51.5085     45.4569   6.1199805251e+01   5.9179632935e+01    0.8832951     0.494216  -8.70  0.004571114    2.307    0.566
        12 -13.6320     63.5035     34.5528   5.3878070478e+01   5.8837180049e+01     1.319997    0.7974115  29.21   0.00802549    1.593    0.372
        13 -13.3515     49.4311     29.8407   5.6360299154e+01   6.1421115705e+01     1.361661    0.5708925  48.10  0.006749119    3.058    0.673
        14 -13.8727     79.1861     41.7293   5.2015988218e+01   5.5487598295e+01     0.951469    0.8024104  17.04  0.004680423    1.071    0.066
        15 -13.1128     26.9394     35.6205   6.5791345879e+01   6.3508846595e+01    0.7011464    0.2817918 -28.92 0.0005539715    2.347    0.574
        16 -14.2141    191.9749     70.3717   3.7539077767e+01   2.8991049107e+01     3.285815    0.6634216 -43.00  0.009962849    4.208    0.762
        17 -13.3549    173.4706     41.2205   3.3287878440e+01   3.7067795233e+01       1.0305    0.8699308 -41.55  0.005588284    1.230    0.187
        18 -12.2294     76.9687     24.4628   4.6805580873e+01   5.7782371040e+01    0.5895537    0.4216271  21.94  0.003410968    1.292    0.226
        19 -10.9152     41.6215     20.2089   5.5235395432e+01   6.3527501001e+01    0.3089818     0.302269   7.77  0.002538354    1.607    0.378
        20 -10.3649    125.7939     19.7729   3.5137695266e+01   4.9238256854e+01    0.2704768    0.1607413 -40.57  0.001584433    1.870    0.465
        21 -10.8973     30.5891     19.9056   5.8706353295e+01   6.4962439357e+01    0.3183086    0.2647614 -27.86  0.002508033    1.510    0.338
        22 -11.4000     63.8402      7.3137   4.4145546916e+01   6.1441926514e+01    0.3138397    0.2542957  32.32  0.001925968    1.131    0.116
        23 -11.5644     65.5281     13.6869   4.5984971143e+01   6.0646417640e+01    0.2736436    0.2438551 -53.10  0.002082133    1.668    0.401
        24 -10.4328    122.9069     13.7202   3.3920750723e+01   5.0348740800e+01    0.1696998    0.1554822   3.13 0.0004932408    1.179    0.152
        25 -11.9882    148.0857     11.0763   2.9381525109e+01   4.5549627962e+01     0.317604    0.2048141 -75.79 0.0009680325    1.934    0.483
        26 -10.9588     85.1723     10.5393   4.0211451447e+01   5.7631411570e+01    0.3988924    0.1412144 -22.38   0.00189402    3.064    0.674
        27  -9.9656    140.4342     11.5101   3.0575067450e+01   4.7056611374e+01    0.2456104    0.1481751 -72.15  0.001338098    2.346    0.574
        28  -9.9073    129.9649     11.4472   3.2141652338e+01   4.9152222242e+01    0.1561702    0.1467255  -7.44 0.0005316164    1.186    0.157
        29 -11.7115    116.4660      9.5506   3.3824418845e+01   5.1945967145e+01    0.4005151    0.2391136  25.31  0.001766918    1.988    0.497
        30  -9.7917    172.5018     10.9178   2.6264151617e+01   4.0584771379e+01    0.4054844    0.1485191  73.48  0.001817808    2.838    0.648
        31 -10.0666     95.2431      9.2003   3.7662733454e+01   5.5945630561e+01    0.3713236    0.1544746 -26.06   0.00120866    2.546    0.607
        32  -9.6528    162.3714      9.8120   2.7214513860e+01   4.2756004589e+01    0.1421725    0.1090395  -7.82 0.0009457709    1.712    0.416
        33 -10.6522     73.5120      9.7659   4.2622297258e+01   5.9678772158e+01    0.2914844     0.177323  55.78  0.001329346    1.729    0.422
        34 -11.0915     73.3093      5.2762   4.1121618297e+01   6.0060550199e+01    0.2649693    0.1872768  40.85  0.001314008    1.205    0.170
        35  99.0000     48.2206      8.9514   4.8988903268e+01   6.3670563370e+01    0.4834514    0.1728005  39.04  0.002582818    2.437    0.590
        36  -9.6536     50.5034      5.4920   4.7033959022e+01   6.3622959052e+01    0.1495524    0.0789777  35.22 0.0008619313    1.606    0.377
        37  -9.4459    216.7507      9.2942   2.1509268328e+01   3.1837455660e+01    0.1101256   0.06738753 -67.31 0.0004740078    1.483    0.326
        38 -10.4663    194.0755      8.8170   2.3499211769e+01   3.6400866664e+01    0.1633862    0.1324159 -88.54 0.0006059596    1.032    0.031
        39 -10.7989     88.9854     11.9012   3.9828712515e+01   5.6850646617e+01    0.1690322    0.1421849   2.08 0.0006849819    1.179    0.152
        40 -10.7203    100.2162      7.0110   3.6005744753e+01   5.5206221565e+01    0.2062888    0.1405204  60.23 0.0006872186    1.404    0.288
        41 -10.3066      3.3076      6.8852   6.3360693130e+01   6.9281016164e+01    0.2078236    0.1253621  30.69  0.001565418    1.802    0.445
        42 -10.3299    145.7501      4.7900   2.8110397713e+01   4.6551648693e+01    0.1842836    0.1417122  68.98 0.0006956373    1.140    0.123
        43 -11.2197     55.3742      3.6649   4.5021101473e+01   6.3036862327e+01    0.2406804    0.1472866   6.11 0.0009607644    1.598    0.374
        44 -10.4213    155.4599      2.1859   2.6236413003e+01   4.4810426543e+01    0.1892341    0.1262763  54.20 0.0007550438    1.382    0.276
        45 -12.0491     60.5601     15.7481   4.8041418334e+01   6.1238571608e+01    0.5690038    0.3243235  16.01  0.002314301    1.878    0.468
        46  -9.9506    221.8953     12.2987   2.1643995936e+01   3.0510256598e+01    0.1463883    0.1179882 -84.41 0.0004731661    1.056    0.053
        47 -12.5031    131.3360     96.8324   5.5687291418e+01   3.7147090020e+01    0.4306467    0.2979845 -46.96  0.002132036    1.372    0.271
        48 -10.8578    228.9686    249.3741   6.9177410295e+01  -1.1750740334e+01     0.223821     0.153837 -27.69 0.0003565679    1.313    0.238
        49 -13.3711    178.0966    241.9389   7.7261508469e+01  -2.9495506590e+00    0.7676659    0.6142176 -18.48  0.004544734    1.351    0.260
        50 -13.7560     38.7210    246.4461   1.0416975391e+02   1.7014558260e+01    0.8043412    0.7214684  73.45  0.005857452    1.301    0.231
        51 -12.2717     11.1643    248.6973   1.0897399059e+02   1.9704255704e+01    0.5521953    0.3135834 -70.79  0.003502307    1.493    0.330
        52 -12.0216      3.3795    248.2995   1.1019025895e+02   2.0604477035e+01    0.5457925    0.2752048 -74.13  0.003342649    1.564    0.360
        53 -11.8275     87.1878     97.4200   6.6812141402e+01   4.5120177499e+01    0.4796857    0.3271248 -17.09  0.001649498    1.822    0.451
        54 -11.4855     81.5614     99.0431   6.8783276553e+01   4.5693579948e+01    0.3396019     0.247623 -17.85  0.001564475    1.560    0.359
        55 -10.7405    190.9386     99.0567   4.4500071995e+01   2.4258368565e+01     0.225512    0.2025483  64.56 0.0003178043    1.211    0.174
        56 -11.1451    170.2982     97.8397   4.7891474466e+01   2.8857991749e+01    0.3499345    0.2945846  12.12  0.001847134    1.569    0.363
        57 -11.2878    200.2457     96.6474   4.2398339594e+01   2.2752106872e+01    0.3262461    0.2330007 -55.61 0.0009081257    1.279    0.218
        58 -10.9889    100.4099     96.7573   6.3148142129e+01   4.3007267885e+01    0.2027159    0.1237043 -35.00 0.0006574002    1.592    0.372
        59 -11.2012     59.7496     96.9966   7.4375109859e+01   4.9265256798e+01    0.2066314    0.1788883 -29.33 0.0002802374    1.058    0.054
        60 -12.2751     62.9237     95.3972   7.3029042154e+01   4.9162300491e+01    0.4477803    0.2267739 -51.77  0.001031731    1.859    0.462
        61 -11.2495     32.3932     97.1206   8.2485902948e+01   5.2420664224e+01     0.195712     0.184806   9.71  0.000425615    1.291    0.225
        62 -10.3298     11.5202     97.4883   8.8830182191e+01   5.4189588499e+01    0.1239844   0.09374835 -48.02 0.0001680467    1.011    0.011
        63 -13.3812    107.0236     93.9142   6.0681043373e+01   4.2372409337e+01    0.9714941     0.458206 -50.53  0.003953615    2.244    0.554
        64 -11.5755    105.1461     86.8212   5.9156561539e+01   4.4044854215e+01    0.5831375    0.1766847 -45.05  0.001978739    3.212    0.689
        65  -9.2156    250.5518     95.4280   3.5064066586e+01   1.3023223259e+01     0.131586    0.1062905 -56.09 6.883452e-05    1.042    0.040
        66  -9.3700    236.9744     95.2343   3.6747197316e+01   1.5613858419e+01    0.1380361    0.1099584  73.65 0.0008085064    1.388    0.279
        67 -11.3123    208.5398     94.1394   4.0528276381e+01   2.1486465166e+01    0.2880139    0.2455502  49.47  0.001019262    1.395    0.283
        68 -13.1695    188.0903     90.7509   4.2997172391e+01   2.6377057898e+01     1.240202    0.5180674 -48.83  0.004886618    2.292    0.564
        69 -13.0877    176.1181     86.9038   4.4111434892e+01   2.9608841214e+01    0.9036891    0.7432194 -34.70   0.00171483    1.256    0.204
        70 -10.2174    211.6579    249.7055   7.2333257516e+01  -9.3819495358e+00    0.1274516    0.0881285  -2.99 0.0007030379    1.659    0.397
        71 -13.4368    173.8564     57.6311   3.7240879110e+01   3.4778433934e+01     1.334175    0.7983664 -87.46  0.004312508    2.436    0.590
        72 -12.8158    197.9846     42.5941   3.0360510767e+01   3.1738072989e+01     0.642266    0.3821794 -32.91  0.001938819    1.850    0.460
        73 -13.1353    163.9989    248.7958   8.1080536428e+01  -1.9787547811e+00    0.8803408    0.3784631  39.28  0.003921752    2.283    0.562
        74 -14.4855    123.4528     84.8310   5.4195876298e+01   4.0931935988e+01      1.36493     1.075926 -13.28   0.00731767    1.458    0.314
        75 -13.5394    118.0715     62.7174   4.9102158635e+01   4.5602195069e+01     1.097446    0.8270864 -48.34  0.006261499    1.424    0.298
        76 -13.9883    138.7927     70.9754   4.7019878468e+01   4.0169328032e+01     1.558821    0.9607653 -37.42  0.007820192    1.590    0.371
        77 -10.9618     94.9602    247.6931   9.4106748314e+01   9.0574941770e+00    0.1807054      0.15294  69.55  0.000557703    1.078    0.072
        78 -13.2486    143.0607     59.7866   4.3115881449e+01   4.0981634734e+01     1.136518     1.079173  42.22  0.007023219    1.072    0.067
        79 -10.8802    214.5766    246.7289   7.1288764340e+01  -9.3137927061e+00    0.2275559    0.1094132 -37.84 0.0009191112    1.973    0.493
        80 -12.8740    162.8024     66.2870   4.1242777297e+01   3.5852399808e+01    0.7633551    0.5954905  49.40  0.004362127    1.340    0.254
        81 -12.7506     15.3937    238.4461   1.0745509421e+02   2.1413403345e+01     0.589985     0.493601  14.79  0.003219582    2.067    0.516
        82  -8.1067    147.7354     40.3360   3.7039523030e+01   4.2583325369e+01    0.8653992    0.4490261 -53.50  0.004116242    2.408    0.585
        83 -10.1148    177.6620     94.7885   4.5783286491e+01   2.7860296632e+01    0.2125969    0.1864962  51.40 0.0003884661    1.256    0.204
        84  -9.6594    166.4316     95.4567   4.8023850811e+01   3.0124152688e+01    0.1443576    0.1315007 -57.50  5.31092e-05    1.015    0.015
        85 -11.9388    124.1398     94.9168   5.6820526656e+01   3.8937668390e+01    0.2528154    0.2321388 -34.65 0.0008437893    1.028    0.027
        86 -11.1067     68.9268     94.9644   7.1192884026e+01   4.8409630117e+01    0.2521462    0.1914315  41.02 0.0004404995    1.544    0.352
        87 -11.8843     95.3123     89.7416   6.2506792385e+01   4.5246801928e+01    0.4254944    0.3812133 -84.77  0.001849132    1.412    0.292
        88 -13.1031     52.6553     88.9763   7.4286415555e+01   5.1777583203e+01    0.5033551     0.360292 -45.85  0.001537944    1.228    0.186
        89 -11.2959     48.1899     85.7775   7.4743814220e+01   5.2945776611e+01    0.2553757    0.1824222 -49.41 0.0007031434    1.313    0.238
        90 -10.3610      2.1688     91.9256   9.0424724790e+01   5.6008202882e+01    0.1716422    0.1348309 -59.76  0.000478782    1.219    0.179
        91 -10.3421    241.2426     90.9902   3.5316645286e+01   1.5536143916e+01    0.2209806    0.1515629 -76.38            0    1.561    0.359
        92 -12.1895    214.5812     89.3487   3.8558168248e+01   2.1095564848e+01    0.4536014    0.2429394  68.91  0.002057602    2.267    0.559
        93 -12.2916    212.1557     84.9166   3.7918702649e+01   2.2360607061e+01    0.4076542    0.2987455  -5.65  0.001956457    2.463    0.594
        94 -12.5642     93.6730     60.1404   5.4143060969e+01   5.0517996577e+01    0.5557107    0.3754533 -66.32  0.002424788    2.643    0.622
        95 -11.1714    110.2888    240.7882   9.0253386860e+01   8.1508236767e+00    0.3133144     0.192861 -80.26  0.001021783    2.021    0.505
        96 -11.2268    227.0995    242.2279   6.8247710016e+01  -1.0352760338e+01    0.2078827    0.1731667  49.27  0.001104424    1.586    0.369
        97 -13.1761    102.2819     75.7740   5.6680321842e+01   4.6507917082e+01     1.305526    0.7728503 -10.63   0.00540778    2.852    0.649
        98 -12.8052     87.5362     73.3592   5.9779519673e+01   4.9487909958e+01    0.8094839    0.5059353   6.09 0.0005503689    2.474    0.596
        99 -13.4346     95.0309     69.5943   5.6680416968e+01   4.8819903751e+01      1.31192    0.8361202  38.59  0.006990658    1.624    0.384
       100 -13.2812      3.6957     54.3914   8.0245301407e+01   6.2858989159e+01     1.001691    0.6964957 -26.01   0.00724718    1.128    0.114
       101 -12.1203     65.0820     47.4933   5.7829050843e+01   5.6967430308e+01     0.733101    0.5892193 -71.65  0.004410666    2.259    0.557
       102 -11.4859    219.5470    240.6051   6.9310672444e+01  -9.0141747338e+00    0.3296067     0.268063 -28.91  0.002105787    1.119    0.106
       103 -11.7508    136.0284    249.2112   8.6497965074e+01   2.3845219827e+00    0.3572154    0.2125091  62.55  0.001710208    2.174    0.540
       104 -12.3499    110.6661    249.2402   9.1341899932e+01   6.3544614032e+00    0.5257227     0.252615  48.69  0.002491102    2.033    0.508
       105 -13.8082     40.7585     57.2330   6.8519377916e+01   5.8819529272e+01     1.927274    0.8876605  44.71  0.009276615    3.178    0.685
       106 -12.1277     53.0243     55.5816   6.4111597758e+01   5.7523136398e+01    0.5117179    0.3353127   9.69  0.002231359    1.688    0.408
       107 -12.7966     51.2068    249.2915   1.0226676136e+02   1.4843469838e+01    0.4713297    0.3494864  49.83   0.00306963    1.403    0.287
       108 -11.7940    113.3954    245.2025   9.0269321495e+01   6.7522757374e+00    0.2743904    0.1948434 -65.54  0.001418613    1.401    0.286
       109 -11.6469     50.5026    235.0537   1.0091678140e+02   1.8000355688e+01    0.1883061    0.1416937 -84.75 0.0007673542    1.088    0.081
       110  -9.4735    209.7180    227.6838   6.8764406793e+01  -5.3035534430e+00    0.1325507   0.09448388 -12.76 0.0002100334    1.578    0.366
       111 -11.4911     76.1307     36.9095   5.1220400691e+01   5.6570985259e+01    0.1816852    0.1638982   0.75 0.0002886987    1.110    0.099
       112 -11.4508     24.9451     89.0324   8.2739957210e+01   5.4781172244e+01    0.2619341    0.1771505   3.90  0.001423354    1.782    0.439
       113 -11.7984    148.4850     85.7732   4.9042815109e+01   3.5670057435e+01    0.6886469    0.4058571  66.82  0.002671896    2.198    0.545
       114 -11.7505    148.6848     81.3909   4.7838626987e+01   3.6391325464e+01    0.3813881    0.3056817 -77.44  0.000223358    1.461    0.316
       115 -13.0273    114.2864     82.3567   5.5646670558e+01   4.3143328086e+01    0.7731737     0.273159 -42.87  0.002881689    2.701    0.630
       116 -12.6991     66.6367     81.6446   6.8085900707e+01   5.1288150958e+01     0.491167    0.4723992 -86.81  0.002893084    1.363    0.267
       117 -12.0962      5.6246     83.7741   8.7487581916e+01   5.7399865841e+01    0.3537771    0.1419718 -52.62   0.00108825    1.826    0.452
       118 -11.1834      4.2643     78.9681   8.6754346799e+01   5.8427734069e+01     0.196267    0.1604765 -11.99 0.0003936662    1.309    0.236
       119 -11.8831      2.2951    240.6575   1.0980310476e+02   2.2310601789e+01    0.4971077    0.1611075 -77.16  0.002310999    2.566    0.610
       120 -11.3956    236.4184     86.2728   3.4948646401e+01   1.7271871514e+01     0.449462    0.2669224  70.44  0.002131878    1.939    0.484
       121 -10.3483    232.7013     78.8690   3.3871980506e+01   1.9238329056e+01     0.222039    0.2144638  74.97  0.001069205    1.319    0.242
       122 -12.2118    224.7380     77.5675   3.4604032741e+01   2.1035772524e+01    0.3260407    0.2471005 -17.69   0.00158192    1.975    0.494
       123 -12.6532    213.0384     77.4345   3.6131289930e+01   2.3437488263e+01    0.4285718    0.3591776 -26.18  0.002532669    1.473    0.321
       124 -10.8707    156.2677     76.5856   4.5098006875e+01   3.5602213857e+01    0.3647683    0.2761254  46.61  0.001555004    1.400    0.286
       125 -11.3723     20.2464     75.6202   8.0709701630e+01   5.7789243848e+01    0.1985702    0.1532303 -35.96 0.0002584136    1.018    0.018
       126 -11.3763     70.5299     86.6719   6.8416178269e+01   4.9788651238e+01    0.4026946    0.3125854  24.62   0.00218584    1.408    0.290
       127 -11.5005     23.9034     77.6467   8.0082503530e+01   5.7078941041e+01    0.2244304    0.1289551 -40.14 0.0008324523    1.369    0.269
       128 -12.0702    162.1521     59.5491   3.9625445616e+01   3.6995126834e+01    0.4271637    0.3140244 -21.97 0.0002727912    1.612    0.379
       129 -10.4496    240.0846     71.0371   3.1385757010e+01   1.9064477120e+01    0.2386747    0.1932795 -81.37  0.001529824    1.155    0.134
       130 -10.5728     78.0421     71.0389   6.1667046467e+01   5.1422262544e+01    0.1967018    0.1753466 -30.08 0.0006262945    1.117    0.104
       131 -15.1087    166.7296     81.2274   4.4362101575e+01   3.2597114895e+01     2.745733     1.382683  40.61   0.01133274    2.567    0.610
       132 -11.6225    237.1826     65.8610   3.0670352805e+01   2.0438349774e+01    0.3216884    0.2586863  11.58   0.00158644    2.318    0.569
       133 -12.8503     58.0729     60.9993   6.4321477659e+01   5.6003877500e+01    0.8403091    0.4441225 -53.90  0.003873938    2.891    0.654
       134  -9.7315    249.9638     58.1529   2.7795648029e+01   1.9157184705e+01    0.2108111    0.1157639 -74.96  0.001090193    2.033    0.508
       135 -11.8893    221.8021     40.3422   2.7173670053e+01   2.7157064840e+01    0.7677617     0.383009  81.52   0.00385012    2.257    0.557
       136 -11.3400    230.4814     48.0149   2.7810057028e+01   2.4384454102e+01    0.8764293    0.2541051 -41.50  0.003646955    2.923    0.658
       137 -11.9293    226.6265     47.0893   2.8031588477e+01   2.5278488999e+01     1.143897    0.1402633 -44.67   0.00350965    5.272    0.810
       138 -11.3089    159.9716    219.6202   7.6934491260e+01   4.4195297178e+00    0.2452301    0.1921007 -50.30 0.0002914863    1.229    0.187
       139 -10.9078    223.0169     56.0417   3.0270913458e+01   2.4727615144e+01    0.2446249    0.1845633 -59.39 0.0004249282    1.132    0.117
       140 -10.7019    219.9812     52.7447   2.9932011535e+01   2.5817744150e+01    0.2761541    0.1736307 -40.18 0.0007371582    1.559    0.359
       141 -11.7364    101.3336     53.6507   5.0254674963e+01   5.0067214883e+01     0.430473    0.2313508  38.65 0.0008098233    1.904    0.475
       142  -9.9087    238.7015     51.9156   2.7729881003e+01   2.2221603732e+01    0.2362987     0.161186  73.58  0.001460329    1.483    0.326
       143 -11.0781    210.1373     51.5286   3.0834195866e+01   2.8002617509e+01    0.2974581    0.2026514  72.94  0.001742812    1.447    0.309
       144  -9.7848    110.8438     52.4165   4.7675014785e+01   4.8456849871e+01    0.1831682    0.1073459  38.01 0.0009345417    1.763    0.433
       145 -10.8938    160.8955     49.3525   3.7222183103e+01   3.8678544115e+01    0.3248065     0.250943   4.43  0.001841746    1.793    0.442
       146 -11.9030    209.0067     44.7092   2.9501310335e+01   2.9174620911e+01    0.5124115    0.3342431 -68.29  0.002957391    1.506    0.336
       147  -9.8077    142.7742     46.2784   3.9493673582e+01   4.2876316613e+01     0.392869    0.2156396  32.36  0.001502298    2.583    0.613
       148  99.0000    101.3023     40.3447   4.6147388856e+01   5.1777796250e+01    0.3584358      0.16798 -15.70  0.001507026    3.247    0.692
       149 -10.6457    102.3475     46.3138   4.7756737921e+01   5.0850998958e+01     0.487605    0.2668728  16.25  0.002051265    3.252    0.693
       150 -10.6198     99.3112     45.6706   4.8266404085e+01   5.1489988856e+01    0.2584956    0.2032662 -18.72 0.0009594173    1.261    0.207
       151  -9.9970    214.2974     42.9758   2.8529940114e+01   2.8323948604e+01     0.281915    0.1641167 -67.86  0.001517138    1.783    0.439
       152 -10.0641    211.1243     38.8344   2.8013261858e+01   2.9515377068e+01    0.1927196    0.1373028 -69.79 0.0006748966    1.285    0.222
       153  -9.7695     36.1526     43.1611   6.5327526337e+01   6.1441244047e+01    0.1400669     0.120411 -23.53 0.0004068501    1.274    0.215
       154 -11.3360     40.5696     39.5347   6.2614779183e+01   6.1394702857e+01    0.2507894    0.1839656  18.39 0.0007803473    1.294    0.227
       155 -11.9056    112.8435     38.8571   4.3170343182e+01   4.9777086073e+01    0.3806155    0.1939661  52.32 0.0004256513    1.853    0.460
       156  -9.4477    237.2643     38.6506   2.5297438517e+01   2.4332665600e+01    0.1250933   0.07100053 -64.46 0.0006981399    1.613    0.380
       157  -9.1413    165.7394    122.3028   5.4846261113e+01   2.4930363314e+01    0.1490674    0.1119898 -70.21 0.0001676098    1.516    0.340
       158 -10.8296    132.2488     33.6823   3.7908005091e+01   4.6529468105e+01    0.2883847    0.1886092  60.22  0.001108774    1.461    0.316
       159 -10.6132    204.9869     36.1880   2.8138497830e+01   3.1110327076e+01    0.1919299    0.1563026 -56.40 0.0002717962    1.155    0.134
       160  -9.8694    220.6603     33.9460   2.5997944549e+01   2.8213092771e+01    0.1639829    0.1294484 -65.69  0.000600646    1.079    0.073
       161 -11.0731    216.1077     32.1637   2.6100723393e+01   2.9350077422e+01    0.3573743     0.142368 -46.15   0.00108899    2.233    0.552
       162 -10.3605    218.5761     28.7946   2.5171500108e+01   2.9268897702e+01    0.2092414    0.1474669 -80.33  0.001282898    1.270    0.212
       163 -10.9158    112.0100     33.0181   4.1590779408e+01   5.0594339867e+01    0.2688687     0.174325 -26.62 0.0008105948    1.616    0.381
       164 -10.8246    112.3226     28.1413   4.0065037901e+01   5.1049071722e+01    0.2669177    0.2004508 -52.53 0.0005456981    1.643    0.391
       165 -10.8616     92.1273     33.4113   4.6078715630e+01   5.4233509484e+01    0.4649577    0.3253915  69.11  0.002727589    1.984    0.496
       166 -10.6919     86.0987     28.8101   4.6016170786e+01   5.5786293446e+01    0.3120159    0.1692822  39.57  0.001580226    1.702    0.412
       167  -9.5017     82.6476     27.2998   4.6352571536e+01   5.6537139939e+01    0.1725813    0.1321109 -42.81 0.0007242051    1.615    0.381
       168 -10.3720    234.5524     33.3612   2.4537890579e+01   2.5548406029e+01    0.1489318    0.1183468  64.22 0.0001487619    1.458    0.314
       169 -10.2631    206.0695     31.9432   2.7116338489e+01   3.1414462966e+01    0.1834531    0.1532327 -75.45 0.0004837727    1.023    0.022
       170 -11.9065    140.7815     29.4323   3.5279360053e+01   4.5256451279e+01    0.2810724    0.2152194  73.64 0.0003146484    1.322    0.244
       171 -10.7532    147.8452     25.8079   3.3199805483e+01   4.4188777644e+01    0.4185899    0.3040549  20.53  0.002535318    1.783    0.439
       172 -10.1826    144.4296     26.4817   3.3906150808e+01   4.4820200754e+01    0.1989469    0.1737554 -32.20 0.0006042593    1.242    0.195
       173 -10.4977    104.6862     27.9459   4.1566220071e+01   5.2516926781e+01    0.3369867    0.2457296  -1.15  0.001702557    1.513    0.339
       174  -9.9343    102.3843     23.8190   4.0772652427e+01   5.3356364172e+01    0.2279548       0.1074 -15.74  0.001104635    2.710    0.631
       175 -10.8294     78.4845     17.5690   4.4096954677e+01   5.8181840720e+01    0.2308418    0.1749691  68.17  0.001536816    1.791    0.442
       176  -9.4489    249.2009    118.3772   3.9911835543e+01   9.1459508968e+00    0.1670111    0.1237487  81.61 0.0006571722    1.662    0.398
       177 -12.0118     69.5271     22.5080   4.8042434560e+01   5.9191988591e+01    0.3011947    0.2353822  30.41  0.001193166    1.141    0.124
       178 -11.4408    191.4135     25.9947   2.7470659696e+01   3.5128621699e+01    0.5667002    0.2387877  76.82  0.002570804    2.700    0.630
       179 -10.1898    153.4888     26.5215   3.2535326279e+01   4.2949802443e+01     0.117037    0.1068714  71.16 -7.36714e-05    1.010    0.010
       180 -10.5755    175.5664     24.0771   2.8933918289e+01   3.8625278624e+01    0.3130071     0.166357 -36.39  0.001732543    1.942    0.485
       181 -10.7593    132.5696     24.2077   3.5222107024e+01   4.7459869767e+01    0.2774507    0.2286714 -84.73  0.001226167    1.386    0.279
       182 -10.2794    137.9701     23.4478   3.4124948668e+01   4.6445250166e+01    0.2366913     0.179301  37.21  0.001529087    1.371    0.271
       183 -11.0927     98.2817     22.1732   4.1122909616e+01   5.4270511619e+01    0.2672349    0.1963842 -14.51  0.001504487    1.424    0.298
       184 -10.3170    215.4084     23.7812   2.4476537819e+01   3.0499563471e+01    0.1866393    0.1703034  30.25 0.0007663023    1.594    0.373
       185 -10.7880    163.3573     22.3228   3.0098786792e+01   4.1344003985e+01    0.2421354    0.2091608 -69.33  0.001538942    1.157    0.136
       186  -9.8943    159.7010     23.3488   3.0849161032e+01   4.1995275467e+01    0.1806009    0.1422859  69.50 0.0008383047    1.155    0.134
       187  -9.8780     88.9828     22.5199   4.3283473343e+01   5.5909932553e+01    0.3596661    0.1349202  37.25  0.001617481    2.862    0.651
       188 -10.6279     46.1574     21.8217   5.4430660256e+01   6.2746858683e+01    0.2205146    0.1703824 -23.99  0.001284939    1.347    0.258
       189 -10.0853    181.8392    116.0575   5.0192225606e+01   2.2866014773e+01    0.2336923    0.1905088 -67.80 0.0007365365    1.249    0.199
       190  -9.8235     48.2232     17.4670   5.2186749075e+01   6.2896233046e+01    0.2868252    0.2096704  -8.45  0.001057336    1.199    0.166
       191 -10.4039    225.6051     21.9805   2.3171131696e+01   2.8691454502e+01    0.1983882    0.1722719  73.08 0.0008257288    1.316    0.240
       192  -9.3183    180.6331     20.9961   2.7608733818e+01   3.7904693441e+01    0.3058029    0.1377623 -55.99  0.001461236    2.611    0.617
       193 -10.7649    120.2129     21.6662   3.6661529498e+01   5.0157961449e+01     0.430409    0.2152433  30.25  0.001653307    2.695    0.629
       194  -9.2128     90.6885    115.7552   7.0736157116e+01   4.0702675752e+01    0.1367079    0.1073062 -14.49 0.0001628772    1.508    0.337
       195 -11.7487    132.2349    111.2632   5.9301428813e+01   3.4081633318e+01    0.3885079    0.2735592  55.48 0.0008804415    1.612    0.380
       196  -9.4822    168.6545    111.2564   5.1545785275e+01   2.6595468682e+01    0.1469446    0.1125423 -82.44 0.0003739119    1.591    0.371
       197  -9.6178    201.5234    110.5020   4.5398640626e+01   1.9879343799e+01    0.1468882     0.127568 -55.67 0.0002690057    1.003    0.003
       198  -9.5276    201.4122     19.2357   2.4939511504e+01   3.3834223779e+01    0.1626419   0.09006179 -50.49 0.0009403943    1.711    0.416
       199 -10.1107    102.6212     19.3231   3.9332376794e+01   5.3734265704e+01    0.1554758    0.1299287 -70.08 0.0007062387    1.605    0.377
       200 -10.7770     71.3510     15.5749   4.5163353724e+01   5.9544069678e+01    0.3639992    0.1840466  60.24  0.001110798    2.679    0.627
       201 -10.1794    139.8011     17.1052   3.2141995680e+01   4.6682996767e+01    0.1633901    0.1467034 -73.33 0.0005046971    1.194    0.163
       202  -9.0987    189.2852     15.2651   2.5363750643e+01   3.6724794491e+01    0.1040637   0.08150385  48.28 0.0001692939    1.492    0.330
       203  -9.9443    166.4926     15.1751   2.7976954186e+01   4.1410790571e+01    0.1779625    0.1407799  50.80 0.0004619356    1.303    0.233
       204  -9.8798    102.8110     15.1217   3.7999191451e+01   5.4070349696e+01    0.1428556    0.1115505  21.73 0.0002960418    1.255    0.204
       205  -9.8439     32.9832     14.8229   5.5948623886e+01   6.5190389432e+01    0.1749449   0.09085283  18.52  0.001049726    1.988    0.497
       206 -10.8793    118.8313    110.1794   6.2175138987e+01   3.6908571160e+01    0.2271585    0.2003871 -67.13 0.0007890896    1.211    0.175
       207 -10.5058     97.4757    109.5090   6.7347547136e+01   4.0911926379e+01    0.1455815    0.1296758 -39.70 -3.901631e-05    1.004    0.004
       208  -9.8994    216.9198    108.3003   4.2428752745e+01   1.7173747303e+01    0.1899558    0.1735003 -62.72 0.0006151977    1.092    0.084
       209  -9.8993    235.3135    107.0479   3.9461761498e+01   1.3808184376e+01    0.1946097    0.1481983 -50.67 0.0002456454    1.086    0.080
       210 -10.7018     91.8062    107.0472   6.8180392353e+01   4.2388151845e+01    0.2093507    0.2043047  -9.65 0.0003105066    1.117    0.105
       211 -10.0959    184.0064    105.9175   4.7354651544e+01   2.4416272404e+01     0.228142    0.2042443 -61.01  0.001190299    1.027    0.026
       212  -9.5753     29.6703    106.6936   8.5546726413e+01   5.0663364914e+01    0.1338388   0.08047147 -33.26 0.0006964036    1.658    0.397
       213 -10.8554    134.9981    105.0164   5.7038448534e+01   3.4806150483e+01    0.2293388     0.210398 -45.62 0.0004602741    1.008    0.008
       214 -11.3380    165.6847    102.5782   4.9962162941e+01   2.8931812364e+01    0.5048949    0.2777578 -55.43  0.002114962    1.964    0.491
       215  -9.9600    143.9866    103.6666   5.4699760907e+01   3.3249173553e+01    0.2029892    0.1938899  61.25 0.0009316034    1.123    0.110
       216 -12.0762    110.5209    102.8133   6.2247533197e+01   3.9976911046e+01    0.4648639    0.2923752 -15.64  0.001188153    2.513    0.602
       217 -11.3436    100.6172    102.1632   6.4574179761e+01   4.1890876196e+01    0.2144213    0.1764166 -37.19 0.0003552873    1.106    0.096
       218  -9.5719    226.2829    101.6641   3.9582632268e+01   1.6544137622e+01    0.2390485    0.1402556 -43.76 0.0003452525    1.472    0.320
       219 -10.3550    225.9831     98.5295   3.8946344246e+01   1.7171068060e+01    0.2157389    0.1880454   0.51 0.0006094715    1.665    0.399
       220 -12.1507     53.0871     99.8840   7.7066003799e+01   4.9526396662e+01    0.3782958    0.2536618 -23.92   0.00113169    1.624    0.384
       221 -12.8707     50.4732     95.5254   7.6695935448e+01   5.0742582796e+01    0.5187382    0.3503094  58.19  0.002664624    2.387    0.581
       222  -9.5446    234.4377    101.4594   3.8398515153e+01   1.4992847326e+01    0.1389153    0.1123852 -57.53 0.0001000703    1.020    0.020
       223 -10.3578     69.6827    101.6795   7.2787352388e+01   4.6935093293e+01    0.1413395   0.09703451 -21.57 0.0003222837    1.662    0.398
       224 -10.7746    151.0208     96.7462   5.1408775285e+01   3.3131064273e+01    0.4872187    0.2747887 -56.55  0.002056436    2.035    0.509
       225 -11.8201    156.0147     96.0123   5.0202229638e+01   3.2222556387e+01    0.5248117    0.3621959  21.67  0.002353058    2.208    0.547
       226 -11.4226    139.0366     97.6748   5.4199245213e+01   3.5429685896e+01    0.2821167    0.1753279  41.97 0.0006253996    1.772    0.436
       227 -12.6266    127.7403     99.8942   5.7332658426e+01   3.7267618041e+01    0.3996184     0.288078  27.33 0.0002605406    1.705    0.413
