#   1 NUMBER                 Running object number                                     
#   2 MAG_AUTO               Kron-like elliptical aperture magnitude                    [mag]
#   3 X_IMAGE                Object position along x                                    [pixel]
#   4 Y_IMAGE                Object position along y                                    [pixel]
#   5 X_WORLD                Barycenter position along world x axis                     [deg]
#   6 Y_WORLD                Barycenter position along world y axis                     [deg]
#   7 A_WORLD                Profile RMS along major axis (world units)                 [deg]
#   8 B_WORLD                Profile RMS along minor axis (world units)                 [deg]
#   9 THETA_WORLD            Position angle (CCW/world-x)                               [deg]
#  10 FWHM_WORLD             FWHM assuming a gaussian core                              [deg]
#  11 ELONGATION             A_IMAGE/B_IMAGE                                           
#  12 ELLIPTICITY            1 - B_IMAGE/A_IMAGE                                       
         1 -13.4006    194.2825     27.3456   7.0272484716e+01   3.3215124272e+01     1.525649     1.195513 -27.73  0.005765291    1.363    0.266
         2 -12.1951    203.9446     21.7841   6.7477444808e+01   3.1354911952e+01     1.192613     0.404281 -40.45  0.004427611    2.709    0.631
         3 -13.4351    210.9831      7.2838   6.2781552431e+01   3.1132076321e+01     1.065612    0.8813562  60.20  0.003736682    1.257    0.204
         4 -11.5631      3.1981      4.4895   1.1966075886e+02   7.3901078621e+01    0.4988254    0.2342479 -36.06  0.003079632    1.622    0.384
         5 -12.1225      2.8078     20.4302   1.2632824721e+02   7.1184339325e+01    0.5446613    0.2035626 -54.58  0.002936991    2.025    0.506
         6 -10.6603     81.2270    248.5025   1.3996487452e+02   1.5431330456e+01    0.2868784    0.1458372  61.80  0.001734424    1.679    0.404
         7 -11.5066    124.4719    249.8747   1.3263240391e+02   8.8699436195e+00    0.4868158    0.1764551  45.64  0.002419333    2.060    0.515
         8 -12.4180    128.4923    245.6635   1.3148611660e+02   8.8755004187e+00     0.624077      0.20882  39.21   0.00277282    2.643    0.622
         9 -12.1041    140.3608    249.8594   1.2984972139e+02   6.3914743308e+00    0.6312701    0.2524689  42.48   0.00323081    1.918    0.479
        10 -10.8888     98.7034    249.2004   1.3703849811e+02   1.2841982043e+01    0.2429111    0.1780785  60.64  0.001437836    1.052    0.050
        11 -12.3747     33.7395    246.5555   1.4763967671e+02   2.1731106138e+01     1.224046    0.9633796 -13.31  0.007772889    3.762    0.734
        12 -13.1280     47.0858    203.5020   1.4254382850e+02   2.8005882582e+01     3.638246    0.9185817  60.71  0.009211764    9.321    0.893
        13 -11.6746     83.7603    224.7951   1.3749671870e+02   1.9114485650e+01     1.162741   0.08036593  48.40  0.002791744    9.006    0.889
        14 -13.4437    111.5318    231.0917   1.3299689395e+02   1.3851615844e+01      3.23064    0.1452064  41.60  0.006375432   12.580    0.921
        15 -10.0362    172.4452    222.0063   1.2044633202e+02   5.1393531462e+00    0.2308836    0.1594439 -18.12  0.001284572    2.106    0.525
        16  -8.8600     94.6126    216.8156   1.3466389402e+02   1.8961641182e+01    0.1607816    0.1032906 -87.78 0.0006395156    1.700    0.412
        17  -9.0274    152.5116    213.0156   1.2293591910e+02   1.0041403243e+01    0.1855106    0.1479287  47.00 0.0003286772    1.045    0.043
        18 -12.3788      9.5352    206.9436   1.4963364615e+02   3.1365295594e+01     0.636897    0.3862756  36.42  0.003433644    1.895    0.472
        19 -14.8989      7.0146    143.3186   1.4605340275e+02   4.4690127985e+01     5.751002     1.118608 -78.80   0.01891483    5.036    0.801
        20 -11.6715     61.2606    200.6951   1.3955406522e+02   2.6782594387e+01    0.2515716    0.2192796 -69.13 0.0004944709    1.419    0.295
        21  -9.5178    192.0050    193.0013   1.1200507133e+02   6.0604140409e+00    0.3929933    0.2159358 -65.81  0.001259729    5.689    0.824
        22 -10.2059     17.3324    198.4373   1.4777033402e+02   3.2256160313e+01    0.2898133    0.1377978  53.99  0.001231562    1.709    0.415
        23 -11.9487     67.5828    192.1428   1.3744593608e+02   2.7667629899e+01    0.2506548    0.2162984 -80.19 0.0004671155    1.250    0.200
        24 -12.8869     34.8553    235.2362   1.4684856607e+02   2.3539247605e+01    0.2707194     0.213207  89.83 0.0008017955    1.328    0.247
        25 -13.9131     39.8806    228.6208   1.4561260209e+02   2.4132365255e+01    0.7705861    0.4936413  63.40  0.002612382    1.143    0.125
        26 -10.7645     77.7546    178.8679   1.3378617448e+02   2.9015113917e+01    0.2283656     0.196105 -87.42 0.0003496142    1.119    0.106
        27 -13.1621     64.5331    177.0937   1.3646147909e+02   3.1236302449e+01    0.4652187    0.2697675 -49.02  0.001786395    2.241    0.554
        28  -9.5827    100.6575    177.1811   1.2851086109e+02   2.5828247477e+01     0.333913    0.1953181  74.23  0.001343615    2.197    0.545
        29 -11.8050     85.5668    169.5075   1.3081163219e+02   2.9869245900e+01    0.6312315    0.5768673   2.28  0.003912402    1.552    0.355
        30  -9.9291      2.7250    248.7937   1.5247834714e+02   2.4616600865e+01    0.2147517    0.1251709 -87.24  0.001711742    1.492    0.330
        31  -9.3514    100.6878    149.0386   1.2398750976e+02   3.1966846298e+01    0.2395741    0.2022067  39.29 0.0003561873    1.285    0.222
        32 -11.9219     86.3345    152.6104   1.2810183420e+02   3.3504530464e+01    0.2776025    0.2414858 -53.39 0.0004418314    1.290    0.225
        33 -10.1265     97.8237    153.3997   1.2544329644e+02   3.1472391345e+01     0.306294    0.2900334 -50.23 0.0009710568    1.242    0.195
        34 -12.1164     67.2366    143.5725   1.3142055772e+02   3.8356754183e+01    0.6678205      0.41125  65.31  0.003387567    1.769    0.435
        35  -8.6946    182.6877    145.9152   1.0445500891e+02   1.6127192831e+01    0.2637402      0.16794  85.55 0.0008941101    3.621    0.724
        36  -9.9363    109.5467    137.8349   1.1965810819e+02   3.2926856328e+01    0.4321173    0.3053114 -14.43  0.001587843    2.554    0.608
        37 -10.3024     96.6955    135.2865   1.2243665897e+02   3.5772088355e+01    0.2365199     0.221512 -46.73    0.0003941    1.199    0.166
        38 -11.4705    243.5232    246.7442   1.1175183287e+02  -9.2976982689e+00    0.2577671    0.1988459  16.10  0.001949708    1.085    0.079
        39  -9.0982    106.7329    124.2836   1.1753201287e+02   3.6514424903e+01    0.1774656    0.1668954  -7.86 0.0003028276    1.261    0.207
        40  -9.4907    167.9523    112.9938   9.9717707945e+01   2.5850896279e+01    0.2460569    0.2214941 -83.41  0.001240712    1.220    0.180
        41  -8.5223    203.3103    111.7039   9.2155468596e+01   1.7733598695e+01    0.1506375    0.1194828 -74.33 0.0002674861    1.594    0.373
        42 -11.2890     12.9659    241.7876   1.5066736614e+02   2.4766810422e+01    0.3844845    0.1523299  82.02  0.002329189    2.220    0.549
        43  -9.2448     38.3932     94.8475   1.3124111992e+02   5.3050905451e+01    0.1877563    0.1636069  62.94  0.000568906    1.288    0.224
        44 -10.3043     22.4678    245.3003   1.4934820555e+02   2.3183265292e+01    0.1869197   0.07489754  57.20  0.001180162    1.757    0.431
        45  -8.7167     68.5356     83.5337   1.1890784340e+02   5.2025163798e+01    0.1363138    0.1230773 -66.16 0.0001170856    1.107    0.096
        46  -9.7337    157.1752     75.8798   9.1707734316e+01   3.5576318042e+01    0.2466598    0.2154364 -75.38 0.0008248366    1.267    0.211
        47 -10.2246     82.2970    242.6296   1.3931236544e+02   1.6244852186e+01    0.1895184    0.1186838  85.44  0.000930456    1.635    0.388
        48 -11.0400     13.6196     54.7462   1.3141989796e+02   6.3837589352e+01    0.1993253    0.1853479  83.66  0.001084755    1.324    0.245
        49  -9.8924     47.0176    249.5008   1.4568332177e+02   1.9690409784e+01    0.1524215   0.07755572  47.83  0.001007682    1.521    0.342
        50 -11.0113    186.4850    240.9706   1.2059344444e+02   1.5230580631e-01     0.231015    0.1769348 -76.76  0.001436232    2.245    0.555
        51 -12.7359     49.3992    217.2231   1.4316388973e+02   2.5086985974e+01     1.103782    0.6312563  75.82  0.006944348    1.525    0.344
        52 -11.1839    237.6589    247.9022   1.1288003337e+02  -8.5704920022e+00    0.2520832    0.1940139 -17.51  0.001889608    1.461    0.316
        53 -10.0004    225.7404    249.7501   1.1511428968e+02  -7.0116305554e+00    0.1781348   0.07643752  47.28 0.0008982162    2.427    0.588
        54 -11.8831    172.8711    248.3201   1.2396144174e+02   1.4058420481e+00    0.4638436    0.2426446  49.24  0.002634018    1.657    0.397
        55 -11.2786    152.6367    248.3355   1.2751811608e+02   4.6539330036e+00    0.2756543    0.2109712 -88.14  0.001392118    1.800    0.444
