#   1 NUMBER                 Running object number                                     
#   2 MAG_AUTO               Kron-like elliptical aperture magnitude                    [mag]
#   3 X_IMAGE                Object position along x                                    [pixel]
#   4 Y_IMAGE                Object position along y                                    [pixel]
#   5 X_WORLD                Barycenter position along world x axis                     [deg]
#   6 Y_WORLD                Barycenter position along world y axis                     [deg]
#   7 A_WORLD                Profile RMS along major axis (world units)                 [deg]
#   8 B_WORLD                Profile RMS along minor axis (world units)                 [deg]
#   9 THETA_WORLD            Position angle (CCW/world-x)                               [deg]
#  10 FWHM_WORLD             FWHM assuming a gaussian core                              [deg]
#  11 ELONGATION             A_IMAGE/B_IMAGE                                           
#  12 ELLIPTICITY            1 - B_IMAGE/A_IMAGE                                       
         1 -13.4235     68.5942    144.1649   1.0929488923e+02   3.7376830035e+01     2.768942     1.294686  87.79  0.007653568    5.941    0.832
         2 -13.6596    213.5926     21.1066   4.3718644748e+01   2.9044683368e+01     1.650756     1.102338  20.97  0.007836019    2.363    0.577
         3 -13.4288    200.3591     34.4471   4.8872026557e+01   3.0706422826e+01     1.219576     1.010279  21.45  0.005423583    1.514    0.339
         4 -10.1835     32.7703      9.4194   8.3276067407e+01   7.0168821917e+01    0.4865862   0.08165298 -38.23   0.00157692    5.251    0.810
         5 -10.0758     42.1385      3.3891   7.5738221025e+01   6.9721597137e+01    0.2097056     0.151501  48.63  0.001306912    1.956    0.489
         6  -9.6499     99.5298    180.9082   1.0743702735e+02   2.4228440221e+01    0.2435327    0.1917242  24.56 0.0007604567    1.590    0.371
         7 -10.4561    139.8695    250.0536   1.0824662287e+02   4.8923290573e+00    0.2645054    0.1241499  44.82  0.001413325    1.668    0.400
         8 -15.2022     27.5917     41.7133   9.9333522817e+01   6.5257465025e+01     3.666732     2.936306 -43.09   0.01667058    1.121    0.108
         9 -11.7844    107.1529    172.6524   1.0441001498e+02   2.4772706481e+01     2.760129    0.4744998  48.59  0.005186367   10.629    0.906
        10 -12.5285     68.7695    160.1206   1.1165739032e+02   3.3579071244e+01    0.6299469    0.3611147 -45.24  0.001387564    2.160    0.537
        11 -14.2050     49.6556    203.2092   1.2067301759e+02   2.6534656825e+01     2.779879     1.664871  74.48   0.01645456    1.512    0.339
        12  -8.9588    193.7104    165.9454   8.3887341471e+01   9.4686137047e+00    0.2001715    0.1868119  -7.21 0.0007730054    1.050    0.048
        13 -14.2904      3.2999    128.4986   1.2421806524e+02   4.7628553616e+01     1.084461    0.3505039 -78.10  0.003900632    2.533    0.605
        14 -10.5537    133.8105    143.1971   9.2393118449e+01   2.6412447811e+01    0.7235632    0.1891977 -52.54  0.001943852    4.406    0.773
        15 -10.9965     67.4216    179.4030   1.1448575097e+02   2.9360706037e+01    0.4041806    0.2594726 -40.27  0.001969291    2.320    0.569
        16  -9.6712     39.0353    146.4329   1.1717661491e+02   4.0409389984e+01    0.2914859    0.1780626  55.56  0.001001327    1.679    0.404
        17  -9.8389    101.8973    141.7451   1.0016860334e+02   3.2765627990e+01    0.5203192    0.2989266 -32.63  0.002016997    2.708    0.631
        18  -9.2034     84.6715    144.3110   1.0513368402e+02   3.4993026816e+01    0.2775271    0.1900682  62.02   0.00123353    1.583    0.368
        19 -11.5252     89.2235    141.7142   1.0347169131e+02   3.4893200469e+01    0.2880346    0.2540086 -46.65 0.0004576932    1.226    0.184
        20 -14.0616      8.2816    204.9950   1.2863540767e+02   3.0605670126e+01     1.826041    0.7574999  88.69  0.004037109    2.078    0.519
        21 -11.3823     86.9084    157.9353   1.0687969705e+02   3.1433211433e+01    0.5816968    0.3832205 -35.91  0.001578712    2.124    0.529
        22  -9.8199    111.1518    131.4565   9.5588370545e+01   3.3511945552e+01    0.2810744    0.2362559 -18.26 0.0009160009    1.478    0.324
        23  -9.5951    106.1971    130.6981   9.6738799052e+01   3.4601972974e+01    0.3127151    0.2632368 -79.95  0.001450743    1.238    0.192
        24 -10.9362    135.4950    125.9368   8.8001631978e+01   2.9927552578e+01    0.8281742    0.1804079 -49.75  0.001994243    5.105    0.804
        25 -10.4745    193.3484    192.9916   8.9313664565e+01   4.8359373628e+00    0.6792369    0.4069262 -51.32   0.00325681    2.131    0.531
        26 -10.1868     98.4300    127.6578   9.8175697450e+01   3.6700791572e+01    0.2852709    0.2421557 -23.22 0.0004478417    1.422    0.297
        27 -11.6907     81.5269    164.0826   1.0914811784e+02   3.0828314060e+01    0.6420535    0.4903475  59.46 0.0006069535    1.255    0.203
        28 -10.4048     82.5968    194.9948   1.1303819078e+02   2.3823673834e+01    0.3025057    0.2157161  47.38  0.001640035    1.301    0.231
        29  -9.6048    125.5952    126.8200   9.0743443607e+01   3.1772668422e+01    0.2226843    0.1439836 -61.11  0.000868094    1.709    0.415
        30  -9.9247    116.6088    125.8797   9.2876984509e+01   3.3769819929e+01    0.2978317    0.2018431  79.93  0.001212422    2.223    0.550
        31  -9.1636    107.8032    119.8730   9.3839998456e+01   3.6843665785e+01    0.2131351    0.1971752 -32.17 0.0003020375    1.150    0.131
        32  -9.5688     10.2265    195.1347   1.2771932077e+02   3.2420360671e+01    0.1849636    0.1200372  57.97 0.0004319489    1.319    0.242
        33  -9.3183    168.1443    112.9254   7.6873778595e+01   2.5418888698e+01     0.333375    0.2325821 -80.49  0.001315085    2.263    0.558
        34 -10.3736     73.7820    188.3907   1.1415252144e+02   2.6505557435e+01    0.3721743    0.2086351  72.31  0.001437124    2.026    0.506
        35  -9.1355    205.7043    110.1538   6.8460072474e+01   1.7200174894e+01    0.2472374    0.2128416  70.21 0.0005519295    1.312    0.238
        36  -9.9742    134.5797    105.7752   8.3049695669e+01   3.4575147685e+01    0.4043695    0.1495437 -46.51  0.001307948    2.688    0.628
        37 -17.2816     11.4792    240.8100   1.2983611830e+02   2.3560092063e+01      2.77804     1.317901  39.25   0.01823993    2.047    0.511
        38  -8.4915     91.4974    102.5546   9.4241851650e+01   4.3804500625e+01    0.1478135    0.1370985 -73.48 0.0005662049    1.099    0.090
        39  -9.4524    121.0061     98.7461   8.4725020752e+01   3.9020132421e+01    0.2056704    0.1341072  44.69 0.0008914263    1.581    0.367
        40 -16.7965     20.4853    123.3365   1.1913255443e+02   4.7585773747e+01     3.290449     1.425955 -71.35   0.01058894    1.846    0.458
        41 -15.4149     82.8012    227.4375   1.1646530906e+02   1.7360825443e+01     5.546181     2.112653  45.84   0.02045608    2.109    0.526
        42  -8.6191     39.9253    177.4486   1.2034438031e+02   3.3196630182e+01      0.16459    0.1099641  44.91 0.0004944278    1.502    0.334
        43 -10.7738    145.7126     50.2183   6.3211298822e+01   4.2478349603e+01    0.5895833    0.3649367 -81.99  0.002146347    2.998    0.666
        44 -11.0226    169.6738    232.2027   1.0038300161e+02   2.7614619351e+00    0.3208365    0.1534023 -45.24  0.001610448    2.533    0.605
        45 -12.3195    192.4752     40.7860   5.1758977618e+01   3.1870806645e+01    0.5086009    0.4487163  70.09  0.001483502    1.105    0.095
        46 -11.0265    172.1865    218.1826   9.7799204527e+01   4.5063439459e+00    0.2694511    0.2000956  37.29  0.001598815    1.147    0.128
        47 -10.9495     72.0526    173.9324   1.1275158763e+02   2.9949325268e+01     0.284267    0.2352093 -55.41 0.0006275713    1.368    0.269
        48  -9.7937    147.5554     43.6677   6.0617741439e+01   4.2995753634e+01    0.2669502    0.2410482  85.86 0.0004796445    1.187    0.157
