#   1 NUMBER                 Running object number                                     
#   2 MAG_AUTO               Kron-like elliptical aperture magnitude                    [mag]
#   3 X_IMAGE                Object position along x                                    [pixel]
#   4 Y_IMAGE                Object position along y                                    [pixel]
#   5 X_WORLD                Barycenter position along world x axis                     [deg]
#   6 Y_WORLD                Barycenter position along world y axis                     [deg]
#   7 A_WORLD                Profile RMS along major axis (world units)                 [deg]
#   8 B_WORLD                Profile RMS along minor axis (world units)                 [deg]
#   9 THETA_WORLD            Position angle (CCW/world-x)                               [deg]
#  10 FWHM_WORLD             FWHM assuming a gaussian core                              [deg]
#  11 ELONGATION             A_IMAGE/B_IMAGE                                           
#  12 ELLIPTICITY            1 - B_IMAGE/A_IMAGE                                       
         1 -14.9113    164.2029     43.3141   7.7883324706e+01   3.8846911555e+01     1.304588     1.069479 -13.05  0.004089565    1.437    0.304
         2 -14.9041    180.4491     10.1135   6.6035991648e+01   3.8755069325e+01     2.018335    0.9768225  62.68  0.006796096    1.740    0.425
         3  -9.2313     15.4906    246.7223   1.5011757685e+02   2.2054208235e+01    0.1440886   0.07208586  82.81 0.0009183738    1.606    0.377
         4 -19.9253     66.5387    171.0865   1.3345912660e+02   3.1681841077e+01     18.08913     7.682024 -66.60   0.07825641    2.185    0.542
         5 -12.1637    125.1180    241.8695   1.3065615279e+02   7.5278698960e+00    0.4566257    0.1607439 -55.10  0.001947972    3.269    0.694
         6 -10.1322    160.4490    243.5117   1.2416521016e+02   1.1553192547e+00    0.1285315    0.1070624  46.86 8.659264e-06    1.015    0.014
         7 -12.2410    153.5614    186.2619   1.1624779240e+02   1.3094037921e+01    0.3538262    0.2730662 -65.81  0.001209288    1.441    0.306
         8 -11.2999    151.0246    181.2594   1.1586405644e+02   1.4651678391e+01    0.2301646    0.1948723  77.07  0.000429708    1.265    0.210
         9  -9.7041     12.8614    242.6084   1.5029202711e+02   2.3094090495e+01    0.1895091    0.1090142 -59.99  0.001242569    2.270    0.560
        10 -11.5152     30.6188    182.9381   1.4265794223e+02   3.3362006873e+01    0.2156707    0.1691376  41.94 0.0005104693    1.515    0.340
        11 -13.6105    144.8485    172.5565   1.1556961178e+02   1.7769673527e+01    0.8269357    0.7296758 -21.27  0.004372312    1.363    0.266
        12 -11.4731    167.0584    175.0471   1.1111054160e+02   1.2676622116e+01    0.2404631    0.1848237  86.68 0.0008410606    1.709    0.415
        13 -10.0212     11.7746    174.0197   1.4564918179e+02   3.7164601565e+01    0.1447705    0.1001102 -68.33 0.0002794167    1.301    0.231
        14 -11.9299    125.7975    171.9737   1.1983543874e+02   2.1650042206e+01    0.3634942    0.2981009 -89.66  0.001128083    1.285    0.222
        15 -10.0761    151.2192    241.8954   1.2569784019e+02   3.0325954454e+00    0.1535967    0.1402544   8.52 0.0006080757    1.345    0.256
        16 -11.2485    163.7823    169.8002   1.1075956267e+02   1.4458648509e+01    0.2116918    0.1779399  77.17 0.0007988723    1.338    0.252
        17 -11.6523    109.1116    240.0909   1.3345474533e+02   1.0505288997e+01    0.1796869    0.1514529  62.92  0.000484043    1.073    0.068
        18 -12.0091    230.1649    166.9535   9.6575479982e+01   1.2967107490e+00    0.4082923    0.1925285 -49.52  0.001599395    2.544    0.607
        19 -11.2427     25.2695    165.0992   1.4194776245e+02   3.7893364237e+01     0.192353    0.1676992 -75.79 0.0005042747    1.208    0.172
        20 -12.6935    142.2169    165.7863   1.1482611505e+02   1.9795225593e+01    0.4429279    0.3421322 -76.12 0.0006107591    1.477    0.323
        21 -13.4256    136.7836    170.7603   1.1706492263e+02   1.9781170713e+01    0.7458087    0.5910072  54.45  0.002380006    1.223    0.183
        22 -10.6474     28.6224    239.9269   1.4762798128e+02   2.1845152052e+01      0.14675   0.09551887  79.94  0.000415031    1.144    0.126
        23 -11.0648    188.8541    158.4118   1.0288291811e+02   1.1461911952e+01    0.4725748    0.3151892  23.01  0.001765901    1.983    0.496
        24 -10.8730    189.0680    154.5022   1.0196770111e+02   1.2207854141e+01    0.6699122    0.2812973  40.54  0.002350301    2.548    0.607
        25 -11.5698     23.0986    154.9926   1.4131041038e+02   4.0385155650e+01    0.4547307    0.1992029 -64.76  0.002047694    1.798    0.444
        26 -11.1022     21.6583    238.5343   1.4866360924e+02   2.2898622018e+01    0.1072677   0.08732765  75.92 0.0008362927    1.275    0.216
        27 -10.1486    177.0307    154.8582   1.0462839572e+02   1.4765613958e+01    0.2295142    0.2029128  85.09 0.0005217523    1.266    0.210
        28 -12.4129    161.4527    153.2731   1.0774680028e+02   1.8500185896e+01    0.3029115    0.2895586  62.05 0.0008416701    1.027    0.026
        29 -10.4633    138.9319    243.4425   1.2824279644e+02   4.8999001277e+00    0.1645169    0.1481983 -81.31  0.001098063    1.252    0.201
        30 -11.6966    174.3888    148.5024   1.0377385484e+02   1.6684485076e+01     0.384997    0.2981729 -64.17  0.001155411    1.460    0.315
        31 -10.1227     29.9514    232.4883   1.4690279330e+02   2.3114614387e+01    0.1510733   0.09009334  51.79  0.000992468    1.483    0.326
        32 -10.7222     13.7895    232.6270   1.4956530675e+02   2.4874134940e+01   0.09680559   0.06552175 -70.39 0.0006819887    1.579    0.367
        33 -10.9456      1.7881    140.0007   1.4453081500e+02   4.5459163342e+01    0.1712909    0.1268792 -73.13 0.0006034893    1.064    0.060
        34 -11.9249      7.3872    138.5754   1.4307571800e+02   4.5379643580e+01    0.2739305    0.2575118  29.44  0.001084689    1.431    0.301
        35 -10.5725    170.9556    137.0135   1.0185697719e+02   1.9894928227e+01    0.2464203    0.1927006  89.56 0.0005569344    1.628    0.386
        36 -12.7460    160.4112    127.9282   1.0205628861e+02   2.4239429097e+01    0.5051945     0.380087 -56.14  0.001702957    1.384    0.278
        37 -10.9926     16.7466    225.7310   1.4865102685e+02   2.5896281552e+01   0.09195758   0.07267235 -74.93 0.0003244866    1.448    0.309
        38 -11.8229     22.4157    221.1173   1.4738197943e+02   2.6199384632e+01    0.2038313    0.1219266 -69.25  0.001216446    1.606    0.377
        39 -15.3191    100.4749    243.4393   1.3543027146e+02   1.1278302100e+01    0.7739486    0.6283225 -61.93  0.005166501    1.485    0.327
        40 -11.0978     23.4952    215.4520   1.4678614025e+02   2.7222727590e+01     0.139493   0.08781112 -72.40 0.0009122081    1.453    0.312
        41 -11.0108    167.5980    112.6528   9.6553425431e+01   2.5803559863e+01    0.3974948    0.2687415  85.06  0.001540253    2.301    0.565
        42 -13.1744    107.7864    207.8874   1.2963019610e+02   1.7054169990e+01    0.6743276    0.4158933  89.66  0.003209267    2.058    0.514
        43 -10.8240    205.4493    110.1610   8.8121017936e+01   1.7312036235e+01    0.3286333    0.2208896  44.38 0.0009325272    1.587    0.370
        44 -11.1315    138.6214    250.5455   1.2920917644e+02   3.7580106995e+00     0.195193    0.1237687  38.76   0.00110595    1.448    0.309
        45 -13.1771     11.2984    206.0755   1.4826141451e+02   3.0398036880e+01    0.3597489    0.2563666  37.30  0.002128744    1.784    0.440
        46  -9.5205     16.1890    201.9284   1.4708311628e+02   3.0771858744e+01    0.1409422    0.0774008 -73.04 0.0004273933    1.515    0.340
        47 -10.2151    138.8317    200.0913   1.2187443032e+02   1.3093018408e+01    0.2234641     0.174846  81.11   0.00117773    1.423    0.297
        48 -10.2601    133.9559    244.9415   1.2937489074e+02   5.4939554927e+00    0.1285724    0.1112252 -72.60 0.0003259381    1.322    0.244
        49 -10.5582    112.2795    196.6789   1.2704488464e+02   1.8659774131e+01    0.3721491    0.2557272   7.13  0.001543048    3.167    0.684
        50 -10.4487    144.7204     81.0006   9.3169871337e+01   3.7457260262e+01    0.2134025    0.1992047 -39.68 0.0003959118    1.084    0.078
        51 -14.4077    152.6306     57.9619   8.4540383588e+01   3.9529831158e+01     1.273635     1.110149  38.72 0.0009736737    1.152    0.132
        52 -11.4141    153.4051    193.8540   1.1766979435e+02   1.1563707854e+01    0.3208672    0.2688066  73.39 0.0007655587    1.272    0.214
        53 -13.0790    168.3946     35.1055   7.4760465271e+01   3.8895220127e+01    0.3991238    0.3862613  71.09  0.000949069    1.074    0.069
        54 -11.1795     13.5122     59.7988   1.2786506003e+02   6.1790651387e+01    0.1820089    0.1665321 -47.77 0.0004151188    1.242    0.195
        55 -10.1134    141.6843     32.7406   7.9081084660e+01   4.5682869225e+01    0.1785252    0.1544031 -87.03 0.0005220574    1.316    0.240
