#   1 NUMBER                 Running object number                                     
#   2 MAG_AUTO               Kron-like elliptical aperture magnitude                    [mag]
#   3 X_IMAGE                Object position along x                                    [pixel]
#   4 Y_IMAGE                Object position along y                                    [pixel]
#   5 X_WORLD                Barycenter position along world x axis                     [deg]
#   6 Y_WORLD                Barycenter position along world y axis                     [deg]
#   7 A_WORLD                Profile RMS along major axis (world units)                 [deg]
#   8 B_WORLD                Profile RMS along minor axis (world units)                 [deg]
#   9 THETA_WORLD            Position angle (CCW/world-x)                               [deg]
#  10 FWHM_WORLD             FWHM assuming a gaussian core                              [deg]
#  11 ELONGATION             A_IMAGE/B_IMAGE                                           
#  12 ELLIPTICITY            1 - B_IMAGE/A_IMAGE                                       
         1 -14.5056    213.1073     21.8922   4.3189436107e+01   2.9472166137e+01     1.414424    0.9828026  31.63  0.007188774    2.001    0.500
         2 -14.4589    200.3624     35.4233   4.8344724096e+01   3.0918508703e+01      1.98316     1.271434  32.32  0.008131695    2.161    0.537
         3 -11.1779      2.2875      4.2354   9.6744228000e+01   7.3730245466e+01    0.4853909   0.03520029 -48.19  0.001575044    5.842    0.829
         4 -10.8425    237.2186      1.4737   3.6082113681e+01   2.6102383431e+01    0.4387395    0.1120142  74.58  0.001601926    3.757    0.734
         5 -11.5629    193.4173    193.6301   8.8514587242e+01   4.7027806604e+00    0.8136474    0.4397553 -55.71  0.003443495    2.859    0.650
         6 -15.4809    247.3919    240.3268   8.6752065485e+01  -1.0270293700e+01     1.333003    0.5706316 -27.70  0.007203173    2.429    0.588
         7 -14.4445     87.6129    228.1418   1.1484298494e+02   1.6129148012e+01     1.896997    0.9644148  47.53   0.00156895    1.619    0.382
         8 -14.1490     12.6686    139.8959   1.2231685916e+02   4.3989741228e+01     1.328307    0.8257271  87.88  0.004776591    1.383    0.277
         9 -12.9973     13.4923    189.6710   1.2606368896e+02   3.2786629053e+01    0.3459026    0.2422806  77.48 0.0005195133    1.089    0.082
        10 -15.8781     70.4020    248.2643   1.1972650164e+02   1.4879008722e+01     8.862657     2.795791  30.80   0.01896051    8.304    0.880
        11 -11.1922    150.2134    189.4663   9.6730330169e+01   1.3358346238e+01    0.3054577    0.2026286 -44.89    0.0010774    1.644    0.392
        12 -10.1068     99.4958    180.9061   1.0665260523e+02   2.3950452126e+01    0.2321111    0.1912387  25.11 0.0006367853    1.470    0.320
        13 -11.8982     67.6071    178.7897   1.1362088021e+02   2.9121151425e+01    0.3793456    0.2535869 -39.66  0.001967801    2.155    0.536
        14 -11.6796     72.2687    173.5045   1.1189186545e+02   2.9686771034e+01    0.3068542     0.221028 -47.81 0.0007629564    1.645    0.392
        15 -15.6893      7.8294    205.2180   1.2803658658e+02   3.0099020888e+01     1.860176     1.010368  82.72  0.005319375    1.448    0.309
        16 -12.0118     87.8650    156.8215   1.0568928688e+02   3.1289879842e+01    0.6902962    0.5282542 -49.96  0.001512652    1.385    0.278
        17 -12.6971     81.5182    163.5308   1.0830282569e+02   3.0672204991e+01     1.558625    0.4643315  48.69 0.0005528617    3.747    0.733
        18 -13.3049     68.7550    159.9638   1.1089238572e+02   3.3314451334e+01    0.5116987    0.3160145 -42.19  0.001065593    2.086    0.521
        19 -14.3192     68.6445    144.1060   1.0853114847e+02   3.7120431322e+01     8.315138     2.458372  53.46  0.004618476    7.971    0.875
        20  -9.6372    192.9545    165.2901   8.3003313072e+01   9.7978115993e+00    0.2068604    0.1845756  25.44  0.001152027    1.074    0.069
        21  -9.1950    161.7063    166.7116   8.9963464635e+01   1.5708786848e+01    0.1435011    0.1143967   2.02            0    1.547    0.354
        22 -13.9418     42.8926    205.6746   1.2147671435e+02   2.6383231742e+01    0.8375656    0.5852939 -87.86  0.002727463    1.230    0.187
        23 -11.5155    133.4533    142.1332   9.1416649782e+01   2.6629787010e+01    0.6807872    0.2258002 -54.81  0.002023222    3.599    0.722
        24 -10.4547    174.8944    149.1382   8.3311807071e+01   1.6591615546e+01    0.2322244    0.2126544  88.90 0.0007191287    1.271    0.213
        25  -9.9868     38.6915    146.3502   1.1655074599e+02   4.0140695432e+01    0.2217921    0.1631881  72.93  0.001237806    1.307    0.235
        26  -9.8792     84.6901    144.0133   1.0431144797e+02   3.4832036839e+01    0.2619554    0.1827724  59.26 0.0008301065    1.533    0.347
        27 -12.4175     89.3464    141.4204   1.0261424776e+02   3.4731641254e+01    0.2771538    0.2467645 -50.11 0.0007073183    1.175    0.149
        28 -10.9950    102.1444    141.2561   9.9218512995e+01   3.2657702222e+01    0.5502783     0.330907 -28.78  0.002141648    2.733    0.634
        29 -13.7494     29.0079    166.9366   1.2105027591e+02   3.6312876618e+01     1.770855    0.6638595  25.51  0.007698016    3.645    0.726
        30 -11.4538     58.1140    131.0396   1.0922251005e+02   4.1653965991e+01     0.795148    0.3139968 -76.24  0.002635107    3.704    0.730
        31 -10.4024    111.3075    131.2920   9.4711649242e+01   3.3389985956e+01    0.3148308    0.2510252  -1.21 0.0009035709    1.715    0.417
        32 -10.4138    106.0781    130.7533   9.5991047261e+01   3.4466618460e+01    0.3271303    0.2979176  86.12  0.001104342    1.116    0.104
        33 -14.5191     18.6275    176.9098   1.2413452119e+02   3.5068587297e+01     1.862737    0.6064165  44.08  0.007516506    2.701    0.630
        34 -11.3975     28.6176    129.6810   1.1707105233e+02   4.5094438399e+01    0.5329985    0.3387996 -27.23  0.002814996    2.342    0.573
        35 -16.9146     11.7972    241.0724   1.2909256094e+02   2.2920433254e+01     2.972908     2.337888  32.93   0.02380059    1.813    0.448
        36 -10.1035    126.2402    127.7952   8.9988856864e+01   3.1340020609e+01    0.2518981    0.1955066 -75.14 0.0007855476    1.508    0.337
        37 -10.9610     98.4793    127.5523   9.7360012528e+01   3.6561701961e+01    0.2822189    0.2397332 -23.44 0.0008667731    1.401    0.286
        38 -10.9862    117.1925    125.6741   9.1868720213e+01   3.3602318520e+01    0.3776525    0.2161357 -55.34  0.001568835    1.752    0.429
        39 -10.7926    135.3280    121.4882   8.6122664126e+01   3.0917172233e+01    0.5257573    0.1337728 -53.58  0.001089288    6.838    0.854
        40  -9.8371    168.3450    113.2795   7.6064181609e+01   2.5395531540e+01    0.3210916      0.23028 -80.29  0.001294714    2.103    0.524
        41  -9.8895    107.8079    119.8586   9.3045196752e+01   3.6732683458e+01    0.2115098    0.1956156 -32.93 0.0003090414    1.136    0.120
        42 -10.0042    205.5339    110.2112   6.7626335337e+01   1.7472685847e+01    0.2621535     0.215458  48.58 0.0006070294    1.285    0.222
        43 -11.2582     73.8810    188.4005   1.1337307883e+02   2.6129198215e+01    0.4473787    0.2155507  68.73  0.001858306    2.805    0.644
        44  -9.2460     95.4018    188.2215   1.0860697878e+02   2.2999846985e+01     0.173443    0.1205795 -80.66  0.000433905    1.509    0.337
        45 -10.9624     42.3052    104.4066   1.0913989881e+02   4.9890166580e+01    0.4312952    0.1472788  43.64  0.001641926    3.578    0.720
        46  -9.5124     91.7402    102.7967   9.3473883203e+01   4.3592994633e+01    0.1962618    0.1671124 -84.64  0.000527868    1.334    0.250
        47 -10.6011     41.7794     91.9890   1.0682078292e+02   5.2896505764e+01    0.1961893    0.1917781 -23.68 0.0004639275    1.185    0.156
        48 -10.2021     53.1962     90.5956   1.0270257604e+02   5.1988217445e+01     0.172585    0.1311899   3.68  0.000618644    1.643    0.391
        49  -9.6474     55.4895     66.0162   9.5298280258e+01   5.7225810282e+01    0.2023827    0.1182338 -50.57 0.0004132244    1.508    0.337
        50 -11.7136     13.4643     59.8900   1.0990047074e+02   6.2432878976e+01    0.2603875    0.1823845 -63.23 0.0006220457    1.231    0.188
        51 -11.7439     11.9140     53.4106   1.0895283716e+02   6.3911631863e+01    0.3269321   0.08895412 -50.25  0.001435065    2.425    0.588
        52 -15.3305     26.8777    147.8737   1.1965004106e+02   4.0930170444e+01      4.97141     1.893983 -87.44  0.005507311    3.250    0.692
        53 -12.5448    191.6189     41.4604   5.1278263447e+01   3.2297651805e+01    0.4980031    0.4730209  61.85  0.001004145    1.095    0.087
        54 -14.1330     52.1659    195.8578   1.1877237156e+02   2.7342795248e+01     1.666416     1.016016  69.67  0.007803284    1.505    0.336
        55 -10.2084    147.2582     43.6621   5.9903857841e+01   4.3208386063e+01    0.2376241    0.2149345 -74.43 0.0005424524    1.213    0.176
        56 -11.0595      6.0657     38.8557   1.0758290880e+02   6.7234961810e+01    0.1624974    0.1383939 -58.15 0.0004017231    1.247    0.198
        57 -11.2009      2.2680     50.1649   1.1218365178e+02   6.5102713017e+01    0.2796768    0.0863658 -66.58  0.001199864    2.807    0.644
        58 -12.1015      2.7374     25.1372   1.0489533595e+02   7.0066003086e+01    0.3519351    0.2061113 -49.81  0.002191973    1.300    0.231
        59 -10.8063    102.9721     16.0282   6.0090427764e+01   5.7170127923e+01     0.307262     0.190005  24.43  0.001508536    1.754    0.430
        60  -9.7850    189.5232     15.0532   4.4047461833e+01   3.6086208515e+01    0.1964262    0.1342952 -28.74 0.0006310444    1.555    0.357
        61 -11.4724    145.4845     49.9788   6.2400905945e+01   4.2695301391e+01    0.5833336    0.3684062 -80.01  0.002201213    2.826    0.646
        62 -10.9597    113.9152    199.8481   1.0617566805e+02   1.7604452333e+01      0.24238    0.1880582  85.90  0.001093953    1.388    0.279
