#   1 NUMBER                 Running object number                                     
#   2 MAG_AUTO               Kron-like elliptical aperture magnitude                    [mag]
#   3 X_IMAGE                Object position along x                                    [pixel]
#   4 Y_IMAGE                Object position along y                                    [pixel]
#   5 X_WORLD                Barycenter position along world x axis                     [deg]
#   6 Y_WORLD                Barycenter position along world y axis                     [deg]
#   7 A_WORLD                Profile RMS along major axis (world units)                 [deg]
#   8 B_WORLD                Profile RMS along minor axis (world units)                 [deg]
#   9 THETA_WORLD            Position angle (CCW/world-x)                               [deg]
#  10 FWHM_WORLD             FWHM assuming a gaussian core                              [deg]
#  11 ELONGATION             A_IMAGE/B_IMAGE                                           
#  12 ELLIPTICITY            1 - B_IMAGE/A_IMAGE                                       
         1 -16.0331     88.4301     74.5038   7.3351911368e+01   5.0698606867e+01      2.43962      1.73949  37.77  0.007836796    1.383    0.277
         2 -15.0386     86.0547     55.5398   6.7735882995e+01   5.4592109423e+01     1.551424     1.090938  55.13  0.005309551    1.686    0.407
         3 -13.5012    226.6097     32.6395   3.4430613224e+01   2.5900082960e+01    0.9829401    0.6946655  49.44  0.005955116    1.828    0.453
         4 -14.3978    203.5914     22.3260   3.4402555650e+01   3.2072840633e+01     1.504564    0.9859341  79.40  0.005154991    1.385    0.278
         5 -12.6839    202.9764     13.1041   3.2388248211e+01   3.3217837342e+01     0.652446      0.38932  76.01  0.002932027    1.490    0.329
         6 -13.7391    199.7103      3.5361   3.0548334170e+01   3.4902743265e+01      1.46953    0.6613397  71.39  0.005030813    1.916    0.478
         7 -12.2635    250.2684     10.9613   2.8344506461e+01   2.3732458256e+01    0.8720915    0.2381532 -34.54  0.003758293    3.454    0.711
         8 -10.3457    250.0096      2.4866   2.6820445562e+01   2.4690576590e+01    0.3027284    0.1757822  80.05  0.002011361    1.590    0.371
         9 -11.0417    219.1953     17.0561   3.1817453406e+01   2.9286416933e+01    0.4521761    0.2050079 -50.96  0.001939487    1.958    0.489
        10 -11.7491    177.2683      4.6732   3.2912047380e+01   3.9858491150e+01    0.5224681    0.3720834 -89.09  0.003236352    1.232    0.188
        11  -9.7667     95.6542      4.3193   4.5565090879e+01   5.8845884757e+01    0.1207524   0.09420563 -77.39 0.0007049206    1.728    0.421
        12  -9.9600     77.0530    225.6786   1.0686724053e+02   1.6730973000e+01     0.211746    0.1667917  83.21 0.0005035015    1.306    0.234
        13 -12.4670    203.7281    248.5774   8.2688699956e+01  -5.9901175707e+00    0.6168213    0.4818715  23.99  0.002245688    1.229    0.186
        14 -11.0714    198.1782    243.8190   8.3023486252e+01  -4.5344498815e+00    0.3777036    0.2373327   6.46  0.001464999    1.617    0.382
        15 -12.8165     57.7830    246.6282   1.1301396882e+02   1.4917607645e+01    0.8247865    0.6999012  12.58   0.00449769    1.540    0.351
        16 -11.5927     83.3037    245.1335   1.0753743838e+02   1.1892927922e+01    0.5725373     0.243289  44.24  0.002372594    1.977    0.494
        17 -11.1403     67.3761    240.4044   1.1047005538e+02   1.4950784062e+01    0.3783867    0.2302375  74.50  0.002038517    1.841    0.457
        18 -12.0734     35.7565    248.9484   1.1759324535e+02   1.7050780461e+01    0.9707761    0.3136657  29.00   0.00412056    3.388    0.705
        19 -10.7867     14.7600    248.2855   1.2155893601e+02   1.9399315910e+01    0.3282552    0.1895645  82.70  0.001130982    1.539    0.350
        20  -9.0685      1.5085    238.5015   1.2355272769e+02   2.2600161418e+01    0.1679739   0.08470378  82.69 0.0006998908    1.729    0.422
        21 -10.9760      2.7793    249.0762   1.2378909242e+02   2.0400472771e+01    0.4258722     0.217038 -87.97   0.00264494    1.753    0.429
        22  -9.9741      3.3612    242.1485   1.2337535448e+02   2.1703150699e+01     0.213636    0.1333643  70.39   0.00132872    1.267    0.211
        23 -11.3253     85.6069    221.7066   1.0445985331e+02   1.6392299637e+01    0.5399157    0.2997314 -86.01  0.001868248    2.579    0.612
        24 -13.5795      5.6312    150.5586   1.1684982252e+02   4.2301167883e+01     2.136321    0.6722149 -81.34  0.007394195    3.195    0.687
        25 -14.4937     29.1921    185.7144   1.1407218512e+02   3.1696996114e+01     5.069178     1.678671  61.47   0.01491551    5.521    0.819
        26 -11.9528      1.8551    187.4256   1.2069107867e+02   3.3687702945e+01    0.4957577    0.2341344 -85.79  0.001010114    1.842    0.457
        27 -13.8169      7.0794    181.1426   1.1903713767e+02   3.4760137202e+01     1.064077    0.6610442 -89.48  0.002860342    1.386    0.279
        28 -14.0352     22.6828    199.0993   1.1677734296e+02   2.9162548270e+01     1.155737    0.8104136  63.39  0.003562531    1.284    0.221
        29  -9.0056     67.5896    206.4757   1.0691325090e+02   2.2278812285e+01    0.1324942    0.1212346  72.90 -1.359279e-05    1.030    0.029
        30 -13.2739    107.2718    182.4711   9.3455423876e+01   2.2015113952e+01     1.509302     1.151382   5.51  0.005961121    1.639    0.390
        31 -12.8318    107.8155    197.4171   9.5773347659e+01   1.8441832593e+01      1.00555    0.6512993  26.57  0.004742546    1.618    0.382
        32 -13.8106    120.2326    187.7280   9.1046453076e+01   1.8604208246e+01     1.345983     1.075998 -38.46  0.003823294    1.332    0.249
        33  -9.4190    149.4816    187.0000   8.3715078913e+01   1.3639523241e+01    0.2824162    0.1446696  42.40  0.001150728    1.943    0.485
        34  -9.9235    249.2981    183.2613   6.2695857770e+01  -2.0836010446e+00    0.2308735    0.1328332 -32.75  0.001254707    1.452    0.311
        35 -12.4591    188.6583    170.7131   7.1562863047e+01   9.9226697984e+00     1.069088    0.6432677  35.45  0.004926946    1.708    0.414
        36 -11.5777     47.7448    178.9418   1.0863690029e+02   3.1365935257e+01    0.3983259    0.2782226 -29.61  0.001556479    1.933    0.483
        37 -11.7662     54.7119    172.8825   1.0601746777e+02   3.2049531483e+01    0.3343748    0.2794216 -40.91 0.0005217441    1.340    0.253
        38  -9.3717    145.3237    178.3351   8.3043954669e+01   1.6281808575e+01    0.1580616     0.116344  -9.23  0.000705088    1.712    0.416
        39 -11.1750    169.9064    174.6256   7.6492133415e+01   1.2556028771e+01    0.6359113    0.4486445  49.05  0.002718009    1.592    0.372
        40 -11.2754    200.8749    170.8459   6.9068157695e+01   7.7194857881e+00    0.5758396    0.3998378 -24.52  0.002345877    1.441    0.306
        41 -11.3068    139.0446    169.0157   8.2734254539e+01   1.9537719004e+01    0.6744758    0.4299946 -19.12  0.002666744    2.313    0.568
        42 -10.0446    222.6550    169.3585   6.4584325797e+01   4.2979517772e+00    0.2744954    0.2024622   9.88  0.001273582    1.501    0.334
        43 -13.5280    202.8591    151.7208   6.4610152325e+01   1.1036000630e+01     1.663271     1.200341 -53.64  0.006296785    1.539    0.350
        44  -8.9097    110.5518    167.5160   8.9873935856e+01   2.5050951597e+01    0.1505042    0.1470138  70.45 0.0001005764    1.039    0.038
        45 -12.7605     36.1570    159.9673   1.0944156683e+02   3.7385309468e+01     1.126343    0.5600491 -68.18  0.005166458    1.779    0.438
        46 -10.7215     66.7186    163.1847   1.0128602359e+02   3.2959818734e+01    0.2438057    0.2351572 -56.50 0.0003444267    1.079    0.074
        47 -11.0009    229.2811    160.3721   6.1565571465e+01   4.8082261108e+00    0.4240243    0.2764307 -29.97  0.001726926    1.384    0.277
        48 -14.2068     14.0703    205.7623   1.1919261850e+02   2.8445352132e+01     1.023079    0.7235424  45.48  0.001584217    1.354    0.261
        49 -10.5688    148.9725    160.8664   7.8552110311e+01   1.9498073039e+01    0.6185945    0.2987153  35.73  0.002340562    2.138    0.532
        50 -10.8280    236.2558    159.9091   6.0277303436e+01   3.7592903305e+00    0.3945987    0.2652954 -36.02  0.002172481    1.275    0.216
        51 -10.9251    167.0091    155.6324   7.3104685981e+01   1.7128936450e+01    0.7681372    0.3870104 -32.23   0.00284471    2.374    0.579
        52 -10.8067    170.9810    146.3767   7.0117930076e+01   1.8312261585e+01    0.6091087    0.3848017  -6.84  0.002242019    2.793    0.642
        53 -11.3480    210.6720    158.3181   6.4522492396e+01   8.3628232023e+00    0.8644831    0.3058341 -35.24  0.003008679    2.948    0.661
        54 -13.2248     52.5492    159.7529   1.0478819572e+02   3.5634770028e+01     0.616899      0.43426 -51.63  0.001678325    1.394    0.283
        55 -11.1491    249.8452    161.9368   5.8467422800e+01   1.3173406165e+00    0.7454116    0.2085668 -39.56  0.002787312    2.985    0.665
        56 -12.7499    221.7983    147.1209   6.0106459950e+01   8.4637654545e+00    0.9339283    0.7630901   1.14  0.003228234    1.346    0.257
        57 -12.7206    220.1452    135.4543   5.7883962526e+01   1.0890844024e+01     1.019574    0.7599803  85.92  0.004817436    2.122    0.529
        58 -13.3893    247.0491    143.3602   5.5184573732e+01   4.8640325825e+00    0.9840001    0.7008029 -27.64  0.003531803    1.269    0.212
        59 -13.0289    235.6736    134.0683   5.5028452082e+01   8.3604402069e+00    0.8152996    0.6797699 -43.96  0.002870441    1.111    0.100
        60 -12.0843     75.2770    156.5700   9.7737406723e+01   3.3446979237e+01    0.5768952     0.527201  47.62  0.001447735    1.120    0.107
        61 -12.4894     68.0021    143.9588   9.7633096029e+01   3.7698376159e+01     0.787828    0.5210304  64.61  0.003213534    1.930    0.482
        62  -9.4685     91.8026    143.1600   9.0308173951e+01   3.4278595418e+01    0.2281206    0.2112476  81.19 0.0006744954    1.154    0.133
        63 -11.7655     79.0325    141.2708   9.3759673299e+01   3.6785472946e+01    0.3191205    0.2660893 -47.43 0.0005299943    1.162    0.140
        64 -10.1898    105.6951    131.2851   8.3551420238e+01   3.4779757777e+01    0.3416014    0.2878363 -11.23 0.0009599237    1.341    0.254
        65 -10.7769    203.7744    128.9270   5.9357706158e+01   1.5236097443e+01    0.4625346    0.3961917 -86.84  0.002087355    1.451    0.311
        66 -10.8310    204.7446    122.7485   5.7768299413e+01   1.6210029262e+01    0.4190687    0.3080967 -18.11  0.001541859    1.596    0.374
        67  -9.5236     92.1416    127.6453   8.6788667731e+01   3.8082096911e+01    0.2831728     0.219823  -8.88 0.0007470942    1.576    0.366
        68 -11.9404    245.4505    116.9711   5.0000667934e+01   9.5814602216e+00    0.5826185    0.2529912 -36.88  0.002605461    2.016    0.504
        69 -10.9034    234.6828    118.1960   5.1816761932e+01   1.1290232773e+01     0.375854    0.2664441 -39.72  0.001751044    1.215    0.177
        70 -10.1812     52.5637    115.4240   9.7001964002e+01   4.6933037843e+01    0.2803352    0.2287995  86.19 0.0005523424    1.459    0.314
        71 -11.6122      4.5058    111.4792   1.1279637431e+02   5.2027315109e+01    0.3888565    0.2869635  -2.48  0.002364179    1.625    0.384
        72  -9.1238    103.7891    119.7726   8.1322460109e+01   3.7897196831e+01    0.1956129    0.1791546  84.64 0.0003006821    1.247    0.198
        73  -9.0312    204.8485    110.6561   5.4954326450e+01   1.8431659449e+01    0.2799416    0.1256837  43.63  0.001095209    2.568    0.611
        74 -10.3400    220.3839    101.6025   5.0346737869e+01   1.6881546655e+01    0.3436585    0.2904786  64.08  0.001591298    1.312    0.238
        75 -11.3305      1.9909     96.7695   1.1157189629e+02   5.5703581643e+01    0.2946508    0.1846639 -50.70  0.001700674    1.301    0.231
        76 -11.7163    175.7225    216.2185   8.3069487337e+01   3.3876679596e+00     0.964519    0.8627623 -64.99  0.005680387    1.508    0.337
        77 -13.2847    163.6599    237.0058   8.9061852030e+01   1.5604280031e+00      1.47812     1.275761 -32.44  0.009356304    1.280    0.219
        78 -10.9306     38.2149     85.6775   9.5452158910e+01   5.5665888583e+01    0.3497974    0.2852052  62.64  0.001776679    1.646    0.393
        79  -9.1177     24.8879     82.6723   1.0006343352e+02   5.7574789194e+01    0.1722898    0.1543474 -22.07  0.000365347    1.115    0.103
        80 -10.8240      2.3044     62.7952   1.0511991985e+02   6.3432330764e+01    0.2477932    0.1054507 -71.71  0.001097164    2.687    0.628
        81 -10.5527     13.3658     60.1393   9.9421336634e+01   6.3373867356e+01    0.2120866    0.1845125 -23.43 0.0004310599    1.122    0.109
        82 -11.6006      2.1576     80.1591   1.0873535211e+02   5.9577859782e+01    0.4263299    0.1475742 -70.12   0.00177068    2.688    0.628
        83 -11.5106     10.2342     42.4710   9.5743997975e+01   6.7134359214e+01    0.2929194    0.1902488  30.62  0.001052786    1.874    0.466
        84 -12.4387    167.5319    225.7726   8.6448292780e+01   2.9464131670e+00    0.6426346    0.4579036   7.64  0.003471864    1.473    0.321
        85 -12.1996     70.9283    246.5091   1.1028156621e+02   1.3271785815e+01    0.7023142    0.3150745  29.69   0.00282404    2.250    0.556
        86 -10.6473     11.3154    232.4837   1.2138300712e+02   2.2915473112e+01    0.3246239    0.1648274  80.83  0.001832041    1.806    0.446
        87 -12.5866    100.8589    229.3592   1.0190311938e+02   1.2570533381e+01    0.7395127    0.3991639  38.82  0.003622557    1.614    0.380
        88 -10.5333    120.4417     28.5004   4.8613328544e+01   5.0895142301e+01    0.4177045    0.2582687 -70.49  0.001678645    2.679    0.627
        89 -11.5019    127.0610    231.5802   9.6284465612e+01   8.1683587886e+00    0.5033019    0.1897425  38.97  0.002046897    2.288    0.563
        90 -10.0912     17.9772    231.4735   1.2001029510e+02   2.2477040190e+01    0.1707294    0.1005815  38.24  0.001028826    1.587    0.370
        91 -12.3642    145.3717    228.5877   9.1756851511e+01   5.8949567448e+00    0.9417335    0.2862726  29.20  0.002948288    4.003    0.750
        92 -10.7785      5.7162    227.3435   1.2220598163e+02   2.4506511346e+01    0.3864009    0.2109037  81.48  0.002299993    1.594    0.373
