#   1 NUMBER                 Running object number                                     
#   2 MAG_AUTO               Kron-like elliptical aperture magnitude                    [mag]
#   3 X_IMAGE                Object position along x                                    [pixel]
#   4 Y_IMAGE                Object position along y                                    [pixel]
#   5 X_WORLD                Barycenter position along world x axis                     [deg]
#   6 Y_WORLD                Barycenter position along world y axis                     [deg]
#   7 A_WORLD                Profile RMS along major axis (world units)                 [deg]
#   8 B_WORLD                Profile RMS along minor axis (world units)                 [deg]
#   9 THETA_WORLD            Position angle (CCW/world-x)                               [deg]
#  10 FWHM_WORLD             FWHM assuming a gaussian core                              [deg]
#  11 ELONGATION             A_IMAGE/B_IMAGE                                           
#  12 ELLIPTICITY            1 - B_IMAGE/A_IMAGE                                       
         1 -12.3433    183.8951     32.6924   6.7371029833e+01   3.5340202409e+01    0.8954922    0.7619352  75.13  0.003466268    1.049    0.047
         2 -12.4761    190.2818     23.2330   6.4161433487e+01   3.4954941629e+01    0.7373652    0.6468008 -24.58  0.001482407    1.426    0.299
         3 -10.2995     57.9092      3.7178   8.5792889479e+01   6.5225322176e+01    0.2606417     0.143258  -3.17  0.001481126    2.020    0.505
         4 -12.1512    125.7743    229.5069   1.2442593689e+02   8.7587345235e+00    0.9335777    0.4764555  46.37   0.00437348    1.730    0.422
         5 -19.3681     20.7007    129.7446   1.3495301658e+02   4.6535534871e+01     19.11111     2.486146 -67.75   0.04564049    7.605    0.869
         6  -9.2933    109.8741    223.2899   1.2689972501e+02   1.2737450669e+01    0.2927616    0.1825033 -63.05  0.001398184    1.707    0.414
         7  -9.7815    181.7393    233.0392   1.1343554971e+02  -1.7183529908e+00    0.3405452    0.1289438  31.70   0.00122846    3.145    0.682
         8  -9.3127     66.7669    223.1436   1.3579381236e+02   1.9484038198e+01    0.2038621    0.1726629  -0.15 0.0008995241    1.976    0.494
         9  -9.8533    168.7067    221.9859   1.1426608488e+02   2.5598641862e+00    0.1927933    0.1875534   2.39    0.0011922    1.096    0.088
        10  -8.7665    114.8470    210.8017   1.2405098974e+02   1.4538178651e+01    0.1921221    0.1506765  77.88 0.0004380239    1.313    0.238
        11  -9.1401    108.4917    209.4991   1.2525449484e+02   1.5918407636e+01    0.1402788    0.1251731  69.24 -7.433476e-05    1.011    0.011
        12  -8.5540     92.5092    206.0928   1.2828959549e+02   1.9332482205e+01    0.2003251    0.1296502 -67.03 0.0004246851    1.538    0.350
        13  -9.1396    108.0311    202.9911   1.2438781762e+02   1.7437704083e+01    0.2181897      0.18041 -12.46  0.001138945    1.786    0.440
        14 -11.0436    195.7946    195.3198   1.0375593847e+02   2.5833140073e+00    0.7120001    0.5601847  66.56   0.00366606    1.649    0.394
        15 -14.8760      4.3437    248.2248   1.4900239866e+02   2.1961203779e+01    0.7084978    0.5481729 -67.03   0.00392072    1.680    0.405
        16 -11.6955    101.0638    230.7395   1.2969904153e+02   1.2655965411e+01    0.5667731    0.5218912 -72.76 0.0008618424    1.242    0.195
        17  -8.9588    102.7331    194.7118   1.2431904097e+02   2.0223427246e+01    0.2876231    0.1913938 -74.39  0.000832008    1.603    0.376
        18  -9.7717     80.1255    185.5917   1.2818567786e+02   2.6022311702e+01     0.270761    0.1966618  76.78  0.001123157    1.406    0.289
        19  -9.0838    207.8262    184.8657   9.9229204441e+01   2.3011881065e+00    0.1916596    0.1767941 -88.46 0.0006682464    1.338    0.253
        20  -8.4327     90.2284    183.9129   1.2555089731e+02   2.4828980717e+01    0.2238936    0.1739143  76.04 0.0007816716    1.289    0.224
        21  -9.8018     91.5514    176.8637   1.2410058996e+02   2.6294960844e+01    0.5461828    0.2967974  76.72  0.001926833    3.280    0.695
        22 -10.3856     82.6485    180.2107   1.2677918820e+02   2.6914562212e+01    0.3832527    0.2458883 -51.82 0.0008527546    1.613    0.380
        23 -10.8014     86.5015    174.4785   1.2493826246e+02   2.7684688962e+01    0.4944918    0.2900527 -44.85  0.002212843    1.970    0.492
        24  -8.5225     99.5153    180.5157   1.2278514478e+02   2.4091908723e+01    0.2363592     0.144548  26.79 0.0006623846    2.140    0.533
        25  -8.8291    197.9906    175.5263   9.9298675016e+01   6.0204203181e+00    0.2864921    0.2061844 -58.49  0.001362691    1.630    0.387
        26 -11.1513     95.8664    226.1376   1.3019626609e+02   1.4444652738e+01    0.5580579    0.2804522  52.02  0.002643155    1.820    0.450
        27 -10.2409    102.3968    171.2322   1.2047574034e+02   2.5813450322e+01    0.4955045    0.2588468  57.94  0.001934231    2.348    0.574
        28  -9.1351    204.5803    168.7325   9.6523648650e+01   6.0598161250e+00    0.3267508    0.2191014  34.80  0.001534948    1.586    0.369
        29 -11.4000    115.6693    231.0122   1.2672943527e+02   1.0183951033e+01     0.626458    0.4021454 -76.31  0.003218233    1.857    0.461
        30 -10.6389     98.3070    157.4876   1.1895677907e+02   2.9847739524e+01    0.6195706    0.4048747 -33.64  0.002700683    2.032    0.508
        31 -10.5779     64.7178    155.8129   1.2734418767e+02   3.5457090671e+01    0.3362423    0.2150406  56.38  0.001023202    1.717    0.418
        32  -8.1283    175.3292    149.6447   9.8490487199e+01   1.6147874982e+01      0.16339    0.1239187 -85.86  0.000704531    1.780    0.438
        33  -9.4648    134.0000    147.5072   1.0776204927e+02   2.5460601948e+01    0.4102677    0.1805375 -53.58  0.001440065    2.358    0.576
        34  -8.9977    144.1947    144.9114   1.0465589582e+02   2.3933188652e+01    0.2444644    0.2114311 -87.18 0.0006551632    1.273    0.214
        35 -10.4467    109.1302    141.2718   1.1278910886e+02   3.1828190321e+01    0.5481552    0.3060079 -35.25  0.002100533    2.341    0.573
        36 -10.6744     97.5062    141.9701   1.1604529414e+02   3.3753959328e+01    0.3002638    0.2732638 -26.75 0.0004752426    1.236    0.191
        37 -10.2687    115.5014    131.6768   1.0891627733e+02   3.2891837350e+01    0.3264779    0.2392865 -18.44 0.0008556021    1.893    0.472
        38 -10.6593     73.3916    129.2038   1.2004267510e+02   4.0698398518e+01    0.4399133    0.2479845 -56.16  0.002008097    1.604    0.376
        39 -10.2713    104.6807    129.1455   1.1125368019e+02   3.5538217089e+01    0.5706334     0.390505 -83.55  0.001361119    2.095    0.523
        40 -11.5847    110.2194    229.3449   1.2763587969e+02   1.1434349048e+01    0.5858224    0.3246521  54.78  0.002774294    1.709    0.415
        41  -9.0229    110.9809    120.0113   1.0733232429e+02   3.6477874107e+01    0.2298793    0.1856352  -7.71 0.0003834017    1.575    0.365
        42  -9.0015    125.5027    127.5037   1.0527528496e+02   3.1861393399e+01    0.1565875     0.149095 -81.60 8.254914e-05    1.056    0.053
        43  -9.0621    168.0498    113.0325   9.1288677340e+01   2.5621393344e+01    0.2574419    0.1924633 -79.89   0.00112981    1.713    0.416
        44  -8.5511    205.5013    110.4856   8.3105185620e+01   1.7470805721e+01    0.1502732    0.1411431 -62.58 0.0004659368    1.007    0.007
        45  -8.3432    134.4962    102.9886   9.6640116008e+01   3.5358181712e+01    0.2246061    0.1329583 -65.73 0.0008105377    2.568    0.611
        46  -9.3667    175.8606     74.3688   7.9576200827e+01   3.1120340485e+01     0.309652     0.227238 -85.13  0.000764331    1.628    0.386
        47  -9.7959     83.0057    229.0704   1.3317206904e+02   1.5841002750e+01    0.1955393    0.1637502  73.35 0.0003957011    1.026    0.025
        48 -12.1503    172.5522     42.7427   7.1740653672e+01   3.6774085495e+01    0.8776871    0.4385012  52.79  0.002968203    1.877    0.467
        49 -10.3870    102.6028    238.0399   1.3027945742e+02   1.0939434804e+01    0.2972775    0.2219125 -75.41  0.001767561    1.409    0.290
        50  -9.9116    169.8337    234.3416   1.1605609515e+02   1.2594591083e-01    0.2222446    0.1865362 -64.38  0.001319335    1.457    0.313
