#   1 NUMBER                 Running object number                                     
#   2 MAG_AUTO               Kron-like elliptical aperture magnitude                    [mag]
#   3 X_IMAGE                Object position along x                                    [pixel]
#   4 Y_IMAGE                Object position along y                                    [pixel]
#   5 X_WORLD                Barycenter position along world x axis                     [deg]
#   6 Y_WORLD                Barycenter position along world y axis                     [deg]
#   7 A_WORLD                Profile RMS along major axis (world units)                 [deg]
#   8 B_WORLD                Profile RMS along minor axis (world units)                 [deg]
#   9 THETA_WORLD            Position angle (CCW/world-x)                               [deg]
#  10 FWHM_WORLD             FWHM assuming a gaussian core                              [deg]
#  11 ELONGATION             A_IMAGE/B_IMAGE                                           
#  12 ELLIPTICITY            1 - B_IMAGE/A_IMAGE                                       
         1 -10.8542    237.2944     49.9172   6.8474192421e+01   1.9674762435e+01     0.468127     0.196604 -24.13  0.001745396    2.991    0.666
         2  -9.6600    193.9946     30.5337   6.8721851556e+01   3.2942907847e+01    0.5742409    0.3669685 -36.35   0.00279847    1.567    0.362
         3  -9.9495     69.5184     26.7751   9.6051160682e+01   6.2791060074e+01    0.2363005    0.1997207   6.85 0.0003469206    1.056    0.053
         4 -11.0947    184.6265      2.4910   6.1874643505e+01   3.8392456219e+01     1.414809    0.2159855  59.00  0.004274031    4.235    0.764
         5  -8.8734    181.2377     22.0168   6.7977412324e+01   3.7270977710e+01    0.5547019    0.2834573 -33.23  0.002437506    1.981    0.495
         6 -10.9884    159.6720     16.7921   6.9509293468e+01   4.3474176064e+01     0.930836    0.7699893 -86.85  0.003976533    1.231    0.188
         7 -12.2439    165.6347      4.9413   6.4875261926e+01   4.3081480152e+01     1.055028     0.664753  57.45  0.003887466    1.432    0.302
         8 -12.4186    172.7860     10.4775   6.5643019138e+01   4.0699725878e+01     1.130782    0.9326653 -32.34  0.004655516    1.319    0.242
         9  -9.0770    146.3068     13.1081   7.0455702092e+01   4.7301532536e+01    0.4771893    0.1351805  48.37  0.001575902    3.298    0.697
        10  -9.2769    203.1881     11.3306   6.2345955360e+01   3.2778916754e+01    0.4583848    0.2644826  47.97  0.001950468    1.959    0.489
        11 -10.7789    198.6811      5.8690   6.1341258781e+01   3.4477100393e+01    0.8705058    0.4353635  70.63   0.00406318    1.783    0.439
        12  -8.7192     59.2196     12.2063   9.3218644632e+01   6.6483554607e+01    0.1528872    0.1468173 -12.51 0.0006218443    1.360    0.265
        13  -8.8073    111.8513     10.4873   7.6311785031e+01   5.6034590058e+01    0.2136948    0.1592962  34.08 0.0005985422    1.259    0.206
        14 -10.9144    123.8040      4.4870   7.1408382464e+01   5.3728625202e+01    0.8508748     0.614045  73.57   0.00464148    1.407    0.289
        15  -8.3620     71.5346      5.4996   8.5390690382e+01   6.5071992280e+01    0.1282079    0.1042755  16.76 4.412547e-05    1.041    0.039
        16  -8.8135     65.7669      5.0815   8.7196384893e+01   6.6175064346e+01    0.3164637    0.1872699  70.71  0.001350136    3.804    0.737
        17  -9.1748     11.9206      1.3157   1.1055901859e+02   7.3968704939e+01    0.1359081   0.08908163  15.61 0.0003083301    1.533    0.348
        18 -10.0126     40.6845    110.5492   1.3137227330e+02   4.9424917502e+01    0.3981512    0.3464226 -16.78  0.001567227    1.426    0.299
        19 -11.1229    245.4332    240.1125   1.0767168849e+02  -9.2570443537e+00    0.5338341     0.336637 -20.95  0.003549807    1.631    0.387
        20  -9.5028    249.2368    249.4379   1.0850176160e+02  -1.0749599017e+01    0.2680205    0.2290829  18.89  0.001973121    1.365    0.267
        21 -11.5848    243.7022    248.7144   1.0929789655e+02  -9.9178185834e+00    0.5887762    0.5445582  48.64  0.004572044    1.799    0.444
        22 -11.3497      8.1545    248.5009   1.5032267546e+02   2.3609213724e+01    0.3732997    0.2072559 -84.62  0.002784357    1.608    0.378
        23  -9.4235    155.3997     99.1917   9.6023543575e+01   3.1599832090e+01    0.2366805    0.1442887 -51.18 0.0009577427    1.766    0.434
        24  -8.1644    218.4938     97.9539   8.3152558439e+01   1.6671140469e+01    0.2098648    0.1403779 -34.01 2.468318e-05    1.435    0.303
        25  -8.1279    233.5592     97.5014   8.0647062656e+01   1.3342830591e+01    0.1425661     0.131999 -29.45 2.454099e-05    1.039    0.037
        26  -7.9278    206.5193     96.5023   8.4832187515e+01   1.9726665278e+01    0.1495479    0.1446236 -44.94 0.0001299917    1.003    0.003
        27 -11.0048    222.6608     91.1801   8.0774363367e+01   1.6832991945e+01    0.7557672    0.3889286  70.48  0.002878487    2.730    0.634
        28 -10.4181    211.3560     91.4468   8.2688943950e+01   1.9440382816e+01    0.5232031    0.3107283 -60.32  0.001073565    2.210    0.548
        29  -8.9919    164.6362     93.3220   9.2277278833e+01   3.0516344405e+01    0.1663703    0.1241975 -80.46 5.773414e-06    1.784    0.439
        30  -8.3013    143.7325     92.3476   9.6894458409e+01   3.5730202561e+01    0.1586443    0.1225646 -73.45 0.0001949938    1.615    0.381
        31 -11.5170    192.4108     87.0179   8.4871863887e+01   2.4804985274e+01    0.5026492    0.3057311 -46.64  0.002140233    1.666    0.400
        32 -11.3720    181.1552     89.8055   8.7811130474e+01   2.7097815887e+01    0.5281895    0.2962416 -35.82 0.0009462229    1.792    0.442
        33 -12.0106    184.0613     84.7396   8.5830422205e+01   2.7281397095e+01     0.746953    0.3129675 -40.77  0.002666561    2.324    0.570
        34  -8.1232    127.9921     90.9803   1.0054165235e+02   3.9608737950e+01    0.1813185     0.169321 -43.19 0.0009425959    1.064    0.060
        35  -9.7598    148.9522     89.9528   9.4931033970e+01   3.4967780848e+01    0.2339556    0.2301091 -85.28 0.0003864843    1.022    0.021
        36 -11.0246    175.5697     87.9710   8.8433752201e+01   2.8818478352e+01    0.3522159    0.3049912 -86.73  0.001752032    1.279    0.218
        37 -12.0752    196.6011     80.0502   8.2211175518e+01   2.4960774081e+01    0.5549538    0.4555129 -12.81   0.00189821    1.404    0.288
        38  -9.2928    210.2233     82.3984   8.0519945376e+01   2.1222484932e+01    0.2049569     0.144424  73.02 0.0009475585    1.607    0.378
        39  -9.9836    160.8598     80.9908   8.9559429386e+01   3.3759601756e+01    0.2636165     0.225937  54.91 0.0003733812    1.156    0.135
        40 -10.4840    169.9600     78.2477   8.6806082404e+01   3.1973951463e+01    0.4175492    0.2534835 -58.89  0.001533214    2.093    0.522
        41 -10.6137    216.1702     76.9661   7.8153155072e+01   2.0667837870e+01    0.3855884    0.1990178 -34.80  0.001609439    1.850    0.460
        42 -10.4769    236.2527     74.7596   7.4697729280e+01   1.6307127179e+01    0.3789098    0.2355664 -67.61  0.001701089    2.055    0.513
        43 -10.1486    247.2461     73.3068   7.2920753154e+01   1.4073702588e+01    0.3494506    0.2314311  -0.70  0.001173133    2.418    0.586
        44  -7.8516    122.6491     74.6922   9.7029348492e+01   4.4053287501e+01    0.1581236    0.1195166  11.23 0.0007043293    1.712    0.416
        45  -8.4864    134.3081     73.6646   9.3624318230e+01   4.1571617858e+01    0.1574423    0.1220122 -75.91 0.0007042122    1.675    0.403
        46  -9.9521    174.5502     70.7761   8.3688586364e+01   3.2101288517e+01    0.3656864    0.1205612 -43.04  0.001134977    3.082    0.676
        47  -8.2993     40.0486     71.0010   1.2319524045e+02   5.8521497800e+01    0.1455196      0.13339   2.07 0.0009602401    1.224    0.183
        48  -9.8678     11.8762     70.2328   1.3357394125e+02   6.0955468672e+01    0.3444262    0.2468967 -23.41   0.00188953    1.561    0.360
        49  -9.9138      7.2580     67.2322   1.3471554152e+02   6.1872326020e+01    0.3596887    0.2626657  86.53  0.001716254    1.573    0.364
        50 -10.1732     16.4231     66.6876   1.3111538317e+02   6.1438704075e+01    0.6191541     0.286672 -77.38  0.002815332    2.720    0.632
        51 -12.5632    242.1128     69.0226   7.2537727092e+01   1.5843215123e+01     1.027058    0.6023003  72.71  0.004532736    1.985    0.496
        52 -11.5364    231.9474     68.7381   7.3786175333e+01   1.8206330673e+01     0.441757    0.3464735  81.43  0.001091557    1.375    0.273
        53 -11.4520    232.6473     65.2791   7.2832346704e+01   1.8559374739e+01    0.3348989    0.3172071 -19.90  0.001370667    1.163    0.141
        54 -11.0985    151.3192     68.0323   8.7753792159e+01   3.8453694001e+01    0.4761473    0.2798733 -26.25  0.001932034    1.961    0.490
        55 -10.9172    139.1452     65.8525   8.9918977972e+01   4.1829920476e+01    0.4852041    0.2919431 -50.07  0.002028564    1.861    0.463
        56  -8.9984     60.7345     67.4237   1.1452678238e+02   5.6829102006e+01    0.1808024    0.1277069  13.50 0.0009518062    1.696    0.410
        57  -9.8780    183.5136     66.3696   8.0710564702e+01   3.0535110516e+01    0.3080287    0.1947322  64.50  0.001343009    1.620    0.383
        58 -11.3055    212.7189     63.3866   7.5105694005e+01   2.3625611677e+01    0.4120323    0.3173845  -4.58  0.001767707    1.675    0.403
        59  -7.9404     79.9833     64.9831   1.0694045707e+02   5.4391843997e+01    0.1665217    0.1500335 -29.91 0.0003073064    1.026    0.025
        60  -9.0280     60.2724     63.1542   1.1336635913e+02   5.7773741142e+01    0.3078341   0.09000154  37.05  0.001097978    3.664    0.727
        61 -11.3157    220.0615     59.8636   7.3139508537e+01   2.2355008228e+01     0.384722    0.3365102 -32.42 0.0008434973    1.170    0.145
        62 -10.4730    216.8054     56.1773   7.2624087374e+01   2.3690696358e+01     0.320271    0.2385034  -4.29  0.001556913    1.800    0.444
        63 -10.2210    212.4511     55.9863   7.3177799458e+01   2.4794187905e+01    0.2903002    0.2557153 -34.02 0.0004747447    1.164    0.141
        64 -10.9756    245.0061     56.0277   6.9070857219e+01   1.7063011167e+01    0.3150415    0.2254313 -14.62  0.000542287    1.737    0.424
        65  -9.0312    176.3609     56.2168   7.9018645496e+01   3.3980631544e+01    0.2187847    0.1333148 -42.87 0.0007371317    1.653    0.395
        66 -10.3268    151.0825     58.1462   8.4666117829e+01   4.0171872399e+01    0.3125128    0.2209135  49.65  0.001110639    1.374    0.272
        67 -11.0018    222.5297     54.0200   7.1301097251e+01   2.2604525620e+01    0.3789081    0.2038727 -55.87  0.001440831    2.024    0.506
        68  -8.7540    185.7477     54.9949   7.7016408881e+01   3.1733794739e+01    0.2061032     0.195159 -71.72 0.0003882114    1.030    0.029
        69  -9.7848     96.8487     52.9829   9.7200434541e+01   5.3523437080e+01    0.5579179     0.384073  66.40  0.002590256    2.061    0.515
        70  -8.3949     84.4499     55.5341   1.0216426407e+02   5.5421987733e+01    0.1402949    0.1271077 -12.33 3.988729e-05    1.030    0.029
        71  -9.0074     63.5168     52.9507   1.0872816566e+02   5.9328428006e+01    0.2612579    0.1536604  54.19  0.001183638    2.596    0.615
        72  -8.8713    181.5259     52.4611   7.6989638231e+01   3.3206073719e+01    0.1488966     0.142736  57.92 7.025499e-05    1.069    0.065
        73 -10.8841      3.3139    248.2201   1.5105795931e+02   2.4133374947e+01    0.3201629    0.1843315 -79.23  0.002441226    1.689    0.408
        74  -8.6160     83.4478     50.9210   1.0082627916e+02   5.6436473237e+01    0.1989407    0.1811812  18.39 0.0004965678    1.094    0.086
        75  -9.5393    213.0025     49.2258   7.1304506815e+01   2.5626123615e+01    0.2320317     0.197474 -43.79 0.0003315276    1.141    0.124
        76  -8.6123    172.1370     49.9094   7.7872346685e+01   3.6025071405e+01    0.2101614    0.1881716 -74.43  0.001111503    1.142    0.125
        77  -8.1695     25.6577     50.3309   1.2317810500e+02   6.4189641165e+01    0.1129718   0.09234014  79.52 0.0007051143    1.749    0.428
        78 -10.3968    146.5960     49.0969   8.2682413627e+01   4.2720814099e+01    0.3503196    0.1887829  52.27  0.001458509    1.751    0.429
        79  -9.1930    228.3422     48.3218   6.9126136202e+01   2.2004653623e+01    0.1391768    0.1071794  29.26 0.0006366381    1.725    0.420
        80  -8.9732    178.7923     48.4093   7.6250074644e+01   3.4509591880e+01    0.2183305    0.1290026  51.35 0.0005998153    1.668    0.400
        81  -8.9815     53.9063     47.1700   1.1038540835e+02   6.1762508783e+01    0.1882484     0.172295 -65.41  0.001027143    1.383    0.277
        82  -9.7297    125.5084     44.6649   8.6078225756e+01   4.8568031742e+01    0.3605058    0.2223978 -49.65  0.001248333    1.916    0.478
        83  -8.2233    113.2097     44.2015   8.9140014194e+01   5.1484009138e+01    0.3203166    0.1206214 -26.09  0.001033203    3.493    0.714
        84  -8.5290    219.2771     44.3780   6.9223195878e+01   2.4743311080e+01     0.138772    0.1095687  20.93  0.000700522    1.704    0.413
        85  -9.7726    129.9935     42.4902   8.4201115241e+01   4.7813552029e+01    0.2679376    0.2143456 -35.76 0.0004657696    1.298    0.230
        86 -10.9882    133.2084     39.3662   8.2334492958e+01   4.7475237989e+01    0.6475407    0.2472003  48.04  0.002351269    2.465    0.594
        87  -8.5516    155.7148     42.5777   7.8643541764e+01   4.1341062596e+01    0.1954787    0.1410125  74.61 0.0003501549    1.474    0.321
        88  -9.2426    205.9986     36.9083   6.8917086933e+01   2.9056658862e+01    0.3820033    0.2564764 -13.32  0.001806399    1.919    0.479
        89  -9.0126    199.4606     28.3361   6.7399053589e+01   3.1804579551e+01    0.3251043    0.2157471  84.15  0.001593914    1.518    0.341
        90 -10.0219    199.4039     39.0277   7.0375227296e+01   3.0461287598e+01    0.6200525    0.3601917 -69.68  0.002614214    2.155    0.536
        91  -9.2424    186.2227    243.9576   1.1855654959e+02  -7.1307252514e-01    0.1355937   0.09963009 -38.50  0.000883484    1.703    0.413
        92  -8.8071     27.6575     37.5406   1.1813553136e+02   6.6512130339e+01    0.1940516    0.1141212  15.07 0.0008167336    1.940    0.484
        93  -8.2294     19.2665     36.6430   1.2169639386e+02   6.7389802603e+01     0.105283   0.08813827 -79.40 0.0006989143    1.634    0.388
        94  -7.7342      8.6990     34.6908   1.2605594784e+02   6.8489229454e+01    0.1206576    0.0642544 -35.40 0.0003133201    1.602    0.376
        95  -9.6761    207.8933     50.5074   7.2348157478e+01   2.6724102107e+01    0.3937764    0.2675427  54.15  0.001918674    1.510    0.338
        96  -8.5085     72.4767     29.5023   9.6149786695e+01   6.1879387273e+01    0.1335496    0.1138125   0.64 2.010874e-05    1.043    0.041
        97  -7.7703    130.2128    107.0125   1.0441912148e+02   3.5730260982e+01    0.1908722    0.1243242 -45.35 0.0008209864    1.529    0.346
        98  -9.3521    140.8298     25.6677   7.5845520423e+01   4.7336510136e+01    0.3159225   0.09967366  54.46  0.001099614    2.660    0.624
        99 -11.7847     16.6525    248.6344   1.4899993300e+02   2.2719344654e+01    0.5009932    0.2666382  48.71  0.003605101    1.473    0.321
       100  -8.0633     55.9606    220.0233   1.4048535396e+02   2.3366695773e+01    0.1372993    0.1036518  68.34 0.0009466871    1.003    0.003
       101  -8.5391     56.0028    215.3939   1.4010390659e+02   2.4254892728e+01    0.1782095    0.1240891 -86.34 0.0008059202    1.323    0.244
       102  -7.6175    100.9834    214.9866   1.3118430220e+02   1.7934557457e+01    0.1479004    0.1157212  55.43            0    1.059    0.056
       103  -9.0020     66.3594     22.8591   9.5488197128e+01   6.3886321785e+01    0.1771333    0.1081937 -19.61  0.000118618    1.648    0.393
       104  -9.6234    151.7332     39.3247   7.8356185419e+01   4.2816193047e+01    0.3661222    0.2023069  45.04  0.001548234    1.828    0.453
       105  -8.5206     94.2496     21.3575   8.5467416517e+01   5.8768203488e+01     0.177203    0.1240533  59.14 0.0003487676    1.573    0.364
       106  -8.6028     62.4849     26.4635   9.8594859694e+01   6.4003251913e+01    0.1295648    0.1090791  -3.50 0.0002363402    1.023    0.022
       107  -8.7252     56.5522     20.2343   9.8139557307e+01   6.5840656881e+01    0.2450258    0.1094985 -38.73  0.001158845    2.206    0.547
       108 -10.1430    124.0009    206.0011   1.2533216388e+02   1.5866701284e+01    0.1872946    0.1586055  54.85            0    1.006    0.006
       109  -8.6604     62.0719     20.2273   9.5930671139e+01   6.4964228913e+01     0.155824   0.09705508  36.67            0    1.577    0.366
       110  -9.0721    136.0210     16.9279   7.3670522591e+01   4.9521244386e+01    0.2146519    0.1904529  46.04 0.0004077265    1.049    0.047
       111  -7.8541     15.2263     17.6825   1.1651427105e+02   7.1115808564e+01   0.09648281   0.08097967 -54.08 0.0006823973    1.495    0.331
       112  -8.1068     36.6747     15.9984   1.0491108019e+02   6.9207318953e+01    0.2011698   0.07513507 -25.27 0.0007049611    4.300    0.767
       113  -7.9665    138.9845    199.0210   1.2117666934e+02   1.4553522019e+01    0.1565234    0.1347158  50.33 -0.005334738    1.011    0.011
       114  -8.3177    133.0080    199.0055   1.2243523991e+02   1.5623286181e+01    0.1891591    0.1609226  55.94  0.001131388    1.042    0.041
       115  -8.3085    223.0219    187.9832   1.0247608184e+02   9.1882208036e-01    0.1504127    0.1277635  18.31 0.0009180682    1.034    0.033
       116  -7.8100     89.7059     12.7080   8.3035590430e+01   6.0712934631e+01    0.1355674   0.08862615  23.74 0.0002928303    1.554    0.357
       117  -8.9775    101.0115    175.9701   1.2603423695e+02   2.5871030702e+01    0.1952171    0.1685222  70.31            0    1.036    0.035
       118  -8.2013    232.0144    132.9824   8.9274908120e+01   7.8715456048e+00    0.1621702    0.1523991   9.04 0.0003760953    1.061    0.058
       119  -7.9777    184.6955    132.6754   9.8145834656e+01   1.8154484921e+01    0.1550885    0.1196125   6.94 0.0007032856    1.642    0.391
       120 -10.3976    142.2600    127.3798   1.0651022743e+02   2.8702541079e+01    0.3031713    0.2700271 -33.58  0.001557286    1.195    0.163
       121 -10.0307    155.9827    113.4750   9.9725933924e+01   2.8564251658e+01    0.3108274    0.2221424 -59.24 0.0009184763    1.588    0.370
