#   1 NUMBER                 Running object number                                     
#   2 MAG_AUTO               Kron-like elliptical aperture magnitude                    [mag]
#   3 X_IMAGE                Object position along x                                    [pixel]
#   4 Y_IMAGE                Object position along y                                    [pixel]
#   5 X_WORLD                Barycenter position along world x axis                     [deg]
#   6 Y_WORLD                Barycenter position along world y axis                     [deg]
#   7 A_WORLD                Profile RMS along major axis (world units)                 [deg]
#   8 B_WORLD                Profile RMS along minor axis (world units)                 [deg]
#   9 THETA_WORLD            Position angle (CCW/world-x)                               [deg]
#  10 FWHM_WORLD             FWHM assuming a gaussian core                              [deg]
#  11 ELONGATION             A_IMAGE/B_IMAGE                                           
#  12 ELLIPTICITY            1 - B_IMAGE/A_IMAGE                                       
         1 -11.7355    162.3527     56.3173   7.4244516927e+01   3.7208000472e+01     1.507555     1.021694  14.71  0.005368449    2.024    0.506
         2 -11.8456    175.8497     41.2577   6.6915101189e+01   3.5956297685e+01     1.106693    0.9047451  26.96  0.003879981    1.340    0.254
         3 -11.8182    193.8159      9.1717   5.4485658204e+01   3.5039193944e+01     1.018363    0.9074382  12.03  0.005234197    1.277    0.217
         4  -9.0449    120.2566      9.1961   6.6214340844e+01   5.3769907034e+01    0.3046893    0.2965538  30.55   0.00106038    1.105    0.095
         5  -8.2578      3.9430    229.2206   1.3947847290e+02   2.7821209481e+01    0.1309281    0.1103568  59.17 0.0007790618    1.456    0.313
         6  -8.2243    150.7814    250.2389   1.1691584428e+02   5.7761747237e+00    0.1608649     0.122453  51.63 0.0007640502    1.137    0.120
         7  -9.8413    138.7779    249.1468   1.1881677023e+02   7.7350521873e+00    0.3749619    0.3028027 -86.22  0.002829475    1.558    0.358
         8  -9.2431    133.2925    249.0371   1.1972866391e+02   8.5712261234e+00    0.2715595    0.1992268 -76.85  0.001942544    1.780    0.438
         9 -18.2095     48.7822    234.3637   1.3263364904e+02   2.2282986944e+01     3.613383     2.921698  68.27   0.01797506    1.196    0.164
        10  -8.8179    204.6579    177.1586   9.6172735386e+01   6.9800556169e+00    0.3119501    0.2658458 -41.98  0.001433257    1.378    0.274
        11  -8.4411    134.3871    174.3964   1.0970927483e+02   2.0640568947e+01    0.2594216    0.1762094  76.41 0.0007388028    1.975    0.494
        12  -7.1578    161.2940    201.2755   1.0859579260e+02   1.1147090966e+01    0.1211281   0.09268972  17.85 0.0001820301    1.524    0.344
        13  -9.9092    193.3333    196.3323   1.0175244753e+02   6.2132061544e+00    0.6305505    0.3350433 -59.25  0.002494884    4.145    0.759
        14  -9.4448    102.9864    171.2501   1.1595460461e+02   2.6611294637e+01    0.4542389    0.2020769  56.59  0.001877894    2.626    0.619
        15  -9.1827    110.8393    169.8062   1.1402806391e+02   2.5620559241e+01    0.3653875    0.2607881  66.45  0.001485529    1.443    0.307
        16  -8.4479      9.6647    170.5432   1.3552257070e+02   3.8156775180e+01    0.2420501    0.1520878 -44.46  0.001526953    2.469    0.595
        17  -9.5960    134.8902    194.8967   1.1279000951e+02   1.6800200059e+01    0.3753304    0.2441609 -79.50  0.001608157    2.213    0.548
        18  -9.9210     58.0579    166.3128   1.2510728375e+02   3.4030250378e+01    0.3141221     0.211047  65.26  0.001027657    1.376    0.273
        19  -9.6810     26.9742    166.2588   1.3171154660e+02   3.7460379042e+01    0.3991463    0.1909299  25.09  0.002017019    2.987    0.665
        20  -9.4587    246.0207    165.7291   8.6636532644e+01   1.0329166819e+00    0.2669918    0.2109134  39.37 0.0005799952    1.325    0.245
        21  -9.2805    192.7309    165.0651   9.6064340704e+01   1.1163914509e+01    0.3874065    0.2580952 -55.31  0.001701924    2.008    0.502
        22  -8.4999    125.9018    163.5714   1.0970662359e+02   2.4270765071e+01    0.2371737    0.1831708 -84.79 0.0006466705    1.495    0.331
        23  -9.2292     35.7597    162.9224   1.2956461061e+02   3.7276076381e+01     0.209354     0.174071   4.44  0.001102388    1.903    0.475
        24  -9.7283     14.9100    159.1124   1.3365135571e+02   4.0052276644e+01    0.4012892    0.2574487  84.90  0.002716304    1.247    0.198
        25  -9.3538    246.4751    160.9980   8.5592249906e+01   1.5832832067e+00    0.2317187    0.1750127  33.02 6.338437e-05    1.267    0.211
        26 -11.0310     24.7728    157.8490   1.3145742107e+02   3.9431488562e+01    0.4377328    0.3572403  49.63   0.00223892    1.350    0.259
        27  -8.5576     26.8859    152.0747   1.3047258486e+02   4.0461528222e+01    0.2318873    0.1645623  60.04  0.001201279    1.324    0.245
        28  -8.4587    168.0391    158.7312   9.9748648775e+01   1.7159106429e+01    0.2086574    0.1986218 -34.20 0.0004430056    1.121    0.108
        29  -8.3798     43.6872    159.3011   1.2748330971e+02   3.7196931267e+01     0.199423    0.1277158  51.08 0.0006828869    1.494    0.331
        30 -10.2220     42.6677    155.2265   1.2727517498e+02   3.8182612174e+01    0.3472833    0.2618805  45.37  0.001643886    1.405    0.288
        31  -8.2719    132.2093    156.2404   1.0699573434e+02   2.4588898081e+01    0.4848441    0.2723516  74.75    0.0016418    4.003    0.750
        32  -9.7755     35.0132    157.2631   1.2918109817e+02   3.8553089007e+01    0.3181526    0.1683508 -61.35  0.001771482    1.786    0.440
        33  -9.4899     33.5325    150.6134   1.2884288261e+02   4.0131162466e+01    0.2956691    0.1555292  77.19  0.001103145    2.008    0.502
        34  -9.3763     37.9105    151.1691   1.2791108033e+02   3.9565019268e+01    0.2162443    0.1584119  45.74   0.00088458    1.436    0.304
        35  -9.1439    246.7625    156.0146   8.4507586642e+01   2.2050510133e+00    0.2115631    0.1721828  29.42 0.0005306155    1.190    0.160
        36  -8.6852    189.8386    155.9817   9.4770740179e+01   1.3251434186e+01    0.3143028    0.2104898  56.01  0.001526075    1.665    0.399
        37 -10.1128    214.6901    154.0514   8.9640659761e+01   8.5796470295e+00    0.2458577     0.218216  29.41 0.0003935353    1.089    0.082
        38  -9.1197      7.7240    153.7126   1.3475665674e+02   4.1772502732e+01    0.4168383     0.205148 -41.85  0.002099521    3.611    0.723
        39  -8.1347    155.9250    154.4929   1.0145854924e+02   2.0358511523e+01    0.2096882    0.1331915  45.15 0.0004237542    1.483    0.326
        40  -9.4724    134.3264    149.1680   1.0517053603e+02   2.5618807087e+01    0.7173433    0.2626949 -56.62  0.002391356    3.565    0.719
        41  -9.2924    143.9628    147.5201   1.0267239240e+02   2.4082634141e+01    0.3518668     0.241521  73.34  0.001599715    2.003    0.501
        42  -9.5440     12.9660    143.0087   1.3276261268e+02   4.3622060127e+01    0.2291451    0.1555705  35.49 0.0006316041    1.727    0.421
        43  -8.7137      1.4961    146.4782   1.3556214232e+02   4.3758963023e+01    0.1932749    0.1101106 -74.33  0.001264706    1.399    0.285
        44 -11.2527      7.0383    144.5695   1.3421166027e+02   4.3751721927e+01    0.6785818    0.3694964  85.39  0.002543369    1.556    0.357
        45  -9.9712    113.7293    137.7344   1.0773687054e+02   3.1831123896e+01    0.3914657    0.3537251 -46.67  0.001689932    1.177    0.150
        46  -8.3246    116.0763    145.6878   1.0871415021e+02   2.9713262222e+01    0.3524025    0.1641149  54.52  0.000996136    2.495    0.599
        47  -9.9761    110.7952    142.5237   1.0936810735e+02   3.1321137646e+01    0.3873181    0.2764286  66.53  0.000789367    1.557    0.358
        48  -8.9990    104.3102    144.0743   1.1120536098e+02   3.2100960361e+01    0.2494044    0.1657509  58.13  0.001081077    1.573    0.364
        49  -9.7903    118.0594    214.3776   1.1860389215e+02   1.6195873943e+01    0.3172842    0.2439958 -54.05  0.001891483    1.572    0.364
        50 -10.1455    183.5238    211.9790   1.0609948109e+02   5.6858952891e+00    0.5798646    0.3167188 -46.52  0.003103558    2.289    0.563
        51  -9.0888    155.9957    191.5032   1.0808998517e+02   1.3687521003e+01    0.4390458    0.2544518 -69.06  0.001928306    3.034    0.670
        52  -8.6585    125.9136    187.0104   1.1344490912e+02   1.9752891945e+01    0.2236293    0.1783263 -80.65 0.0004566131    1.391    0.281
        53  -9.7417    102.7359    137.6398   1.1039352621e+02   3.3765221209e+01    0.2388678    0.2259369 -76.36 0.0003526158    1.060    0.057
        54 -10.2726     36.8244    136.6965   1.2652662311e+02   4.2852708286e+01    0.3156981    0.1705349  44.52  0.001767293    1.905    0.475
        55  -8.8718    233.9117    136.0797   8.2303368426e+01   7.4940941104e+00    0.2030449    0.1812625   3.63 0.0003544084    1.017    0.017
        56  -8.0893    161.9098    136.0749   9.6244741469e+01   2.2660789853e+01    0.2113668    0.1953752  79.07 0.0003836098    1.182    0.154
        57  -8.0730     24.0766    187.8689   1.3391167485e+02   3.3392916074e+01    0.1397828    0.1233122 -56.31  0.001092041    1.612    0.380
        58  -9.9817    119.1567    130.0447   1.0483474809e+02   3.2491604289e+01    0.4462033    0.3395319 -30.37  0.001890311    1.592    0.372
        59  -7.5553    166.5100    131.4732   9.4193955409e+01   2.2562396288e+01     0.147914    0.1416627  22.52 2.239124e-05    1.030    0.029
        60  -8.6401     91.3366    129.0777   1.1161105546e+02   3.7528606526e+01    0.2011306    0.1635732 -68.32 0.0005181037    1.164    0.141
        61  -8.1640    154.1618    204.9739   1.1051358956e+02   1.1795305663e+01    0.2311916    0.1638515 -56.94  0.001364783    1.718    0.418
        62  -9.8173     24.0826    127.0796   1.2853248859e+02   4.6181255247e+01    0.3062965    0.1407695  50.81  0.001596586    2.325    0.570
        63  -9.9471    120.1408    201.6230   1.1662309385e+02   1.8064306752e+01    0.3566941    0.2329178 -58.34   0.00153157    1.729    0.422
        64 -10.3333      2.6273    128.8026   1.3392603476e+02   4.7447001345e+01    0.3775959    0.1418604 -75.42  0.001967765    2.026    0.506
        65  -8.5747    106.7192    125.2226   1.0691162312e+02   3.5801705843e+01    0.2633939    0.2000806 -36.42 0.0007345583    1.498    0.332
        66  -8.4463    117.2063    124.4233   1.0409723871e+02   3.4067834811e+01    0.2053047    0.1330833  54.94 0.0009460596    1.653    0.395
        67  -8.5047     26.8497    124.1305   1.2748516981e+02   4.6597188530e+01     0.157059    0.1185899 -59.61            0    1.284    0.221
        68 -10.4018      5.8396    117.7055   1.3211286515e+02   4.9648130142e+01    0.4242356    0.1219061 -70.98  0.001497021    2.526    0.604
        69  -8.4936    173.9380    200.9971   1.0615031771e+02   8.9643851901e+00    0.2895482    0.1788966 -57.93  0.001100242    2.288    0.563
        70  -8.3743    167.8298    113.9265   8.9648793005e+01   2.5620237736e+01    0.2897805    0.2063198  81.46  0.001226138    2.109    0.526
        71  -8.3385    222.7934    179.7891   9.3394937665e+01   3.2703192564e+00    0.1606033    0.1565342  43.37 0.0005768809    1.334    0.250
        72  -9.9329      4.8076    113.2781   1.3192709465e+02   5.0688214377e+01    0.3236336    0.2266994 -17.16  0.001483816    2.155    0.536
        73  -7.5649    189.1591    112.3523   8.4811260876e+01   2.1047258156e+01     0.196042    0.1423414  60.31 0.0002500403    1.529    0.346
        74 -10.3399     59.3071    109.0296   1.1638493050e+02   4.6616969945e+01    0.3658437    0.1510413  42.76  0.001592389    2.626    0.619
        75  -9.0031    162.2114    178.1140   1.0459355960e+02   1.4841683244e+01     0.373117    0.2679504 -86.22  0.001832093    2.217    0.549
        76  -7.3412    143.3086    180.2735   1.0882041692e+02   1.7941234883e+01    0.1262321    0.1021996  14.01 0.0002264775    1.548    0.354
        77  -7.9136      1.3556    179.8683   1.3765661528e+02   3.6999509857e+01    0.1323835   0.07401071 -74.27 0.0003791711    1.553    0.356
        78  -7.6453     17.6514    179.2342   1.3454755433e+02   3.5707478801e+01    0.1108176   0.06021547  63.28 0.0001485059    1.562    0.360
        79  -8.3229    174.7571     89.7583   8.1708573538e+01   2.8478420216e+01    0.2178918    0.2000211   5.40 0.0005963439    1.136    0.120
        80  -7.5474    137.3907     89.5577   9.0143742037e+01   3.7231011107e+01    0.1500867     0.144345 -23.77 7.222596e-05    1.031    0.030
        81  -9.6769    230.6241     80.8281   6.9419435824e+01   1.6589006770e+01    0.2706248    0.2302343  40.57  0.001481497    1.246    0.198
        82  -8.2464    235.0025     76.7500   6.7739674450e+01   1.6188962941e+01    0.1913304    0.1882615 -51.57 0.0004449871    1.072    0.067
        83  -8.4047    117.0613     72.1626   9.0203768756e+01   4.5026662837e+01    0.2112725    0.2028588 -33.19 0.0003698231    1.031    0.030
        84 -12.0044    240.5488    243.3488   1.0117347292e+02  -7.0010128150e+00    0.2307988    0.1801318  26.11   0.00037474    1.177    0.150
        85  -7.8100    167.9585    230.7345   1.1158099098e+02   5.6792988900e+00    0.1562893    0.1274948  41.48 0.0004238902    1.041    0.039
        86 -10.4893    179.8849     33.8420   6.3914691920e+01   3.5883186473e+01     0.478181    0.3407268  39.35 0.0008451808    1.499    0.333
        87  -8.4066    173.9030     62.9137   7.4008192570e+01   3.3249729542e+01    0.2324446     0.200196  23.61 0.0002821829    1.248    0.199
        88  -8.7798    147.8875     52.7999   7.6167616764e+01   4.1365234778e+01    0.3257142    0.1979659   5.04  0.001189054    2.781    0.640
        89 -10.3247    129.7532     49.9515   7.9440940640e+01   4.6165164417e+01    0.2530299    0.2365915  13.25 0.0002293457    1.042    0.040
        90  -9.1756    225.1962     32.3081   5.7356020967e+01   2.4531220343e+01    0.3761114    0.2237598 -28.72 0.0009276575    1.637    0.389
        91  -8.4630    198.0365     25.7509   5.8836860026e+01   3.2156040216e+01    0.1985225    0.1817714  81.88 0.0004415416    1.060    0.057
        92  -8.5681    185.7597    228.6259   1.0816433092e+02   3.0698092597e+00     0.273333   0.09890251 -47.04  0.001219568    3.825    0.739
