#   1 NUMBER                 Running object number                                     
#   2 MAG_AUTO               Kron-like elliptical aperture magnitude                    [mag]
#   3 X_IMAGE                Object position along x                                    [pixel]
#   4 Y_IMAGE                Object position along y                                    [pixel]
#   5 X_WORLD                Barycenter position along world x axis                     [deg]
#   6 Y_WORLD                Barycenter position along world y axis                     [deg]
#   7 A_WORLD                Profile RMS along major axis (world units)                 [deg]
#   8 B_WORLD                Profile RMS along minor axis (world units)                 [deg]
#   9 THETA_WORLD            Position angle (CCW/world-x)                               [deg]
#  10 FWHM_WORLD             FWHM assuming a gaussian core                              [deg]
#  11 ELONGATION             A_IMAGE/B_IMAGE                                           
#  12 ELLIPTICITY            1 - B_IMAGE/A_IMAGE                                       
         1 -15.6323    225.7778    178.1714   7.8337139204e+01   5.5436337763e+00     10.48686     3.462695 -38.32   0.04587753    3.183    0.686
         2 -15.4742    218.5204     67.0336   5.4413911248e+01   2.2377742552e+01     2.180577    0.4592689 -38.59  0.006812643    3.628    0.724
         3 -18.2538    241.0749     59.1252   4.9831445557e+01   1.8731841763e+01     5.371417     3.239316 -31.94   0.02875194    1.348    0.258
         4 -15.1816    246.4098     28.9731   4.1858280048e+01   2.1183803937e+01     0.803245    0.5745314 -27.32   0.00385158    1.215    0.177
         5 -16.1871    141.1942     53.1055   6.2733749873e+01   4.2895975282e+01     10.55918     8.118034 -57.65   0.05095361    1.389    0.280
         6 -14.0982    223.1659     25.0221   4.2622217402e+01   2.6577926294e+01     1.257118    0.8694901 -30.26  0.007009017    1.261    0.207
         7 -15.7054    207.3728     75.4938   5.8167237402e+01   2.3593572374e+01     2.166193     1.317064 -35.40   0.01048175    1.439    0.305
         8 -13.8080    234.9006     14.8224   3.9084172254e+01   2.5081591078e+01    0.6274017    0.3404058  36.49  0.002891883    2.855    0.650
         9 -14.1429    235.2321     22.6463   4.1070254087e+01   2.4196689516e+01    0.7550183    0.5187738  26.39  0.004067041    2.036    0.509
        10  -9.0486    167.1409     14.0480   4.4682936672e+01   4.1408107021e+01    0.4986348    0.1836376 -25.75  0.001865141    2.496    0.599
        11 -12.1667    222.6716     13.1364   3.9459609043e+01   2.7940398687e+01    0.2986822    0.2154259  69.10  0.000514431    1.538    0.350
        12 -10.1948    228.6448     11.7331   3.8687853993e+01   2.6752043127e+01    0.1502272    0.1189305   5.90  0.000523092    1.563    0.360
        13  -6.5096    177.9146     14.9629   4.3812740106e+01   3.8542729965e+01    0.3080483    0.1308507 -40.92  0.001245758    2.096    0.523
        14  -9.5696    251.0000      9.8288   3.6901459764e+01   2.2228343163e+01    0.1682163    0.0586469 -25.13 0.0004265497    2.394    0.582
        15  -9.5665    208.0781      9.5339   3.9504245487e+01   3.1664177297e+01    0.2169518    0.1658249  36.60 0.0006396315    1.622    0.383
        16  -8.6237    185.0809      9.1972   4.1268201022e+01   3.7308262384e+01    0.1813425    0.1420944  11.46 0.0006817992    1.541    0.351
        17  99.0000    240.3084      8.4121   3.7136735912e+01   2.4567345296e+01    0.1215552    0.0990105 -33.51 0.0001470253    1.109    0.098
        18  -7.9796    172.0269      6.8992   4.1738562646e+01   4.0849292741e+01    0.3389802    0.1282557 -17.03  0.001231457    2.884    0.653
        19  -9.2953    227.9235      6.7783   3.7435306488e+01   2.7394984062e+01    0.1794942    0.1517986   7.66 0.0007129578    1.451    0.311
        20  -8.7682    226.1428      3.1417   3.6586018496e+01   2.8132664524e+01    0.2957359   0.09282462 -26.59 0.0008134992    2.570    0.611
        21  -7.8740    217.6913      7.2167   3.8191771036e+01   2.9653224589e+01    0.1589877    0.1025055 -27.17 0.0002950973    1.403    0.287
        22 -10.0643    219.6568      3.7287   3.7121883894e+01   2.9535047452e+01    0.3580315     0.202376  16.77  0.001573644    2.936    0.659
        23  -9.2499    166.1335      5.0690   4.1697296283e+01   4.2542432711e+01    0.3323622    0.2058174  -9.18  0.001561643    1.823    0.451
        24  -8.4894    175.1472      1.1456   3.9542289996e+01   4.0568619264e+01    0.1784673   0.09139921  74.60 0.0007882668    1.927    0.481
        25  -7.4976      7.1570    138.5959   1.2235551362e+02   4.5067091473e+01    0.1321001    0.1190762  -1.20 0.0001542531    1.524    0.344
        26  -9.0994     52.1950    136.1929   1.0949609018e+02   4.1262940450e+01    0.1938079    0.1764248 -70.93 0.0006826217    1.168    0.144
        27  -8.4364    104.7632    133.5200   9.4574927338e+01   3.4082581098e+01    0.2753038    0.2316184 -18.47  0.001467207    1.498    0.332
        28 -10.4549    111.6406    130.6870   9.2216489193e+01   3.3499862185e+01    0.3723938    0.3003471  59.52  0.001971531    1.283    0.220
        29  -9.6608    198.7289    129.3846   7.3019751789e+01   1.6995371694e+01    0.2392652    0.2018294  18.29 0.0007874087    1.180    0.152
        30  -9.6492    195.6637    126.3012   7.2859414703e+01   1.8071491972e+01    0.2605031    0.2191638 -62.89 0.0009779775    1.536    0.349
        31 -15.3660    242.6719     91.8832   5.7625142458e+01   1.4185199793e+01    0.9164215      0.61124  -0.21  0.004870592    1.775    0.437
        32  -9.6421    164.4391    151.6570   8.4367631721e+01   1.9631564089e+01    0.3196061    0.2692423 -64.04 0.0005871925    1.477    0.323
        33  -9.0949    192.8143    123.2219   7.2656363352e+01   1.9123323612e+01    0.2089244    0.1989298  30.13  0.000445494    1.145    0.126
        34  -8.7916     27.6193    124.9885   1.1533586069e+02   4.6650348519e+01    0.2691083    0.1860439  48.88  0.000551794    1.416    0.294
        35 -16.5528    232.6857     82.0642   5.6489479824e+01   1.7406037585e+01     1.780126      1.28889  36.43  0.009952012    1.612    0.380
        36  -9.3138    170.0569    119.6762   7.6161729422e+01   2.4287145333e+01    0.2946627    0.2240692 -30.61 0.0003290667    1.285    0.222
        37  -8.9025    176.4776    123.4796   7.5789665909e+01   2.2312525361e+01     0.304225    0.2585454 -40.96  0.001306157    1.182    0.154
        38  -9.1119    174.4744    120.0723   7.5373209917e+01   2.3317299515e+01    0.2849559    0.2396829 -28.50 0.0003141736    1.137    0.120
        39  -7.8443     46.2041    158.6150   1.1368083618e+02   3.6712338489e+01    0.1625846    0.1207466  23.53 0.0009493747    1.620    0.383
        40  -8.9845      6.3945    118.1871   1.2117134565e+02   5.0040057749e+01    0.1879987   0.09648079  85.57 0.0009497172    1.696    0.410
        41 -14.3597    241.2706    138.5025   6.8221208071e+01   8.2459765196e+00     2.043126     1.239635  59.61   0.01060691    2.653    0.623
        42  -8.3012     83.1452    219.7712   1.1109204476e+02   2.0004473198e+01    0.1650252    0.1227868  53.88 0.0005570578    1.114    0.102
        43  -9.2465      3.4154    112.3834   1.2165696149e+02   5.1663730152e+01    0.2088614     0.190072 -87.22 0.0006872833    1.176    0.150
        44  -8.3575    180.5051    156.4940   8.2149627261e+01   1.5948480930e+01    0.2604967    0.2219806  42.30  0.001562882    1.240    0.194
        45  -9.4168    126.1813    156.5442   9.3640028181e+01   2.5499499836e+01    0.5885791    0.3575912   4.81  0.002123146    3.941    0.746
        46  -7.9262     83.7445    108.2127   9.5156223515e+01   4.3561464561e+01    0.1901196    0.1690748 -33.30 0.0005586738    1.274    0.215
        47 -10.2037      4.6255     97.3974   1.1997373338e+02   5.5323787833e+01    0.4079537    0.1827281 -80.09 0.0003529924    1.820    0.451
        48  -7.4323     32.6842     98.2954   1.1013635589e+02   5.2881569094e+01     0.139299   0.09223181  68.94  0.000378669    1.604    0.377
        49  -9.4336    179.1268    151.4918   8.1412273012e+01   1.7013683134e+01    0.4484897     0.442834  11.10  0.002890136    1.177    0.150
        50  -8.3334     44.1988     95.4905   1.0553853152e+02   5.2358136951e+01     0.237755    0.1730572 -70.14 0.0004452603    1.211    0.174
        51  -8.7028     16.4050     93.2404   1.1526996202e+02   5.5583243066e+01    0.2629618   0.09988657 -69.37  0.001127381    2.089    0.521
        52  -8.0013     48.9627     88.8323   1.0243790625e+02   5.3467569700e+01    0.2104695    0.1757234 -45.94 0.0005406312    1.240    0.194
        53  -7.6442    143.8053    209.3754   9.8021744788e+01   1.3404387860e+01    0.1618532   0.09637351  29.24 0.0003892872    1.545    0.353
        54  -6.9347     50.6908    233.6860   1.1831209521e+02   2.1463377331e+01   0.08870932   0.08153599  -2.75 0.0004798978    1.629    0.386
        55  -8.8836    185.9625    202.4830   8.9195139163e+01   8.2300397342e+00    0.1837164   0.09947428  35.17  0.001035406    1.601    0.375
        56  -8.1028     63.5088     77.9158   9.4310297064e+01   5.4153468634e+01    0.2618557    0.2124657   2.70  0.001356091    1.592    0.372
        57  -9.2001      3.5203     76.4911   1.1809673749e+02   6.0654333263e+01    0.2282131    0.1304274  14.20  0.001218789    2.195    0.544
        58  -8.4740    167.4850    157.4682   8.4896083536e+01   1.8078632922e+01    0.3107163    0.2236604 -70.56  0.001535344    2.245    0.555
        59  -7.5512     46.4602    198.4727   1.1694167132e+02   2.8266959271e+01    0.1191394   0.08995695  61.07 0.0001572316    1.054    0.051
        60  -7.5246     17.4683     56.9518   1.0838101236e+02   6.4659252844e+01     0.184317    0.1015503  83.66 0.0008080584    2.427    0.588
        61  -9.2857    182.8942    195.6255   8.8669334061e+01   9.6240085816e+00    0.2367737    0.1391614  47.64  0.001302536    1.906    0.475
        62  -8.6555    173.1246    194.8194   9.0338373920e+01   1.1216205054e+01      0.22694    0.1309982  34.60 0.0008001014    1.523    0.344
        63  -9.2493    143.8046    155.4568   8.9481727215e+01   2.2637704774e+01    0.3479765    0.2703321  30.40  0.001314201    1.277    0.217
        64  -7.6541     34.3561    185.7461   1.1871101297e+02   3.2116260677e+01    0.1524714   0.09657674 -72.38 0.0009371542    1.599    0.375
        65  -7.8244    175.3458     22.0896   4.6437321901e+01   3.8426417452e+01    0.1962508    0.1475664 -37.88 0.0003096388    1.228    0.186
        66 -11.4998    178.0612     31.3873   4.9139949779e+01   3.6639035411e+01    0.4172866    0.3047165  -8.31 0.0004700684    1.553    0.356
        67  -8.9427    177.7847     25.3973   4.7230770400e+01   3.7426546552e+01    0.2688181    0.2185564  36.65 0.0007231915    1.410    0.291
        68  -9.9299    170.1389     29.4475   4.9542266245e+01   3.8893277748e+01    0.2678267    0.2130749 -35.16 0.0006289618    1.178    0.151
        69  -7.7975      9.4499    153.4574   1.2262873424e+02   4.1446004513e+01    0.1216137   0.09446591  75.20  0.000108546    1.004    0.004
        70  -9.4561    212.0490     17.5776   4.1474709815e+01   2.9916290498e+01    0.2801731    0.1524727 -39.20  0.001369133    1.544    0.352
        71  -8.9543     85.1124    172.9997   1.0577918985e+02   2.8570856973e+01    0.2283664    0.1734857  34.44  0.000372466    1.324    0.244
        72  -8.7975    174.5221     17.3181   4.4953927741e+01   3.9161345143e+01    0.2449745    0.1404701 -11.37   0.00106152    2.018    0.505
        73  -8.6998    188.1138     17.1497   4.3477435127e+01   3.5741635569e+01    0.1632645    0.1472945 -45.83 0.0002905612    1.023    0.022
        74  -9.2680    150.5982    150.2692   8.7001199935e+01   2.2392878022e+01    0.3627364    0.2110118  51.64  0.001014963    1.889    0.471
        75  -8.3028    191.6348     15.5082   4.2633336014e+01   3.5039662166e+01    0.2291289    0.1150872 -30.41  0.001021022    1.760    0.432
        76  -9.6471    218.8750     10.6558   3.9050157806e+01   2.9047678957e+01    0.1193183   0.08054059 -13.63 0.0004060865    1.587    0.370
        77 -10.2037     61.6390    150.3826   1.0875384965e+02   3.6730368424e+01    0.3945549    0.2954154 -30.15  0.002141612    1.920    0.479
        78  -9.8712     64.5594    144.4955   1.0719640920e+02   3.7717174456e+01    0.3909141    0.2531762 -26.01    0.0017719    2.703    0.630
        79  -9.2524    216.9307     15.3406   4.0472724054e+01   2.9019992336e+01    0.1457832    0.1205961  70.05 0.0005191016    1.344    0.256
        80  -8.4513    205.3905    148.7813   7.6050016791e+01   1.2808150873e+01    0.1792938    0.1665127  18.60 0.0004601582    1.176    0.149
        81  -8.0880    204.8522     13.2311   4.0813294591e+01   3.2061599515e+01    0.1201984   0.07787959 -41.97 0.0006061845    1.337    0.252
        82  -8.1443    164.8135    169.7901   8.7733708360e+01   1.6459083014e+01    0.1684209    0.1531838  62.17  0.000638762    1.320    0.243
        83 -15.2229    247.9435    100.6340   5.9008221404e+01   1.2084454839e+01      2.17302    0.5950499 -26.82  0.007511861    3.528    0.717
        84  -8.4211    192.3463     11.1957   4.1249471258e+01   3.5302330196e+01    0.1290457    0.0953996  51.03 0.0004350056    1.521    0.342
        85  -7.9819     85.6003    148.7339   1.0225483761e+02   3.3757252590e+01    0.1896605     0.125864 -77.70 0.0009468424    1.640    0.390
        86  -8.5339    153.8192    146.7038   8.5591841012e+01   2.2467354463e+01    0.2328541    0.2183174  12.48 0.0006464195    1.034    0.033
        87  -8.6337    104.0631    146.0271   9.7091619563e+01   3.1435927034e+01    0.2088634     0.194275  73.15 0.0004411613    1.028    0.027
        88  -8.8009    163.8786    137.7678   8.1582750094e+01   2.2222157340e+01    0.3696294      0.21766 -34.58  0.001178504    1.752    0.429
        89 -10.0000    158.7863    140.5438   8.3249019854e+01   2.2681153453e+01    0.5593851    0.2605595 -38.71  0.001450428    2.217    0.549
        90  -9.2008    158.0412    134.9768   8.2201495664e+01   2.3857680959e+01    0.2890033    0.2548476   1.93 0.0007419195    1.186    0.157
        91  -7.9582     84.9040    144.1122   1.0170265422e+02   3.4909351242e+01    0.2196389    0.1772664  72.76  0.001124507    1.234    0.190
        92 -10.5927     44.2238    142.4815   1.1249605416e+02   4.0687573705e+01     0.463398    0.3010394  88.07  0.001418439    1.460    0.315
        93  -8.1080    126.2695    139.3502   9.0351888319e+01   2.8990086494e+01    0.1405336    0.1108833 -15.21 0.0003706772    1.625    0.385
        94  -8.1424    109.0063    137.7599   9.4308902897e+01   3.2407538585e+01    0.2350301    0.1994161 -60.19 0.0003375641    1.186    0.157
        95  -8.7359    171.7238    161.7513   8.4876341222e+01   1.6615231712e+01    0.2703657    0.2131567  30.29  0.001585552    1.194    0.163
