#   1 NUMBER                 Running object number                                     
#   2 MAG_AUTO               Kron-like elliptical aperture magnitude                    [mag]
#   3 X_IMAGE                Object position along x                                    [pixel]
#   4 Y_IMAGE                Object position along y                                    [pixel]
#   5 X_WORLD                Barycenter position along world x axis                     [deg]
#   6 Y_WORLD                Barycenter position along world y axis                     [deg]
#   7 A_WORLD                Profile RMS along major axis (world units)                 [deg]
#   8 B_WORLD                Profile RMS along minor axis (world units)                 [deg]
#   9 THETA_WORLD            Position angle (CCW/world-x)                               [deg]
#  10 FWHM_WORLD             FWHM assuming a gaussian core                              [deg]
#  11 ELONGATION             A_IMAGE/B_IMAGE                                           
#  12 ELLIPTICITY            1 - B_IMAGE/A_IMAGE                                       
         1  -9.8361    188.5073     20.7262   5.0564347518e+01   3.4450170777e+01     0.260187    0.2516514 -64.98 0.0006038783    1.023    0.023
         2 -10.3365     29.2543     18.1580   9.5119225162e+01   7.1405225018e+01      0.31975    0.2784359  24.25 0.0007455468    1.299    0.230
         3  -9.6899     97.5790     12.6163   6.3224680677e+01   5.9316676878e+01    0.5066274     0.226047 -14.13  0.001825794    2.840    0.648
         4  -8.2712    107.3197      8.3285   5.8718340118e+01   5.7367290546e+01    0.1575954    0.1016126  29.63 0.0006271878    1.686    0.407
         5  -8.0640     35.7265      8.6950   8.5993027414e+01   7.2308502981e+01    0.1288664   0.08960566 -13.53 0.0002082924    1.541    0.351
         6  -8.4407    138.0813      4.6555   5.1367329370e+01   4.9573240163e+01    0.1966142    0.1768157  53.36  0.000464743    1.076    0.071
         7  -9.3582    105.7145      2.4337   5.6204834226e+01   5.8368545665e+01    0.2694884    0.2296935  29.04 0.0006317523    1.138    0.121
         8  -7.9767    229.7034      2.6329   4.1763096047e+01   2.6027005554e+01     0.130545   0.09448349  27.06 0.0007030608    1.725    0.420
         9  -7.6825    124.3570    239.7201   1.1050493984e+02   1.3398430898e+01    0.1092906   0.06324423  53.14 0.0007013267    1.661    0.398
        10 -11.6849    246.3995    230.1331   8.9273043431e+01  -1.8707600310e+00    0.6511957    0.4116062 -31.02  0.004843733    2.095    0.523
        11 -10.4009    209.7580    250.4987   9.7506011193e+01   9.6725632621e-01     0.329797    0.1407162  41.99 0.0007434337    2.080    0.519
        12 -10.2810    195.4581    248.7306   9.9528622796e+01   2.9499557428e+00    0.3320026    0.2020586  15.86  0.002391438    1.542    0.351
        13 -10.9358    162.1882    234.3219   1.0332824635e+02   8.9261100890e+00    0.5184462    0.2427235  32.29  0.002063856    1.723    0.419
        14 -11.7639    166.2611    248.5753   1.0424461374e+02   6.7829068547e+00     1.067227    0.2959837  39.38  0.005270931    2.579    0.612
        15 -11.6011    174.2741    244.7195   1.0248957896e+02   6.1310035509e+00     0.605719    0.5035513  68.24  0.004769532    1.936    0.484
        16 -11.3108    167.8564    242.5590   1.0331121696e+02   7.2219867556e+00    0.4946618    0.2630126  38.86    0.0020877    1.393    0.282
        17 -10.2275    169.9156    232.4853   1.0178392522e+02   8.0679581740e+00    0.3395283    0.2616992  36.59  0.001542161    1.152    0.132
        18  -9.5479     18.0846    249.6074   1.2944348782e+02   2.4151729851e+01    0.2776718   0.06832558  42.33  0.001656968    2.231    0.552
        19  -8.1853      7.4324    250.5023   1.3118634212e+02   2.4982607237e+01   0.09404566   0.05985424  55.58 0.0001314915    1.015    0.015
        20 -10.9593    246.1822    248.1102   9.1772229028e+01  -3.2636008409e+00    0.4610661    0.2560837  33.79  0.002745806    1.469    0.319
        21 -11.6820    164.0039    226.5574   1.0208529222e+02   9.5923873677e+00    0.7156563    0.2954686  33.42  0.003773188    1.997    0.499
        22 -11.5154     98.9202    227.6467   1.1399855669e+02   1.8409524836e+01    0.5561268    0.4397606  53.06    0.0028548    1.106    0.096
        23  -9.7949    114.8029    221.7204   1.1048303507e+02   1.7154982668e+01    0.2622587     0.204796  10.01  0.001288756    1.671    0.401
        24 -11.0228     99.8152    218.8903   1.1304089042e+02   1.9602523321e+01      0.58967    0.2914732  55.68  0.003334725    2.018    0.504
        25 -10.1922    108.3494    223.0008   1.1181778609e+02   1.7844486674e+01    0.3294815    0.2594876   6.71  0.001496256    1.753    0.429
        26 -10.4715    236.6492    230.5780   9.0780017885e+01  -6.9182529662e-01    0.2679555    0.2302046 -26.80  0.001712432    1.845    0.458
        27  -9.3181    114.9240    228.9768   1.1117430602e+02   1.6103403709e+01    0.2835109    0.1483428 -51.23  0.001502409    2.518    0.603
        28  -9.1411    122.7449    232.7977   1.1012533274e+02   1.4526793052e+01    0.2096336    0.1503408   9.40  0.001416769    1.925    0.480
        29  -9.9299    127.8203    232.1209   1.0914487833e+02   1.3930524962e+01    0.2171165    0.1248062  20.73  0.001255709    2.227    0.551
        30 -10.0626    191.5470    220.3932   9.6540236552e+01   6.3834514112e+00    0.4344552    0.2033875 -28.75  0.002461595    2.696    0.629
        31 -10.2898    184.9792    226.8777   9.8517630041e+01   6.5952332891e+00    0.2507114    0.2326979  -3.03   0.00119804    1.385    0.278
        32  -9.1689    181.4713    227.0166   9.9129696966e+01   7.0720017455e+00    0.2824364    0.1636042 -23.47  0.001788513    2.246    0.555
        33  -8.3867    144.7837    228.7023   1.0573849983e+02   1.2035356585e+01    0.1756917    0.1106899  28.44  0.000746803    1.399    0.285
        34  -9.3414     73.1208    228.7468   1.1885224534e+02   2.1464836956e+01     0.254905    0.0942293  56.79  0.001283515    2.764    0.638
        35 -11.0316    131.8953    217.7862   1.0686106838e+02   1.5324629871e+01    0.7283664    0.3601837 -49.20  0.004229262    2.588    0.614
        36 -11.3584    125.8502    220.9666   1.0834059861e+02   1.5731443992e+01    0.4236804    0.3248092  25.02  0.000710437    1.315    0.239
        37  -8.6422     84.3543    228.1443   1.1673462271e+02   2.0187243335e+01     0.129298   0.09058978  82.63 0.0005674106    1.628    0.386
        38  -9.0109     62.4676    228.5087   1.2079463935e+02   2.2748856644e+01    0.1059562   0.07747073  51.83 0.0008096989    1.013    0.012
        39  -7.9323    176.3634    227.2789   1.0003461924e+02   7.7608398729e+00    0.1132728   0.06868195  18.88   0.00070118    1.674    0.403
        40 -10.1347    128.4790    225.5036   1.0833984297e+02   1.4733396195e+01    0.2667968    0.2130773   0.30  0.001392928    1.656    0.396
        41 -10.8096     88.5262    224.4753   1.1566456533e+02   2.0218724516e+01    0.5139924     0.186054 -56.15  0.002712476    3.454    0.710
        42  -9.8277     91.4909    220.9973   1.1481233289e+02   2.0371179363e+01    0.2456273    0.1794386 -46.73  0.001553904    1.910    0.477
        43  -8.2480     57.0458    227.4547   1.2172492605e+02   2.3528830082e+01    0.1269746   0.08605982  13.00 0.0006373115    2.415    0.586
        44  -8.1971     49.2909    226.6396   1.2310021970e+02   2.4514362992e+01    0.1115896   0.05483409  59.55 0.0007027607    1.694    0.410
        45  -7.8038      1.4909    226.4705   1.3162489958e+02   2.9156927246e+01    0.0988762    0.0648457  57.92 0.0001029428    1.020    0.019
        46 -11.6010    237.9834    241.1424   9.2037273736e+01  -1.7393522825e+00    0.4267017    0.3281212  17.60  0.002374537    1.258    0.205
        47  -9.3952    157.6601    221.9651   1.0264299415e+02   1.1064184003e+01    0.1965213    0.1691959  10.65 0.0005994304    1.241    0.194
        48  -9.2244    148.8167    220.8396   1.0409947153e+02   1.2481316194e+01    0.2364275    0.1543378 -40.56  0.001330281    1.972    0.493
        49  -9.5597     19.9553    222.9725   1.2826592119e+02   2.8077866799e+01    0.2362659    0.1554399  25.78  0.001134341    1.823    0.451
        50 -10.3347     14.4309    221.7561   1.2921678536e+02   2.8786562784e+01    0.2345378    0.1293703  36.26  0.001693703    1.581    0.367
        51  -8.2662     50.7705    222.4157   1.2258933502e+02   2.5028794237e+01    0.1398527   0.08766933  28.62 0.0009432912    1.731    0.422
        52  -8.1768    183.0098    219.9501   9.7934013947e+01   7.6544727949e+00    0.1754391    0.1097318  16.18 0.0007410136    1.640    0.390
        53  -9.5488    175.7439    217.2184   9.8827403310e+01   9.0271274805e+00    0.3168669    0.2015787 -19.93  0.002017807    2.012    0.503
        54  -9.2785     74.8196    219.4632   1.1785699716e+02   2.2709558855e+01    0.2832763    0.1500921  61.07  0.001164261    1.816    0.449
        55  -9.4666     84.0297    216.8414   1.1588348249e+02   2.1978167445e+01    0.2927106    0.1997894 -35.31  0.001849604    2.477    0.596
        56  -8.3287     28.3058    219.6307   1.2661405103e+02   2.7824491307e+01    0.1138253   0.05047173  59.19 0.0007034509    1.754    0.430
        57  -9.2922    143.7262    216.2605   1.0448122147e+02   1.3829932826e+01    0.2283421     0.196096 -34.69  0.001187934    1.474    0.321
        58  -8.2419     62.3152    217.6491   1.2011194678e+02   2.4496313874e+01    0.1170901   0.05992948  59.46 0.0007046814    1.731    0.422
        59  -9.7911     13.2175    217.0557   1.2928282675e+02   2.9673266498e+01    0.1761664   0.07009571  62.62  0.001082957    1.953    0.488
        60  -9.4877    112.1169    214.3167   1.1023398077e+02   1.8624263298e+01    0.2586263    0.2053947 -29.22   0.00140751    1.785    0.440
        61  -8.2761    228.4885    215.0370   8.9765378981e+01   1.7849502151e+00    0.1496048   0.07641637  -1.05  0.000809712    2.531    0.605
        62  -9.3812    118.9329    214.9986   1.0900079201e+02   1.7567782533e+01    0.3849226    0.1409888  47.92  0.001830665    2.454    0.592
        63  -8.8051    115.8078    210.4874   1.0911184196e+02   1.8688746459e+01    0.2546424    0.1636155  76.04  0.001237836    2.274    0.560
        64  -8.5095    104.5123    225.4884   1.1276771497e+02   1.7992271041e+01    0.1517219    0.1022659 -87.11 0.0006381456    2.017    0.504
        65  -9.9997    202.9379    209.4171   9.3051367188e+01   5.9566025005e+00    0.2683076    0.2346436  23.20  0.001336225    1.280    0.219
        66  -8.2134    186.2130    211.5686   9.6218359612e+01   8.1633227319e+00    0.1614554   0.08530834  29.45 0.0005760251    1.608    0.378
        67  -9.0494     56.8041    209.7779   1.2064345440e+02   2.6446718653e+01    0.1593035     0.113774 -23.10  0.000959939    2.838    0.648
        68  -8.8545    134.6131    208.7620   1.0528550945e+02   1.6222833811e+01    0.2894717    0.1192013  40.76  0.001298203    1.907    0.476
        69 -10.2134    212.6600    207.4744   9.1147403794e+01   4.7601783932e+00    0.2349613    0.1685272  29.49  0.001247805    1.152    0.132
        70  -7.9909    162.3786    208.2981   1.0001734567e+02   1.2133832792e+01    0.1207564   0.07791357  16.28 0.0007024013    1.758    0.431
        71 -10.5421     11.4957    207.4757   1.2928270442e+02   3.1457114032e+01    0.2822821    0.1817076  19.35  0.001848854    2.117    0.528
        72  -8.3437     32.9875    207.3430   1.2515584321e+02   2.9441410776e+01    0.1496634   0.08733268   5.49 0.0007051004    4.446    0.775
        73 -10.1749    123.9947    205.9926   1.0700615910e+02   1.8196059775e+01    0.1672996    0.1328035  42.52            0    1.013    0.013
        74 -10.4991     77.9090    211.3580   1.1661599044e+02   2.3640516597e+01    0.3256043    0.3234416  78.00   0.00221503    1.368    0.269
        75  -8.5393     99.2402    206.1661   1.1191382424e+02   2.1684432614e+01     0.219386    0.1127381  55.90 0.0007534838    1.946    0.486
        76  -8.6642     56.5210    205.9960   1.2043898009e+02   2.7128361108e+01    0.1543606   0.07205927  71.49 0.0007840174    2.477    0.596
        77  -9.3081    248.3364    205.0683   8.5204344581e+01   5.4391696992e-02    0.1468966    0.1069571   7.48 0.0007591142    1.067    0.062
        78 -10.2201    250.0248    242.5356   9.0475081739e+01  -3.2900594215e+00    0.3446539    0.2112407 -21.36  0.002732088    1.800    0.444
        79  -8.8804    215.9957    204.0004   9.0065854715e+01   4.6487028704e+00    0.1773553    0.1210726  16.62 0.0005007768    1.210    0.173
        80  -8.8247    130.4174    201.6626   1.0522075770e+02   1.7905630851e+01    0.2617966    0.2215512  34.25  0.001853395    1.087    0.080
        81  -8.9900     73.5946    201.2325   1.1662409223e+02   2.5896837262e+01    0.1900885    0.1660825 -25.33 0.0009242262    1.698    0.411
        82  -8.1691     49.3023    202.6160   1.2165439531e+02   2.8537197475e+01    0.1214605   0.06070466  61.62  0.000702024    1.785    0.440
        83  -7.9935     80.3112    201.6597   1.1529294285e+02   2.4965536220e+01    0.1218459   0.07008873  61.23 0.0007045587    1.694    0.410
        84  -9.6959    250.2380    198.5734   8.3874110781e+01   3.9788410261e-01    0.3000254     0.148101 -22.63  0.001745784    1.962    0.490
        85 -11.1087    173.6060    195.2992   9.6079974091e+01   1.2130599756e+01    0.4339693    0.3974221  28.42  0.002027818    1.199    0.166
        86  -9.3165    180.5347    193.4772   9.4530926741e+01   1.1277908026e+01    0.3854907    0.2075337 -53.22  0.001904843    3.177    0.685
        87  -8.9084    164.8751    198.3572   9.8155057324e+01   1.3087034380e+01    0.2778876    0.1636013   9.91 0.0009419933    2.660    0.624
        88  -8.5785    149.2522    198.8902   1.0119200830e+02   1.5443856587e+01    0.2405614    0.1613247  74.02  0.001255509    2.737    0.635
        89  -9.7325    126.5796    197.2361   1.0542282061e+02   1.9169470909e+01    0.2576793    0.2133653  11.94  0.001062192    1.410    0.291
        90  -9.1196    124.3925    192.3107   1.0523134898e+02   2.0288582144e+01    0.2192778     0.180392  56.15 0.0005940609    1.187    0.158
        91  -8.3420    112.4581    197.9256   1.0835334939e+02   2.1156369139e+01    0.2337868    0.1098488  60.37  0.001007064    3.199    0.687
        92  -8.7346    131.9613    195.5456   1.0412861210e+02   1.8615574217e+01    0.1823611    0.1795069  53.35 0.0007376419    1.205    0.170
        93  -8.8950    135.5843    193.4135   1.0312008075e+02   1.8388851428e+01    0.2674191    0.1766425  55.57  0.001569085    1.602    0.376
        94  -8.2567     66.8478    195.2411   1.1750453548e+02   2.7795732914e+01    0.2097304   0.08619422  61.48 0.0009554692    2.867    0.651
        95  -8.3621    186.0000    193.9637   9.3620457606e+01   1.0354068665e+01    0.1650062   0.06712832 -37.74 0.0003913742    2.854    0.650
        96  -8.0465     78.0172    193.5280   1.1501114712e+02   2.6687201342e+01    0.1738507   0.06840125  52.64 0.0008078791    2.400    0.583
        97  -8.1391    113.3236    192.2839   1.0749899095e+02   2.1961344212e+01    0.1133783   0.08946688  12.26 0.0003382938    1.597    0.374
        98  -9.3547     88.8957    199.4984   1.1333371180e+02   2.4202347069e+01    0.2309014    0.1591876  85.87  0.001113246    1.689    0.408
        99  -9.0336    138.9937    189.9619   1.0196024447e+02   1.8393312909e+01    0.2648776    0.1900985 -67.16  0.001559493    1.927    0.481
       100  -8.8598    138.3246    179.6764   1.0059671089e+02   2.0145088649e+01    0.2846226    0.2016132  74.14  0.001545744    2.078    0.519
       101  -9.8695    141.9274    185.3257   1.0070231987e+02   1.8653374531e+01    0.5512422    0.2644666  45.72  0.002743199    1.851    0.460
       102  -8.5275    136.7659    183.0421   1.0141787834e+02   1.9850096764e+01    0.2152223    0.1515068 -35.42  0.001003041    1.749    0.428
       103  -9.6632    203.7057    188.4152   8.9611619874e+01   8.2629496507e+00     0.500187    0.2361953  46.88  0.002534642    2.236    0.553
       104  -8.7199    203.4873    184.4936   8.8990117543e+01   8.7727545141e+00    0.1749903    0.1401957  17.84 0.0008845052    1.010    0.010
       105  -8.6920    198.4836    185.5031   9.0031080144e+01   9.4441105056e+00    0.2398203    0.1557095   5.63  0.001016561    1.713    0.416
       106  -9.3229    197.3299    181.9719   8.9635991303e+01   1.0073590860e+01    0.2577276    0.1937376  -4.30 0.0008634129    1.333    0.250
       107  -9.0561    156.1387    188.1533   9.8305591108e+01   1.5926869981e+01    0.2145501    0.1780648 -48.50 0.0008572276    1.489    0.329
       108  -8.6474    129.4334    188.7002   1.0372106727e+02   2.0095610633e+01    0.1884576    0.1228905 -61.05 0.0009120012    1.955    0.488
       109  -7.9599     87.3459    189.6708   1.1265149439e+02   2.6131116506e+01    0.1287911     0.075158  61.35 0.0007050147    1.754    0.430
       110 -10.0475    230.1785    185.7872   8.4793563525e+01   4.5135069275e+00    0.2700637     0.239051  82.50  0.001800843    2.311    0.567
       111  -8.9309    120.7565    186.8073   1.0525678392e+02   2.1753686511e+01    0.2810133    0.1626725 -65.85  0.001347282    2.330    0.571
       112  -9.8882     95.2424    187.3148   1.1070947188e+02   2.5451071045e+01    0.5421294    0.1854273  50.88  0.001973951    3.035    0.670
       113  -8.6034     55.3031    187.2749   1.1929345390e+02   3.0646447348e+01    0.3080798    0.1297077  65.19   0.00134138    2.785    0.641
       114  -9.0182    148.7822    186.3528   9.9481606158e+01   1.7387188308e+01    0.2209467    0.1693472 -28.10  0.001385553    1.568    0.362
       115  -9.3705    108.9205    185.4745   1.0757415621e+02   2.3779887129e+01    0.3596983    0.2024965  71.85  0.001650038    2.949    0.661
       116 -10.4197    211.2285    182.6116   8.7345471326e+01   7.7755377737e+00    0.6444377    0.3335693 -20.88  0.003237325    2.184    0.542
       117 -10.2263    208.2645    170.2843   8.5658832765e+01   9.7617009993e+00    0.4641428    0.2806901  21.55  0.002313579    1.637    0.389
       118  -9.7170    183.2898    180.9309   9.1992847673e+01   1.2506175605e+01    0.2587592    0.2225543 -11.55  0.001506417    1.225    0.184
       119  -9.9195    174.0000    182.9749   9.4064157321e+01   1.3756208632e+01    0.2679822    0.1740013 -46.37  0.001544537    1.935    0.483
       120  -9.6645    175.5013    178.9887   9.3120249826e+01   1.4069396511e+01    0.2626658    0.1742044  11.85  0.001409415    1.772    0.436
       121  -7.8645     74.4766    184.4877   1.1489161321e+02   2.8798243616e+01    0.1235001   0.09388904  58.99 0.0001092129    1.112    0.101
       122 -10.4594     13.9255    182.4915   1.2783246044e+02   3.5796726728e+01    0.3663079    0.2655365   1.61  0.002462954    2.286    0.563
       123 -10.7037    215.2001    167.2557   8.3919635953e+01   8.9924943567e+00    0.8037472    0.3551876  27.06  0.003549911    2.652    0.623
       124  -8.3810    165.2455    182.8373   9.5711247904e+01   1.5220082944e+01    0.1698158    0.1277137  18.38  0.000447148    1.315    0.240
       125  -8.1251     44.2719    182.9351   1.2134795274e+02   3.2719744661e+01    0.1339158    0.0891664 -88.15 0.0006526652    1.453    0.312
       126  -8.7590    157.0946    181.1484   9.7032375722e+01   1.6819637838e+01    0.1921256    0.1484055  19.59 0.0004759925    1.287    0.223
       127  -9.5361    148.3296    180.7510   9.8719167624e+01   1.8330127494e+01    0.3504407    0.2047146  24.78  0.001780289    1.945    0.486
       128  -9.8823    149.0517    175.0833   9.7676470047e+01   1.9108744859e+01    0.3244687    0.2885882 -27.05  0.001769723    1.277    0.217
       129  -9.7454    231.9692    178.2016   8.3183299399e+01   5.0656735415e+00    0.3121327     0.152031 -19.81  0.001491982    2.142    0.533
       130  -8.8544    109.3966    180.2656   1.0680212607e+02   2.4624188686e+01    0.2310565    0.1379617  30.81 0.0008226013    1.695    0.410
       131  -9.2904     96.6889    178.1921   1.0931291820e+02   2.6896239657e+01    0.4087468    0.2535291  18.76  0.002066907    2.334    0.572
       132  -8.2324    120.3455    178.3034   1.0417899649e+02   2.3270583638e+01    0.1226692   0.09500444   8.31 0.0006683351    1.688    0.408
       133  -8.6632     20.3679    174.4794   1.2605423964e+02   3.6776472892e+01    0.2565357    0.1082992  82.52  0.001338118    2.330    0.571
       134  -9.0303     12.4444    176.8903   1.2790014649e+02   3.7006837401e+01    0.2567328    0.1484683 -87.23  0.001600951    1.555    0.357
       135  -8.9685     14.6179    171.0999   1.2715301894e+02   3.7960083324e+01    0.2895251    0.1777305  12.81  0.001746992    2.419    0.587
       136  -8.2069     59.8111    177.1684   1.1743908946e+02   3.2042548971e+01    0.2225109   0.09057999  62.14 0.0009550092    2.976    0.664
       137  -9.7325    183.3009    173.7098   9.0749762217e+01   1.3499189543e+01    0.4130806    0.2042335 -21.18  0.001802742    3.046    0.672
       138  -9.0717     76.8228    175.8051   1.1347093713e+02   3.0133348616e+01    0.3771127    0.1484638  50.37  0.001718862    2.346    0.574
       139  -8.9222    159.7397    175.5838   9.5606425124e+01   1.7225211940e+01    0.1805275     0.106137  48.31 0.0009388172    1.659    0.397
       140  -9.7336    104.8800    174.7670   1.0706169593e+02   2.6304958711e+01    0.2871762    0.1905105  56.87  0.001619246    1.470    0.320
       141  -8.3563    129.5239    177.1023   1.0205120223e+02   2.2007296921e+01     0.168732    0.1273306 -57.10  0.001015904    1.568    0.362
       142  -8.4242    218.3310    174.0567   8.4645033662e+01   7.6634166289e+00    0.1639131    0.1314401  -1.31 0.0004621069    1.124    0.110
       143  -8.1475     93.4803    174.4811   1.0956648380e+02   2.8055903388e+01    0.1251993    0.1059919  54.46  0.000810052    1.006    0.006
       144  -8.4870     87.5246    177.4443   1.1125562840e+02   2.8350426177e+01    0.2645107    0.1050065  37.21   0.00121322    2.200    0.545
       145  -8.6708    193.4827    173.0247   8.8761079575e+01   1.1873745876e+01    0.2311838    0.1428382  26.37 0.0004840496    1.516    0.341
       146  -9.9303    161.7635    170.5924   9.4361913917e+01   1.7648694663e+01    0.3025872    0.2663671  39.00  0.001961005    1.108    0.097
       147 -10.0691    157.6312    164.6409   9.4159237466e+01   1.9308499891e+01    0.5676831    0.2855338  43.52  0.002724983    1.780    0.438
       148  -7.6885     45.2921    172.6541   1.2033693626e+02   3.4620346482e+01    0.1262118   0.06964678  63.84  0.000702853    1.663    0.399
       149  -9.7099    176.6269    171.2059   9.1567912211e+01   1.4994886888e+01    0.2703903    0.1928381 -13.65 0.0007533213    1.616    0.381
       150  -8.2360    134.8404    171.6154   1.0008444470e+02   2.2067294862e+01    0.1903499     0.103879  48.59 0.0006115041    1.728    0.421
       151  -9.0932    121.9066    169.8705   1.0260828256e+02   2.4508070897e+01    0.3516437    0.2270453  77.02   0.00124375    2.464    0.594
       152  -8.7060     55.1481    169.9367   1.1783788945e+02   3.4033906669e+01    0.2697096    0.1262847  62.81  0.001246813    2.267    0.559
       153  -7.6873    221.6247    169.7071   8.3307651601e+01   7.6501732677e+00    0.1306498   0.07815809  15.15 0.0007023251    1.736    0.424
       154  -8.3454    198.7535    167.6107   8.6833107844e+01   1.1703961108e+01    0.2051394    0.1270912  15.47  0.001078415    1.799    0.444
       155  -8.5548    111.6482    166.9991   1.0445966784e+02   2.6686991976e+01    0.3009669    0.1618985 -82.34  0.001118196    4.228    0.763
       156  -8.9391     99.6245    166.5889   1.0713601363e+02   2.8640756449e+01    0.3530278    0.1678187  54.72  0.001473529    2.300    0.565
       157  -8.2645      3.0235    167.4680   1.2956645065e+02   3.9637914075e+01    0.1297883   0.09006789 -19.27  0.000809743    2.596    0.615
       158 -10.6122    204.7713    176.0846   8.7308132348e+01   9.6072351829e+00     0.464604    0.3013423  25.44  0.001823872    1.366    0.268
       159  -9.4449    149.5323    164.6037   9.5825282248e+01   2.0735931818e+01    0.3363007    0.2339008  54.43   0.00153931    1.538    0.350
       160  -8.8124    139.4752    165.4223   9.8090650848e+01   2.2342617635e+01    0.2813823    0.1869185  71.79  0.001252113    2.380    0.580
       161  -8.1272     29.3168    166.3255   1.2353969345e+02   3.7567035537e+01    0.1040625   0.08507368 -46.71 0.0007044455    1.672    0.402
       162  -9.0932     80.0340    164.1973   1.1138818418e+02   3.1974618723e+01    0.3743205    0.1908393  69.72  0.001625271    2.832    0.647
       163  -9.0694    192.3452    163.1035   8.7151212794e+01   1.3420665708e+01    0.2425267    0.1136341 -26.65  0.001089494    2.540    0.606
       164  -9.2075    186.0585    163.3642   8.8362887469e+01   1.4485007374e+01    0.2374613    0.1864089  13.72 0.0007702034    1.208    0.172
       165  -8.7657    122.4722    163.6112   1.0151243742e+02   2.5546872423e+01    0.2809438    0.1860952   8.63  0.001208727    2.527    0.604
       166  -8.8218     47.5562    164.0424   1.1908198881e+02   3.6113260297e+01    0.2454163    0.1285767  79.70  0.001090778    2.079    0.519
       167  -8.0821     37.7821    164.6269   1.2144034695e+02   3.7057354376e+01    0.1653813   0.08467752  45.84 0.0005169699    1.640    0.390
       168  -7.9364     70.3187    163.6297   1.1362419562e+02   3.3408182501e+01    0.1362572   0.08015089  66.02  0.000703502    1.793    0.442
       169  -8.9747      9.3919    161.5263   1.2787053777e+02   4.0334304202e+01    0.3092732     0.116404  67.06  0.001542036    2.413    0.586
       170 -10.4310    150.7302    159.7161   9.4712329612e+01   2.1340954161e+01    0.4092349    0.3416642  42.52  0.002483774    1.104    0.094
       171  -8.5809    205.4416    159.8109   8.4181490099e+01   1.1589521221e+01    0.1706968    0.1107344 -12.59 0.0008612766    1.654    0.395
       172  -7.9154    160.3277    160.3184   9.2831947238e+01   1.9526309044e+01    0.1350951   0.09699576  10.32 0.0003734905    1.681    0.405
       173  -8.7261    144.5561    159.7547   9.6029297041e+01   2.2430813703e+01    0.2335052    0.1594625  40.68 0.0003008169    1.304    0.233
       174  -8.3505     22.8354    159.5502   1.2461277707e+02   3.9579574958e+01    0.2372098   0.09792512  63.32  0.001176019    2.279    0.561
       175  -8.7258    139.2159    158.9336   9.7037259405e+01   2.3515618389e+01    0.2564062    0.1655717  17.33  0.001093165    2.122    0.529
       176  -9.1158    105.7667    158.0992   1.0447489167e+02   2.9322197747e+01    0.3764917    0.2310977  69.85  0.001389153    2.223    0.550
       177  -8.5567    106.2549    153.0052   1.0356182346e+02   3.0243508047e+01    0.3782691     0.223046  13.06  0.001459036    3.594    0.722
       178  -9.8165     49.3316    155.2080   1.1782218558e+02   3.7757224906e+01    0.3755215    0.2553619  76.07  0.001587286    1.375    0.273
       179 -10.8037     56.7076    146.3258   1.1500056010e+02   3.8788847228e+01    0.6639647    0.3109873  63.23  0.002637328    2.540    0.606
       180  -9.9755     51.4459    148.9915   1.1665001955e+02   3.8842715242e+01    0.4217956      0.27252  19.94  0.002273852    2.014    0.503
       181  -7.8063    196.3074    157.6665   8.5391841501e+01   1.3478564964e+01    0.1159319    0.1051019 -87.99 0.0003821841    1.669    0.401
       182  -8.3983    167.4559    157.2829   9.0825228018e+01   1.8726234892e+01    0.2174093    0.1569484  60.65 0.0006574587    1.757    0.431
       183  -9.7690    213.1183    155.2473   8.1969674836e+01   1.0856778412e+01    0.2671586    0.2592843 -10.07  0.001115386    1.353    0.261
       184  -8.2310    178.2398    156.1721   8.8487327254e+01   1.6939799643e+01    0.2192395    0.1290886  10.19 0.0009334453    2.702    0.630
       185  -9.2521    119.4311    155.3553   1.0085686824e+02   2.7595350306e+01    0.3218256    0.2054414  80.52  0.001431078    2.662    0.624
       186  -9.4112     81.7316    154.0362   1.0966469156e+02   3.3803446256e+01    0.4820623    0.2676908 -89.87  0.002170756    2.608    0.617
       187  -8.7459     93.2451    160.8775   1.0783036080e+02   3.0721087053e+01    0.2933915    0.1608447  60.68  0.001387649    2.114    0.527
       188  -9.6490     68.0867    153.5558   1.1297996057e+02   3.5788168211e+01    0.5571898    0.2718299  68.56  0.001829855    2.832    0.647
       189 -10.8932     69.4642    143.4385   1.1132665049e+02   3.7768562686e+01    0.6799245    0.4006266 -61.50  0.003588337    1.711    0.416
       190 -10.7017     66.9742    131.2556   1.1025825666e+02   4.0798435476e+01    0.7690298    0.5226377 -68.65  0.003925724    1.435    0.303
       191 -10.2963     60.1515    125.1540   1.1126181512e+02   4.3087789807e+01     0.718259    0.3412685  71.29   0.00262761    3.590    0.721
       192  -8.9115     73.0372    129.2483   1.0827259672e+02   4.0404115492e+01    0.3574991    0.2144751  67.57  0.001160669    1.993    0.498
       193  -9.1480     73.5802    124.3085   1.0730768670e+02   4.1438310151e+01    0.3158717    0.2424463  -1.37   0.00139437    1.947    0.486
       194  -9.2438    133.4885    153.0071   9.7253103919e+01   2.5590372647e+01    0.4046631    0.2586857 -73.71  0.001812138    2.540    0.606
       195  -8.3666    133.5075    148.0132   9.6337775476e+01   2.6506027269e+01    0.2368303     0.173203  19.04  0.001229624    1.636    0.389
       196  -9.5263    230.4166    149.4777   7.7988274525e+01   8.6200271931e+00    0.3161733    0.2037772 -41.86  0.001759844    1.966    0.491
       197  -8.8440    205.2366    151.5781   8.2599523070e+01   1.2725251635e+01    0.2462221    0.1688209 -26.39  0.001401139    1.462    0.316
       198  -8.3678    168.9640    152.4981   8.9605806365e+01   1.9209781724e+01    0.1955859    0.1046343  24.15 0.0008089733    2.512    0.602
       199  -9.5153    189.9668    147.9917   8.4635972576e+01   1.6007295671e+01    0.4975292    0.1844281 -36.09  0.002016674    2.815    0.645
       200  -7.8817     94.3373    155.3265   1.0677687450e+02   3.1665042214e+01    0.1255478     0.103069 -10.19 0.0007051636    1.725    0.420
       201  -8.3563     98.7967    151.2053   1.0507342253e+02   3.1802369811e+01    0.2241016    0.1251793  68.96 0.0008777066    2.720    0.632
       202  -8.7148     28.4668    149.8123   1.2254818472e+02   4.1114053564e+01    0.3383198    0.1193794  67.26  0.001319489    3.604    0.723
       203  -8.4840    220.8621    149.0997   7.9448725618e+01   1.0299815701e+01    0.1758913    0.1635471  10.42 0.0007510685    1.241    0.194
       204 -10.0227     36.6277    131.0094   1.1866835193e+02   4.4472414393e+01    0.5027484    0.4124632  43.16  0.003287742    1.261    0.207
       205  -9.9896     39.1985    136.5210   1.1854475309e+02   4.2959678813e+01    0.3980186    0.1833586  51.69  0.001394538    2.045    0.511
       206  -9.9558     40.2656    148.1666   1.1942005315e+02   4.0275160178e+01    0.5113367    0.2076586  53.44  0.001901094    2.330    0.571
       207  -9.9625     40.5197    140.8272   1.1863498498e+02   4.1858651304e+01     0.538595    0.3248636 -22.81  0.002436983    3.512    0.715
       208  -8.1508    162.6653    147.6905   8.9944818499e+01   2.1164858893e+01    0.1399385    0.1006863  11.28 0.0007043026    1.677    0.404
       209  -9.7301    149.4238    145.6406   9.2346607151e+01   2.4001908917e+01    0.4333602    0.2950563  84.68  0.001858686    2.897    0.655
       210  -9.5101    107.4149    145.5005   1.0203942796e+02   3.1551592666e+01    0.5259734      0.27644  65.30  0.001900993    3.191    0.687
       211  -8.7929     13.2156    146.5405   1.2614513363e+02   4.3171233843e+01     0.234971    0.1306864  62.01 0.0009955165    1.529    0.346
       212  -8.1737    195.3902    146.2348   8.3275883826e+01   1.5258452723e+01    0.2481219     0.158499 -37.10  0.001311385    1.669    0.401
       213  -9.6823    196.3308    142.6911   8.2369419208e+01   1.5593295413e+01    0.2022112    0.1909875  17.78   0.00128718    1.166    0.142
       214  -7.7359    224.3021    144.3376   7.7916685436e+01   1.0300955299e+01    0.1341095   0.08607996   9.46 0.0002567896    1.666    0.400
       215  -9.0879    218.6997    143.8282   7.8725808577e+01   1.1352374864e+01    0.2347783    0.1762029  41.81 0.0008540571    1.374    0.272
       216  -9.1608    125.4945    143.3877   9.7325079543e+01   2.8825394977e+01    0.3717589    0.2534001  88.20  0.001699615    2.378    0.579
       217  -8.7834     88.1666    143.9492   1.0658538613e+02   3.4959055714e+01    0.2855168    0.1664169  67.39  0.001113555    2.204    0.546
       218  -8.2512    206.7687    143.1610   8.0610202010e+01   1.3594136132e+01    0.1844843    0.1363264  15.52 0.0007072917    1.306    0.234
       219  -8.8729      2.7708    142.3910   1.2853727523e+02   4.4863203878e+01    0.2844471    0.1048602  73.97  0.001343361    2.551    0.608
       220  -9.8943     23.9178    138.8497   1.2285182721e+02   4.3934083073e+01    0.4933257    0.1675364  58.63  0.001909666    3.118    0.679
       221  -8.4449    165.4104    144.2439   8.8685351790e+01   2.1216368443e+01    0.1771544    0.1298217 -51.29 0.0003865727    1.634    0.388
       222  -8.5576    192.2903    140.3691   8.2622237612e+01   1.6693597242e+01    0.1413112   0.09656711   6.98 0.0007024307    1.714    0.417
       223  -8.8084     81.1077    139.6316   1.0773596249e+02   3.6943262438e+01     0.228908    0.1722896 -85.18 0.0007363714    1.391    0.281
       224  -8.4355    197.2769    137.9643   8.1196681480e+01   1.6098088887e+01    0.1831456    0.1628739  -7.84 0.0004906311    1.091    0.083
       225  -8.9243    108.2801    137.4456   1.0039659969e+02   3.3045291821e+01    0.5017775    0.2841125  15.64  0.001761056    3.956    0.747
       226  -8.6569    112.5916    133.3132   9.8536770103e+01   3.3139379164e+01    0.2422454    0.1621841  61.05 0.0008701724    1.689    0.408
       227  -9.9625     57.8843    136.4949   1.1347614529e+02   4.0810144995e+01    0.3397633    0.2354982 -19.91  0.001707912    2.488    0.598
       228  -8.4992    208.3957    136.7910   7.8980134269e+01   1.4168398314e+01    0.2601781    0.1721118  81.35 0.0009672832    4.526    0.779
       229  -9.0864    149.8484    136.3930   9.0376864880e+01   2.5564662958e+01    0.3809368    0.2281745  18.26  0.001525186    2.626    0.619
       230  -8.4487     89.8123    136.9473   1.0503094618e+02   3.6194514922e+01    0.2673605    0.1786167   8.37  0.001198672    2.595    0.615
       231  -8.7487    232.1109    133.1291   7.4331452892e+01   1.0325834799e+01    0.2068475    0.1536674   7.02  0.001233306    1.247    0.198
       232 -11.4512    130.6259    118.7786   9.0981292880e+01   3.2678582197e+01     1.030879    0.3737739 -51.49  0.003501425    3.238    0.691
       233  -8.7828    107.4810    133.5170   9.9865395802e+01   3.3995346241e+01    0.1374625    0.1286813  59.32 7.684436e-05    1.004    0.004
       234  -9.8391     83.5413    132.0440   1.0586777121e+02   3.8230026479e+01    0.4093108    0.2626944  73.49  0.001168492    1.939    0.484
       235  -8.9476    143.2601    132.0793   9.0940278345e+01   2.7633928024e+01    0.2650994    0.1823829  70.04  0.001215223    2.071    0.517
       236  -9.1380     23.7534    130.2574   1.2217351895e+02   4.5875123702e+01    0.4334052    0.2239652 -38.59   0.00201474    3.169    0.684
       237 -10.1699    132.5861    132.0546   9.3410233330e+01   2.9699136171e+01    0.4413576    0.2846588 -76.61  0.001766641    2.682    0.627
       238  -9.2198     12.8421    129.6498   1.2513343787e+02   4.6919629462e+01    0.4042662    0.1425524  65.05  0.001702967    3.071    0.674
       239  -8.8127    168.7782    130.1788   8.4997830644e+01   2.2900982709e+01    0.2240632    0.1583489 -85.09  0.000947168    2.801    0.643
       240  -8.4509    153.4445    129.9672   8.8208021624e+01   2.6008919093e+01    0.2732021    0.1778842  81.01  0.001032042    3.332    0.700
       241  -9.9243     99.8266    128.5808   1.0090697606e+02   3.6351658271e+01    0.4755667    0.3023732  77.33  0.001812186    2.341    0.573
       242  -9.2084    143.5193    126.9791   8.9774363745e+01   2.8532994624e+01     0.313943     0.172982  27.51  0.001251355    2.442    0.590
       243  -9.7203    118.2225    125.5299   9.5548424945e+01   3.3709091736e+01    0.5501565    0.3490481  82.17  0.002043419    2.940    0.660
       244 -10.0768    119.2771    119.1744   9.3906428742e+01   3.4813520663e+01    0.5720904    0.2728209  27.59  0.001915083    3.542    0.718
       245 -10.9699     43.9113    122.5026   1.1558927545e+02   4.5650392309e+01     1.051359    0.4509692  78.72  0.003649147    4.133    0.758
       246 -10.3795     28.8928    122.8234   1.2000380274e+02   4.7108610475e+01    0.7887734    0.2800834  68.39  0.002596813    4.783    0.791
       247  -8.3987    179.1985    124.2023   8.1549414979e+01   2.1772194513e+01    0.1905086    0.1675236 -62.55 0.0007332395    1.426    0.299
       248  -8.7648    152.5661    123.4426   8.6939156171e+01   2.7360904585e+01    0.2440908    0.1967301 -27.96  0.001297548    1.315    0.240
       249  -8.8080     84.8892    122.2498   1.0376359828e+02   4.0188167787e+01    0.3911857    0.2516768  11.79   0.00160928    2.654    0.623
       250  -8.5462    158.7624    122.1326   8.5281539261e+01   2.6324484509e+01    0.2409045    0.1650219 -87.31 0.0009574288    2.947    0.661
       251  -9.2878     13.9826    120.1257   1.2408439436e+02   4.8997928291e+01     0.393246    0.1433409 -48.66  0.001610249    3.685    0.729
       252 -10.2075    142.0506    119.8881   8.8510038615e+01   3.0163747006e+01    0.4433673    0.3019724 -67.65  0.001437379    2.094    0.523
       253 -10.5449    121.9276    112.5957   9.1722504638e+01   3.5648960761e+01    0.6725553    0.4221417 -85.70  0.002428554    3.377    0.704
       254 -10.3322    108.3279    119.6761   9.6861615981e+01   3.6754208939e+01    0.7290632    0.3496552  55.57  0.002784521    2.617    0.618
       255 -10.1806    109.8852    114.7393   9.5367799588e+01   3.7515352626e+01    0.6238353     0.350953 -68.48  0.002051743    2.588    0.614
       256 -10.2938    111.0250    106.5137   9.3149108992e+01   3.9047404137e+01    0.5000661    0.3728137  12.38  0.001579419    1.859    0.462
       257 -10.8567    110.2798     99.9243   9.1721651869e+01   4.0593578318e+01     1.360381    0.7063053  68.62  0.003820715    5.174    0.807
       258  -8.6779     99.2218    119.8499   9.9340578031e+01   3.8338096091e+01     0.265684    0.1919394   7.48  0.001235561    2.130    0.530
       259 -10.1257     71.2233    117.0724   1.0672853887e+02   4.3428910640e+01    0.5810305    0.3423565 -53.35  0.002851341    1.704    0.413
       260  -9.6617      2.6614    116.7093   1.2712422746e+02   5.0575496234e+01    0.5351805    0.1769276  75.79  0.002148572    3.343    0.701
       261  -9.5029    165.3360    115.7703   8.2375322341e+01   2.6063610728e+01    0.3901812    0.2715107  21.43 0.0008790841    1.707    0.414
       262  -8.0668    192.6820    116.3118   7.7140475028e+01   2.0235032534e+01    0.1337877    0.1126331 -71.12 0.0006275937    1.644    0.392
       263  -9.8145     79.4101    113.0053   1.0356110432e+02   4.3133472196e+01    0.4978249    0.3039001  82.03  0.001768464    2.453    0.592
       264  -9.9633     92.7100    112.5232   9.9616835834e+01   4.1071123650e+01    0.5372598    0.3327095 -78.14  0.001798693    2.221    0.550
       265  -9.2011     94.2060    103.8878   9.7261246790e+01   4.2732883753e+01    0.5105285    0.2964745  24.09  0.002082477    2.486    0.598
       266  -9.2397    141.2248    112.4421   8.6935829106e+01   3.1751611650e+01    0.3131156    0.2250976   2.07  0.001406168    2.017    0.504
       267 -10.9041     14.7134    109.4843   1.2293363288e+02   5.1414882033e+01    0.5972912    0.3163573 -79.74  0.002560771    1.604    0.376
       268  -8.0857    159.3003    112.6268   8.2895656133e+01   2.7896061005e+01    0.1469994     0.116376 -76.57 0.0007029334    1.750    0.429
       269  -9.9921     66.6340     86.4448   1.0182066274e+02   5.1244503698e+01     0.650764    0.2998233  21.24   0.00220294    4.005    0.750
       270 -10.4186     65.9850    110.4708   1.0709885004e+02   4.5701130033e+01    0.4641281    0.3017739  73.29  0.002032653    1.845    0.458
       271 -10.3735     67.6707    104.6472   1.0546594789e+02   4.6822770646e+01    0.3647399    0.2297678  24.92  0.001754001    1.948    0.487
       272  -9.3116     63.9834    101.4062   1.0598787110e+02   4.8105654579e+01    0.3080613    0.1397262  31.17   0.00102696    2.478    0.596
       273 -10.4538     63.3967     95.8972   1.0504599766e+02   4.9487052114e+01    0.6460165     0.388326 -86.01  0.002171957    2.199    0.545
       274  -9.9104     60.9944    106.4822   1.0790924465e+02   4.7319334874e+01    0.3308225    0.2548114   9.95   0.00150826    1.739    0.425
       275 -10.3676     54.3966    109.8182   1.1055646743e+02   4.7387620579e+01    0.4308877    0.3408397  -6.64  0.002323508    1.782    0.439
       276 -10.1762     57.9927    110.0000   1.0947156286e+02   4.6887372109e+01    0.3091094    0.1936592  32.64  0.000996249    1.715    0.417
       277 -10.3122    133.5090    107.9841   8.7695087704e+01   3.4225163460e+01    0.5172036    0.2999194 -41.53  0.002272132    1.774    0.436
       278  -8.0766    159.3090    108.3179   8.1821274945e+01   2.8658894530e+01    0.1503268    0.1130783   9.94 0.0003754167    1.637    0.389
       279 -10.6840     23.1352    102.9379   1.1955735110e+02   5.2294355150e+01    0.7418922    0.2926257  65.81   0.00283131    3.529    0.717
       280 -10.8090     45.8173    103.1700   1.1218365069e+02   4.9992127892e+01    0.7718765    0.4126386  70.11  0.003382612    2.461    0.594
       281  -9.2636    150.3445    104.1287   8.2736959975e+01   3.1365728318e+01    0.3262535    0.2453668 -62.80  0.001076415    1.655    0.396
       282  -8.7647    139.7939    104.9439   8.5403757494e+01   3.3491031293e+01    0.2723106    0.2054535 -65.33 0.0009104103    1.640    0.390
       283  -9.5917     76.7141    104.4090   1.0261473756e+02   4.5525655994e+01    0.3337519    0.2261173  -9.09  0.001425335    2.722    0.633
       284  -8.9193    215.7741    103.1802   7.0034895115e+01   1.7367210886e+01    0.2033218    0.1807442 -38.38  0.001202128    1.233    0.189
       285 -10.1687    128.4499    101.9320   8.7421515776e+01   3.6484144879e+01    0.3840017     0.266525 -81.27   0.00127544    2.296    0.564
       286 -11.0311    129.4050     97.7338   8.6075781536e+01   3.7120454732e+01    0.5296333    0.3454155  19.46  0.001630356    2.299    0.565
       287  -9.1084      6.7895    102.9406   1.2484198475e+02   5.3503700202e+01     0.231333    0.1343439  77.91 0.0007782102    1.555    0.357
       288  -8.8454     82.1634    100.5611   1.0009803623e+02   4.5539263407e+01    0.2944317    0.2096044  87.29 0.0008990841    1.774    0.436
       289  -9.0992    101.9195    100.0590   9.4109795811e+01   4.2170082403e+01    0.2245823    0.2183739 -72.04  0.001074703    1.021    0.020
       290 -11.5701    122.4456     92.7684   8.6529913368e+01   3.9597903050e+01    0.7028357    0.5633137 -39.98    0.0021365    1.261    0.207
       291  -9.8389    127.3539     83.4161   8.2574067097e+01   4.0397153363e+01    0.5203156      0.31398  21.32   0.00190648    2.800    0.643
       292  -8.7693     77.4809     97.9421   1.0095747647e+02   4.6897961806e+01    0.2142956    0.1882415  44.56 0.0006369958    1.178    0.151
       293  -9.1103     94.9147     97.1359   9.5426697736e+01   4.4106849694e+01    0.2265338    0.1910742  87.21 0.0005815831    1.312    0.238
       294  -9.0986    152.5753     93.8594   7.9494784816e+01   3.2743990170e+01    0.3557174    0.1594275  36.99  0.001229504    2.776    0.640
       295 -10.4737     47.1962     92.3130   1.0979867354e+02   5.2433470759e+01     1.210154    0.3106837  29.49   0.00402073    4.304    0.768
       296 -10.0110     21.8349     92.1549   1.1862929204e+02   5.4986316572e+01    0.5243781    0.2643355 -29.14  0.002253419    3.344    0.701
       297  -9.8725    138.7977     92.2103   8.2240090421e+01   3.6148299202e+01    0.3543641    0.2330663 -61.47  0.001084657    1.989    0.497
       298  -9.5274    139.2312     87.8657   8.0906655869e+01   3.6874994654e+01      0.35938    0.2485593  -1.74  0.001459074    2.199    0.545
       299  -9.7150    107.6513     91.9416   9.0364552489e+01   4.2812845363e+01    0.3068956      0.27357  12.89 0.0009476051    1.277    0.217
       300 -10.4664    111.8154     90.6225   8.8828231228e+01   4.2252735525e+01    0.7355646    0.3193044  37.43  0.002629979    2.669    0.625
       301  -9.8203     36.2789     81.7567   1.1170206294e+02   5.6180536897e+01    0.5063785    0.2709067 -30.37  0.002159468    2.924    0.658
       302 -10.1238      8.5217     83.4468   1.2231158582e+02   5.8031077144e+01    0.4894325    0.3343648 -52.45  0.001228736    1.463    0.316
       303  -8.8156     96.8775     90.4409   9.3113747526e+01   4.5222701076e+01    0.3570463    0.2350164  -0.82    0.0013333    3.148    0.682
       304  -9.3955     86.4733     86.8330   9.5365886389e+01   4.7922744029e+01    0.4000588    0.2593434  74.98  0.001110737    2.400    0.583
       305  -9.0353    104.2758     86.7110   8.9895485150e+01   4.4599988986e+01    0.2198287    0.2072164 -86.44  0.001209054    1.093    0.085
       306  -9.8325    104.8596     83.5728   8.8828493625e+01   4.5150741472e+01    0.4354282    0.3113638 -82.27  0.001618465    2.017    0.504
       307  -9.5025     48.3482     84.5266   1.0782376958e+02   5.4165462340e+01    0.4514118    0.2352534  61.66  0.001867663    2.719    0.632
       308  -9.7533     34.7475     89.7361   1.1370266131e+02   5.4406120869e+01    0.5310296    0.2451088  89.01  0.001966106    3.122    0.680
       309  -9.6435     24.6205     80.9473   1.1594712984e+02   5.7464641077e+01    0.3924725    0.2102387  73.24  0.001430051    2.316    0.568
       310  -9.1553     87.9803     80.1229   9.3027236265e+01   4.9148590639e+01     0.602528    0.2504233  27.93  0.001679135    5.091    0.804
       311  -8.6294     74.7077     80.7891   9.7615743277e+01   5.1297122490e+01    0.2827708    0.1701993 -77.23   0.00109566    2.429    0.588
       312 -10.5290    119.5415     78.0283   8.3018097040e+01   4.3188606850e+01    0.5633321    0.3058721 -30.45  0.002185863    2.216    0.549
       313  -8.5897    141.0095     79.5003   7.8017733254e+01   3.8023412006e+01    0.2278386    0.1239155  30.78 0.0008106156    2.612    0.617
       314  -9.5331     49.6734     77.2240   1.0569640359e+02   5.5748919812e+01    0.4048027     0.272772  -4.97  0.001927009    2.311    0.567
       315  -9.5841    184.0942     77.4853   6.8560580303e+01   2.8115862284e+01    0.3131437    0.2138887 -30.64 0.0008789924    1.407    0.289
       316  -9.2897    105.3924     76.9802   8.6705796544e+01   4.6426419874e+01    0.4489251    0.2848567  15.02  0.001684921    2.845    0.649
       317  -9.4209    106.1668     72.0914   8.4944127397e+01   4.7272034320e+01    0.3664803    0.2612315  77.21  0.001086848    1.999    0.500
       318  -9.5084     61.6731     77.3045   1.0127841980e+02   5.4112389588e+01    0.3220754    0.2048506 -79.29  0.001469049    1.978    0.494
       319  -9.2257    127.6882     75.2734   8.0007958013e+01   4.1895027489e+01    0.3803526    0.2189604 -58.28  0.001313904    2.337    0.572
       320  -8.5051    166.9970     75.2610   7.1107945296e+01   3.2557725093e+01    0.1950969    0.1309549  54.43 0.0008728852    1.517    0.341
       321  -8.2546     13.5208     74.4838   1.1923163354e+02   5.9869179924e+01    0.1509831    0.1205034 -14.91 -1.393331e-05    1.580    0.367
       322  -8.8201     10.2102     74.6238   1.2055796765e+02   6.0049413748e+01    0.1974061    0.1682922  31.17  0.000626398    1.383    0.277
       323  -9.0226    218.3783     73.4005   6.2067483386e+01   2.0814886464e+01    0.3092806    0.2314875  25.31  0.001541894    1.470    0.320
       324  -9.2149     82.4992     72.8414   9.2687802501e+01   5.1751163264e+01    0.3700981    0.2566727  89.30  0.001504255    2.232    0.552
       325  -9.9733     29.5750     69.9306   1.1195424876e+02   5.9690477994e+01    0.7155156    0.3310656 -24.95  0.002437511    4.854    0.794
       326  -9.9149    115.9918     72.5123   8.2261824086e+01   4.5063197611e+01    0.3003974    0.2095104 -55.82  0.001076057    1.585    0.369
       327  -9.1860     94.9308     70.4219   8.7853034265e+01   4.9921855384e+01    0.5895786    0.1986929 -53.54  0.001729298    3.867    0.741
       328  -8.5497     95.9488     63.8633   8.5359846237e+01   5.1079138670e+01    0.3494598    0.1944706  24.30  0.001232322    3.091    0.676
       329  -9.6778      4.8750     91.8950   1.2448917258e+02   5.6232226959e+01    0.3617655    0.1533158  69.65  0.001569168    2.582    0.613
       330  -9.5065     51.3434     69.6658   1.0316090977e+02   5.7325623618e+01    0.4295134    0.2222932 -78.39  0.001635841    2.977    0.664
       331  -8.7842     16.7324     70.6423   1.1733835679e+02   6.0574116418e+01    0.2408467     0.136925  77.64 0.0009275717    2.013    0.503
       332  -9.7493      9.2515     65.4347   1.1961054601e+02   6.2320596450e+01    0.5157698    0.1448431 -57.04  0.002127263    2.687    0.628
       333 -10.8481      7.0390     57.9990   1.1938176509e+02   6.4231396281e+01    0.9566905    0.2197781 -68.40  0.003632509    3.036    0.671
       334  -9.1599      1.6524     57.3006   1.2169964030e+02   6.4672046860e+01    0.2051542    0.1332309  84.37  0.001203636    1.481    0.325
       335  -9.8824    129.6727     69.0059   7.7497854149e+01   4.2610575532e+01    0.5384797    0.3036537  27.54     0.001931    2.753    0.637
       336  -8.8713      1.4052     69.2511   1.2338942074e+02   6.1826717736e+01    0.2400398   0.08925062 -71.50 0.0009813674    2.058    0.514
       337  -7.8798    146.5394     68.5079   7.3323733734e+01   3.8658456674e+01    0.1522476     0.148133 -53.24 5.903809e-05    1.057    0.054
       338 -10.5387    118.9343     65.5540   7.9165976503e+01   4.5746418060e+01    0.5902934    0.4213336   4.84  0.002528091    2.043    0.510
       339  -9.6714    105.6379     66.9913   8.3433197151e+01   4.8415909752e+01    0.3526677    0.2864457  53.80  0.001352879    1.286    0.222
       340  -9.0853     43.9288     67.5794   1.0556456491e+02   5.8739945199e+01    0.2562395    0.1794544  -5.38  0.001295556    2.023    0.506
       341  -9.4252     84.0831     64.2933   8.9427210596e+01   5.3316875170e+01    0.4706019    0.3032249   4.10  0.001773837    3.078    0.675
       342  -9.8013     17.8621     62.6528   1.1542744655e+02   6.2417770968e+01    0.4746608    0.1336988 -54.04  0.001876825    2.785    0.641
       343  -8.6354    110.2001     64.1860   8.1147207147e+01   4.7975868242e+01     0.210544    0.1791809 -72.18 0.0005857364    1.355    0.262
       344  -8.1253    170.4036     60.7282   6.6022402385e+01   3.3991959877e+01    0.2036284    0.1444735 -16.58 0.0004298423    1.515    0.340
       345  -9.6897    100.7134     60.4688   8.2688603305e+01   5.0766614614e+01    0.3274768     0.243971 -89.01  0.001132961    1.958    0.489
       346  -9.2484     73.2792     60.0620   9.1850030891e+01   5.6176647372e+01    0.3240081    0.2300593 -61.88 0.0009430242    1.512    0.339
       347  -8.5689     50.9944     60.6408   1.0075786495e+02   5.9473584591e+01    0.3576247    0.2275676  72.09  0.001579706    2.489    0.598
       348  -9.7295    110.6724     59.0003   7.9203370094e+01   4.8863730936e+01    0.4571848    0.2345012  35.96  0.001707689    2.421    0.587
       349  -9.8858    108.7474     56.4043   7.8826127137e+01   4.9785879276e+01    0.2945579    0.2582388 -83.88 0.0009558961    1.334    0.250
       350  -8.8994     30.8578     51.7475   1.0698548971e+02   6.3891067160e+01    0.2373922    0.1574955  86.26 0.0008107259    1.971    0.493
       351  -8.2958     24.5020     58.9838   1.1172758539e+02   6.2768877811e+01    0.2269344    0.1202347  66.74 0.0009712803    2.859    0.650
       352  -9.5152     26.4149     54.8557   1.0986921192e+02   6.3581550293e+01     0.373208    0.2145977 -13.28  0.001732847    2.674    0.626
       353  -9.0683     39.3171     58.0780   1.0495733643e+02   6.1511402865e+01    0.2197579    0.1843959  -8.93  0.001087882    1.407    0.289
       354  -9.3104    119.3118     56.3882   7.5876066337e+01   4.7349719943e+01    0.3278688    0.2071707 -64.63 0.0009633195    2.347    0.574
       355  -8.5846     43.8877     55.0437   1.0207582899e+02   6.1675257229e+01    0.3175226     0.173831 -81.05  0.001226312    3.112    0.679
       356  -8.6655    214.5081     55.5244   5.7741977183e+01   2.3973249393e+01    0.1407414    0.1294321 -23.05 1.111036e-05    1.006    0.006
       357  -9.9652    100.5728     54.3309   8.0512294710e+01   5.1989434803e+01    0.2707811    0.2617559 -24.16 0.0001852999    1.005    0.005
       358  -8.7360     62.7902     54.9472   9.4127493735e+01   5.9031937648e+01    0.2593926     0.187311 -68.47 0.0008276452    1.591    0.371
       359  -8.8314     54.0555     54.0433   9.7397505033e+01   6.0548903391e+01    0.3064774    0.1834604 -76.25 0.0009557421    2.558    0.609
       360  -8.8080     37.3623     64.3089   1.0744170582e+02   6.0257407138e+01    0.2647724    0.1716683  72.64 0.0008914073    2.050    0.512
       361  -9.1604    121.2458     51.4050   7.3552189152e+01   4.7764450256e+01    0.2998131    0.1421787  50.04  0.001138758    2.095    0.523
       362  -8.5997    116.5054     51.4668   7.4832483799e+01   4.8886686655e+01    0.1505986    0.1475751 -13.07 5.637158e-05    1.003    0.003
       363  -8.8790     92.4411     50.8714   8.1797485213e+01   5.4389451186e+01    0.2839446    0.1375226 -45.30  0.001116714    2.038    0.509
       364  -9.1319     75.7273     50.0729   8.7348255512e+01   5.7845672513e+01    0.4051334    0.2519925  11.09  0.001561499    2.959    0.662
       365  -9.2153     46.5306     49.1399   9.9000581563e+01   6.2678910237e+01    0.3067627    0.1974709  20.51  0.001294975    1.909    0.476
       366  -9.5468    130.3837     46.3063   6.9394414227e+01   4.6359762643e+01    0.4150895    0.2803692   2.22  0.001010671    2.054    0.513
       367  -8.2390    106.6455     48.6741   7.6545406661e+01   5.1679553997e+01    0.1596525    0.1172557  13.36 0.0007046462    1.769    0.435
       368  -9.0239     64.3571     46.8098   9.0524747667e+01   6.0519858077e+01    0.4107613    0.2539869  13.23  0.001712435    2.640    0.621
       369  -8.5536    112.3682     47.1759   7.4338989909e+01   5.0612259770e+01    0.2186015    0.1344773 -44.40 0.0005185193    1.656    0.396
       370  -8.7546     81.8161     47.0941   8.3966837432e+01   5.7281697184e+01    0.2205734    0.1922458 -59.09 0.0006459414    1.232    0.188
       371  -9.4168     22.7781     47.1133   1.0956586449e+02   6.5719480536e+01    0.3233783    0.2001961  -5.51  0.001482226    2.215    0.549
       372  -8.9942    122.3845     46.1689   7.1298899850e+01   4.8368411028e+01    0.2251028    0.1338038 -43.90 0.0009404032    1.726    0.421
       373  -7.9572      1.3203     46.3118   1.2007788140e+02   6.7296265824e+01    0.1291422   0.07131268 -47.32 0.0003598513    1.649    0.393
       374  -8.6341    149.9851     44.3014   6.4433859713e+01   4.1647993013e+01    0.2709293    0.1612398 -29.06 0.0008971092    1.661    0.398
       375  -8.7307     44.7553     44.8026   9.8289893566e+01   6.3875412985e+01    0.2752692    0.1617756 -75.48  0.001163139    2.614    0.618
       376  -9.7656     16.4320     43.1251   1.1168450087e+02   6.7154428342e+01    0.6667892    0.1648672 -60.07  0.002566338    2.814    0.645
       377 -10.1112      4.7749     41.1774   1.1729510997e+02   6.8338315371e+01    0.5037062     0.205865 -85.86  0.002081252    2.997    0.666
       378  -8.8567     92.3584     43.2211   7.8793414732e+01   5.5840759350e+01    0.2127954    0.1317003 -45.24 0.0005486409    1.623    0.384
       379  -8.3897     58.4745     42.9730   9.1481028350e+01   6.2280241215e+01    0.1997465    0.1204027 -69.66 0.0008101263    2.634    0.620
       380  -9.5041    113.8788     41.6826   7.1771857109e+01   5.1175985874e+01    0.2510656    0.2085218 -11.33 0.0007555119    1.280    0.219
       381  -8.9927    123.3894     40.6168   6.8909780194e+01   4.9008550285e+01    0.3097285    0.2041456  22.53  0.001009226    1.992    0.498
       382  -9.6021     83.9466     40.2554   8.0410218788e+01   5.8153332699e+01    0.3563037    0.2435374  19.13  0.001327808    1.935    0.483
       383  -8.4846     68.8554     41.3635   8.6532652098e+01   6.0850048670e+01    0.2108531    0.1778117  67.11  0.001119673    1.465    0.317
       384 -10.2189     95.6983     38.3484   7.5688698069e+01   5.5969717401e+01    0.3011468    0.2355524 -53.70 0.0009329893    1.418    0.295
       385 -10.8165    106.1158     35.9317   7.1554876759e+01   5.3966454397e+01    0.4729253    0.4099418 -46.69  0.001599042    1.201    0.167
       386  -8.6553     25.9721     36.5069   1.0466858964e+02   6.7859542534e+01    0.2480823    0.1666582 -75.50 0.0008711663    1.673    0.402
       387  -8.5635     57.4216     36.6046   8.9311192086e+01   6.3753518104e+01    0.2692959    0.1176119  52.63 0.0009547256    3.593    0.722
       388  -9.9964    119.7189     34.1399   6.7223763017e+01   5.0912741625e+01    0.3566302    0.2554347 -61.87  0.001092577    1.736    0.424
       389  -8.7755     38.4532     35.4992   9.7819046376e+01   6.6703874010e+01    0.2184754     0.129454  13.35  0.001027727    2.320    0.569
       390  -9.5587     96.4305     33.8932   7.3539402698e+01   5.6551302913e+01    0.3126015     0.180501  35.28  0.001173278    2.002    0.501
       391  -8.4113     80.4834     35.4878   7.9577933890e+01   5.9728025484e+01    0.3032008    0.1360536 -38.88  0.001196774    2.121    0.528
       392  -9.5831      6.8106     34.0161   1.1447549054e+02   6.9892484088e+01    0.2632015    0.1811981  10.70  0.001087873    1.752    0.429
       393  -9.4835    222.4863     32.9426   5.0581961215e+01   2.4746318094e+01    0.2433101    0.1807961 -71.40 0.0005566935    1.498    0.332
       394  -8.1872     60.4004     33.1314   8.6478255154e+01   6.3940969757e+01    0.1929276    0.1238108 -53.05 0.0004946445    1.666    0.400
       395  -8.0873     49.5034     32.9923   9.1357579460e+01   6.5715176484e+01    0.1822523    0.1173174 -70.05 0.0008082721    2.389    0.582
       396  -9.2341     12.7456     31.4379   1.1033381173e+02   7.0105668809e+01    0.2933831    0.1576655 -76.14 0.0008971533    1.997    0.499
       397  -8.0363     72.2898     31.6220   8.0895923921e+01   6.2051168474e+01    0.1431507    0.1107013 -67.52 0.0007018961    1.735    0.424
       398  -8.9408    147.8183     28.7310   5.9180350349e+01   4.4332658979e+01    0.2556557    0.1786467  45.31 0.0004867661    1.454    0.312
       399  -8.8518     36.7491     40.9592   1.0072580890e+02   6.5716663566e+01    0.2417833    0.1751394 -72.61  0.001050448    1.547    0.353
       400  -9.2046     27.8155     27.7301   1.0033400045e+02   6.9594274156e+01    0.4215151   0.09250045 -45.03  0.001340034    4.108    0.757
       401  -9.7966      2.3618     27.5153   1.1535524732e+02   7.1614827538e+01    0.3338085    0.1859692 -60.14  0.001192451    1.388    0.279
       402  -8.3294     61.8656     27.3572   8.3136345231e+01   6.4764917200e+01    0.1971624    0.1243765  29.63 0.0007956972    1.815    0.449
       403  -8.6239    128.6846     26.6893   6.2125117806e+01   4.9652205819e+01    0.1588096    0.1109838  27.58 0.0003231496    1.635    0.389
       404  -9.1358     44.0253     25.7172   9.0707739462e+01   6.7968473039e+01    0.2182346     0.170004 -35.02 0.0004755734    1.143    0.125
       405  -9.0162    110.4403     24.4900   6.5436498197e+01   5.4611678895e+01    0.2487975    0.2350741   0.63 0.0001689183    1.035    0.034
       406  -9.3466     76.8750     25.1818   7.6081951900e+01   6.2235396509e+01    0.2103528    0.1918615 -45.89 0.0004932433    1.184    0.156
       407  -8.4393     67.3603     23.7850   7.9064372049e+01   6.4369672076e+01    0.1928886    0.1234879 -26.90 0.0002784887    1.562    0.360
       408  -8.7254     40.6056     21.7310   9.0527892488e+01   6.9230686282e+01    0.3091203    0.1833268 -22.05  0.001290311    2.122    0.529
       409  -8.0593    132.4560     22.4743   5.9634971988e+01   4.9193500005e+01    0.1495288    0.1430131  28.50 0.0008082023    1.036    0.035
       410  -8.9883     84.5045     21.1217   7.1398800226e+01   6.1229240127e+01    0.2988569    0.2230978 -60.40  0.001065124    1.739    0.425
       411  -8.6946     58.7043     22.0834   8.1874054123e+01   6.6267181891e+01     0.192005    0.1588057 -26.77 0.0003339106    1.105    0.095
       412  -9.7576     13.0180     21.2414   1.0660054963e+02   7.2348546466e+01    0.2530955    0.2262831 -25.75 0.0007296667    1.157    0.135
       413  -9.0366    107.6312    249.0188   1.1423326952e+02   1.4351200670e+01      0.19231    0.1170557  34.78 0.0007757792    1.315    0.240
       414  -8.0931     48.2812     21.6860   8.6564368149e+01   6.8091349588e+01    0.1247558    0.1053404 -70.75 0.0002912501    1.572    0.364
       415  -7.9724     73.5807     19.7652   7.4569687018e+01   6.3778332392e+01     0.199221    0.1229531 -43.46  0.000931707    1.696    0.410
       416  -8.6817      1.5119     19.8904   1.1365244731e+02   7.3372054874e+01     0.181097    0.0978514 -65.24 0.0004830932    1.504    0.335
       417  -8.7605     88.0697    249.4873   1.1763770700e+02   1.6690202555e+01    0.1662252   0.07341703  38.58  0.001044279    1.625    0.384
       418  -9.5011     97.5257    244.2656   1.1561364553e+02   1.6242296294e+01    0.3275245    0.1713895 -64.30  0.002202929    2.550    0.608
       419  -8.7659     50.5269     15.5003   8.2124392726e+01   6.8818037590e+01    0.2881448    0.1831844   0.24 0.0009571639    2.273    0.560
       420  -9.3799     41.0057     13.9832   8.6157538443e+01   7.0604612630e+01    0.2306219    0.1804031  21.48 0.0003417001    1.355    0.262
       421  -8.2882     88.7767     13.2400   6.6041286592e+01   6.1343202561e+01    0.2372825   0.09340579  46.46 0.0008816088    2.475    0.596
       422  -8.4719     80.3515     12.6601   6.8403065934e+01   6.3344020608e+01    0.2159539     0.161894 -57.24  0.001085708    1.704    0.413
       423  -8.2683     62.7554     20.7199   7.9400161862e+01   6.5759481230e+01    0.2172762     0.101413 -46.64 0.0005460551    2.363    0.577
       424  -7.7210     25.3027     11.3139   9.3934733231e+01   7.3201297702e+01    0.1305748   0.08471543 -23.07 0.0002838276    1.615    0.381
       425  -8.7472    222.6822    245.3734   9.4884891225e+01  -2.0546386994e-01    0.1347054    0.1044888  40.72 0.0009520325    1.697    0.411
       426  -9.3126    103.3179    241.9527   1.1441199920e+02   1.5829260432e+01    0.1392038    0.1070681  49.09 0.0004607426    1.096    0.088
       427 -10.2565    107.6969    237.4545   1.1325585095e+02   1.5881292849e+01    0.3581897    0.2260438  75.45   0.00236393    2.194    0.544
       428  -8.5260     61.3038    249.9762   1.2224897808e+02   1.9707644237e+01    0.1798176    0.1143505  14.95  0.001158155    2.708    0.631
