#   1 NUMBER                 Running object number                                     
#   2 MAG_AUTO               Kron-like elliptical aperture magnitude                    [mag]
#   3 X_IMAGE                Object position along x                                    [pixel]
#   4 Y_IMAGE                Object position along y                                    [pixel]
#   5 X_WORLD                Barycenter position along world x axis                     [deg]
#   6 Y_WORLD                Barycenter position along world y axis                     [deg]
#   7 A_WORLD                Profile RMS along major axis (world units)                 [deg]
#   8 B_WORLD                Profile RMS along minor axis (world units)                 [deg]
#   9 THETA_WORLD            Position angle (CCW/world-x)                               [deg]
#  10 FWHM_WORLD             FWHM assuming a gaussian core                              [deg]
#  11 ELONGATION             A_IMAGE/B_IMAGE                                           
#  12 ELLIPTICITY            1 - B_IMAGE/A_IMAGE                                       
         1 -13.8625      2.9538    106.4749   1.2405255236e+02   5.1744989249e+01     1.680534    0.2622828 -70.39  0.006388856    3.931    0.746
         2 -13.2197    205.3024     33.2861   5.4615244769e+01   2.9702753877e+01     1.368087     1.212783  39.44  0.006435083    1.183    0.155
         3 -12.8137      4.3359      5.7973   1.0226310825e+02   7.1714051656e+01    0.6857952    0.4424371 -42.35  0.005059941    1.119    0.106
         4 -13.6269    222.4695     15.7808   4.7406053704e+01   2.7334070746e+01     1.122042    0.9164535  32.40    0.0025631    1.416    0.294
         5 -10.9290    198.1065    245.6808   1.0307799518e+02  -1.0275454121e+00    0.2080199    0.1430986  36.90  0.001448689    1.135    0.119
         6 -11.1923    184.3832    249.0557   1.0569454936e+02   7.9770123518e-01    0.3322147    0.2212899  27.60   0.00222979    1.583    0.368
         7 -10.7276    176.1450    249.9421   1.0711153915e+02   2.0130257079e+00    0.3348626    0.1162062  37.81  0.001534664    2.809    0.644
         8 -10.7004    162.1904    249.0536   1.0922834824e+02   4.3459461793e+00    0.2518694    0.1546367 -59.28  0.001650225    2.278    0.561
         9 -11.1317    143.1178    249.1926   1.1226959634e+02   7.3286811165e+00    0.3732573    0.1420143  55.56  0.001839458    2.530    0.605
        10 -12.0179    119.5322    236.3297   1.1474306845e+02   1.2769478543e+01    0.6081078    0.4705982 -14.18  0.003058832    2.940    0.660
        11 -11.5401    125.0375    240.4608   1.1426468612e+02   1.1324889322e+01    0.3190187    0.1978023  47.42  0.002066109    1.293    0.226
        12 -13.0972    123.8334    247.4571   1.1513705212e+02   1.0515774068e+01       1.2372    0.3934893  48.47  0.006206197    2.331    0.571
        13 -11.5441    116.0765    248.9519   1.1648718320e+02   1.1460686558e+01     0.475258    0.3391881  60.56  0.003606738    1.048    0.046
        14 -10.7621    109.6624    247.3802   1.1734325132e+02   1.2622330167e+01    0.2711605    0.1983236  64.73  0.001413359    1.073    0.068
        15 -11.3047     99.8408    247.9452   1.1890696898e+02   1.3946878893e+01    0.3850081    0.3283212  67.37  0.002706584    1.279    0.218
        16 -10.4509     97.0301    239.2681   1.1861536972e+02   1.5636700138e+01     0.253827    0.1418992  67.48  0.001149145    1.614    0.380
        17 -10.5043     84.2383    230.1481   1.1987728069e+02   1.8849701037e+01    0.2236517    0.1816648 -66.47 0.0009656328    1.595    0.373
        18 -11.4414    113.5237    231.0099   1.1519668063e+02   1.4486254522e+01    0.3839877    0.3174523  30.75  0.002435146    1.675    0.403
        19 -11.5570     87.3266    248.4022   1.2084728412e+02   1.5610769551e+01    0.4627765    0.3093741  64.77  0.001946905    1.090    0.082
        20 -11.9976     88.6704    238.3273   1.1984920875e+02   1.6950187517e+01    0.6453504    0.3214406  72.73  0.003768721    2.171    0.539
        21 -10.5704     82.2358    239.6662   1.2095598392e+02   1.7619880669e+01    0.3351479    0.1665486  62.63 0.0006004371    1.664    0.399
        22 -12.4581    102.7963    238.2567   1.1761464339e+02   1.4964824886e+01    0.5873064    0.3794689  64.15  0.001516763    1.234    0.190
        23  -9.5314     56.6963    250.4665   1.2549568763e+02   1.9228341155e+01    0.1854323    0.1450676  62.25 0.0009480608    1.322    0.244
        24 -10.2470     60.4857    247.4810   1.2476613439e+02   1.9218423927e+01    0.2431042    0.1473606  64.65  0.001153156    1.159    0.137
        25 -10.2613     58.6997    244.6548   1.2485027292e+02   1.9869603218e+01    0.2178672    0.1714497 -58.26  0.001766026    2.041    0.510
        26 -12.6840      2.6582    186.6184   1.3014373032e+02   3.5723176488e+01      1.51017    0.2396586 -78.80  0.005670179    5.485    0.818
        27 -12.5528     48.6322    216.2193   1.2451691365e+02   2.5726355174e+01     1.919527    0.6517424  69.54  0.008047461    4.269    0.766
        28 -13.8659      4.6078    226.8721   1.3172060280e+02   2.8552495963e+01     4.121918    0.4642068  56.86   0.01708143    5.307    0.812
        29 -10.9871     15.6590    226.0865   1.3010878038e+02   2.7619010717e+01    0.2445757    0.1756248  66.83 0.0003827695    1.206    0.171
        30 -13.4287      4.3445    248.7142   1.3258956676e+02   2.5145031505e+01     1.802376    0.4579965  39.72   0.01007355    3.888    0.743
        31 -11.8795      1.4508    241.2413   1.3270371818e+02   2.6561918316e+01    0.1975762   0.09722067 -83.65  0.000206202    1.684    0.406
        32 -12.9815     22.0936    224.8049   1.2910707388e+02   2.7183023303e+01    0.3494181    0.2225795 -74.09 0.0007574857    1.637    0.389
        33 -14.3948     27.4737    218.2728   1.2795228136e+02   2.7724543412e+01     2.111811    0.8310124  79.96   0.01199351    2.508    0.601
        34 -11.2728     74.9685    235.4665   1.2176096602e+02   1.9244191875e+01    0.4167296    0.2599649 -54.82   0.00196111    2.339    0.572
        35 -12.2724    135.0400    234.3533   1.1199852383e+02   1.0649604269e+01    0.4327534    0.3185628  89.74  0.003014461    1.570    0.363
        36 -11.5408    165.9089    243.3140   1.0796932548e+02   4.4705207359e+00    0.2984501    0.1910296  43.26  0.001991348    1.219    0.180
        37 -10.4107    129.9523    235.5603   1.1296431104e+02   1.1274900028e+01    0.1609144    0.1400799  80.80 0.0009821608    1.235    0.190
        38 -11.7949    136.5151    241.8188   1.1255533905e+02   9.3569799616e+00     0.361047    0.1795502  60.49  0.001938218    2.002    0.501
        39  -9.8087    153.6787    230.0674   1.0839986633e+02   8.2429497893e+00    0.1606064    0.1304884  83.99 0.0004237139    1.413    0.293
        40  -9.2954     56.6761    228.3029   1.2408369349e+02   2.2722836932e+01    0.2061081    0.1033746 -77.06  0.001138004    1.912    0.477
        41 -10.6957     79.2863    225.6341   1.2029936921e+02   2.0258305348e+01    0.3214091    0.2306243 -79.96    0.0024022    1.401    0.286
        42  -9.3763     77.2055    220.8375   1.2023760806e+02   2.1337290820e+01    0.1642998    0.1115052  70.63 0.0003844142    1.155    0.134
        43  -9.7542     92.5064    226.0925   1.1818480906e+02   1.8351514483e+01    0.1639412    0.1359397  59.81 0.0008228924    1.238    0.192
        44  -9.3813     88.0750    223.6660   1.1869547940e+02   1.9373909485e+01    0.2921322    0.1065475  52.81  0.001507774    2.217    0.549
        45  -9.9841    136.0772    224.6477   1.1073372500e+02   1.1921420517e+01    0.1949687    0.1698731 -54.82 0.0006487606    1.477    0.323
        46 -10.1733     81.5547    248.1959   1.2169998698e+02   1.6415967453e+01    0.2312801    0.1383263 -80.14  0.001343332    1.745    0.427
        47 -13.2248      9.3401    210.4585   1.3029890486e+02   3.0867022543e+01     1.122808    0.9747775  54.93   0.01029859    1.629    0.386
        48  -8.7900     45.8026    225.2262   1.2555964765e+02   2.4526488927e+01    0.1216076    0.0959627  85.80 0.0004270539    1.276    0.216
        49 -10.5965     99.4240    223.3806   1.1678751228e+02   1.7795290789e+01     0.209268    0.1953149  72.58  0.001132725    1.389    0.280
        50 -10.0975    141.6485    219.5218   1.0916454875e+02   1.1787130801e+01    0.2619905    0.1838107 -50.73  0.001691052    1.775    0.437
        51 -10.2825     71.0243    219.4683   1.2113735221e+02   2.2388462577e+01    0.3406915    0.1958174  69.37  0.002247363    1.471    0.320
        52  -9.9487     91.2670    219.9109   1.1782276091e+02   1.9545888429e+01    0.2254627     0.147863  42.98 0.0009674092    1.554    0.356
        53 -10.1155    116.9794    215.7337   1.1300332929e+02   1.6383705929e+01    0.2807595    0.2086424  25.24  0.001113887    2.031    0.508
        54  -9.3422    107.0451    216.6626   1.1482144576e+02   1.7764878921e+01    0.2208661   0.07976131  50.01  0.001061662    2.255    0.556
        55  -9.7570     86.9946    211.7801   1.1777865764e+02   2.1536295383e+01    0.3110025    0.1732329  70.21   0.00125466    1.736    0.424
        56  -9.7722     63.2741    208.7073   1.2154294759e+02   2.5256744387e+01    0.2817103    0.2215504  35.16  0.001537521    1.796    0.443
        57  -8.9721     63.6750    205.1891   1.2118070845e+02   2.5834755936e+01    0.1543501   0.09179346 -78.98  0.001007056    1.551    0.355
        58  -9.5393     58.5334    212.5341   1.2263879384e+02   2.5174814858e+01    0.1731876    0.1069024  61.77 0.0006198023    1.261    0.207
        59 -10.2689     55.7578    209.3202   1.2284967635e+02   2.6081735391e+01    0.3902094    0.1577642 -72.31  0.002207226    2.339    0.573
        60  -8.3273    110.7026    211.3460   1.1361165270e+02   1.8094459039e+01    0.1224211   0.07556204  72.74 0.0004594682    1.675    0.403
        61  -9.3947     99.3291    209.9967   1.1546070649e+02   2.0054492096e+01    0.2580287    0.1103233  63.18 0.0007225777    2.754    0.637
        62  -8.4887     74.4498    208.5019   1.1962633587e+02   2.3837547448e+01    0.1145034   0.08388766  72.08 0.0007482066    1.047    0.045
        63  -9.8974    106.9465    203.5158   1.1339733781e+02   2.0025688151e+01    0.2032087    0.1594062 -78.86 0.0001833857    1.300    0.231
        64  -9.3520     91.1769    204.8123   1.1635615573e+02   2.2161069718e+01    0.2883705   0.08346177  39.96  0.001160108    3.608    0.723
        65 -10.3112     44.4597    200.4029   1.2406409144e+02   2.9021023312e+01    0.2654591    0.2169896  71.36  0.001017834    1.233    0.189
        66  -9.5727     74.4438    199.9924   1.1883984562e+02   2.5370121758e+01     0.168759    0.1437882  55.81 0.0003044227    1.333    0.250
        67  -9.2990     96.9741    199.0511   1.1469809146e+02   2.2340208437e+01    0.1742024    0.1439837  70.69 0.0003258656    1.063    0.059
        68  -9.3027     53.0812    198.1418   1.2241437896e+02   2.8427466974e+01     0.156309     0.137371 -86.46  0.001235504    1.381    0.276
        69 -12.2695    101.9041    231.1494   1.1711192841e+02   1.6190744401e+01     0.675455    0.3573805  37.71  0.002743015    2.140    0.533
        70 -10.0386    249.9013    194.2646   8.6463694954e+01  -3.8648328786e+00    0.2298299    0.1736902  20.09  0.001473548    1.107    0.096
        71  -9.1137     26.0167    192.7308   1.2663138945e+02   3.2419227774e+01    0.1484876     0.106022  76.67 0.0008040894    1.038    0.037
        72  -9.7864     21.0460    191.9147   1.2741121540e+02   3.3064469145e+01    0.4100746    0.1594008  75.52  0.002016505    2.615    0.618
        73  -9.2856    191.7177    191.7038   9.6102072422e+01   7.0743640588e+00    0.1634795    0.1418829  65.24  0.000573434    1.294    0.227
        74  -8.2922     38.6095    191.7483   1.2441434763e+02   3.1276892441e+01   0.08763263   0.08175571 -60.89 0.0006954769    1.677    0.404
        75 -11.6798    180.6638    243.7031   1.0563017667e+02   2.0273972187e+00    0.4513258    0.1734543  38.33  0.002220078    2.327    0.570
        76 -11.5446     52.4616    193.0197   1.2209675195e+02   2.9454599378e+01    0.3011944    0.2007889  46.74 0.0006127034    1.523    0.343
        77  -9.3707     76.2916    186.9361   1.1719065223e+02   2.7564067034e+01    0.2673491    0.1339376 -87.07   0.00116927    2.370    0.578
        78  -9.9538     30.6981    193.5170   1.2589513323e+02   3.1792665900e+01    0.1656993    0.1008658 -72.31 0.0005496382    1.535    0.349
        79  -8.2375     40.9774    188.6497   1.2376243034e+02   3.1599970183e+01    0.1864697   0.04197664  54.63 0.0007048488    4.484    0.777
        80 -10.3493      9.8299    187.4069   1.2900582048e+02   3.4950486346e+01    0.2357111    0.1076278  87.57   0.00138483    1.755    0.430
        81 -10.6163     71.0672    187.0219   1.1817166880e+02   2.8251016366e+01     0.220974    0.1423485  50.54 0.0002947726    1.428    0.300
        82 -11.6931     59.2026    185.2706   1.2019041260e+02   3.0109585522e+01    0.2294474    0.1854925 -86.58 0.0004826975    1.177    0.150
        83  -8.6812    107.4686    185.5081   1.1110305491e+02   2.3218914966e+01    0.1252666    0.1039425  71.55 0.0001548252    1.006    0.006
        84 -11.5565     68.3557    245.6249   1.2348853624e+02   1.8518530744e+01    0.4285009    0.2800516  40.76  0.002477415    1.795    0.443
        85  -9.5996     36.8165    180.4565   1.2385092584e+02   3.3622743210e+01    0.2356157    0.1284905 -69.91 0.0007300813    1.638    0.390
        86  -9.3391     26.9772    179.9026   1.2557129750e+02   3.4745747311e+01    0.1620649    0.1143108  83.22 0.0003585035    1.031    0.030
        87  -8.8010     80.9782    178.7209   1.1538589875e+02   2.8508066677e+01    0.1611371    0.1324812  68.55 0.0003524041    1.097    0.088
        88  -8.2477     47.6402    179.7153   1.2180999347e+02   3.2567813206e+01   0.09661713   0.08430865 -52.28 0.0005978452    1.678    0.404
        89  -8.6002    111.5492    177.5363   1.0922894394e+02   2.4076158072e+01    0.1269574    0.1090289  72.55 0.0001579622    1.017    0.017
        90 -11.2917    248.8763    172.2125   8.2407098601e+01  -9.9020562653e-01    0.4209494    0.2947929  -2.31  0.002388339    1.464    0.317
        91 -10.5862     70.7711    173.2785   1.1675165089e+02   3.0983484436e+01    0.2168476    0.1809263  75.96 0.0002717623    1.091    0.083
        92  -9.8138     55.3275    172.5978   1.1968227847e+02   3.3072272495e+01    0.2167013    0.1643866  82.08 0.0008604507    1.037    0.035
        93  -9.3308     51.5042    171.4124   1.2030059066e+02   3.3763049025e+01    0.2117626    0.1373887  65.38 0.0006614432    1.350    0.259
        94 -11.2680     10.3059    157.4746   1.2698177048e+02   4.0674743958e+01    0.2467883    0.1587493  81.29  0.001448243    1.193    0.162
        95 -10.7854     12.4904    153.9646   1.2630037146e+02   4.1196659779e+01    0.2301944    0.1388434 -75.82 0.0009872699    1.309    0.236
        96 -10.5484      2.2419    172.0570   1.2940186974e+02   3.8489328366e+01    0.3075546    0.1431116  79.60  0.001076728    1.754    0.430
        97 -12.5092     10.8219    165.7755   1.2747413996e+02   3.8989577354e+01    0.6683902    0.4585313  40.66  0.005081558    1.738    0.424
        98  -9.9557     27.4246    171.5806   1.2485712174e+02   3.6321622261e+01    0.2431437    0.1677687 -50.94  0.000469819    2.032    0.508
        99  -9.3030     18.0630    172.0509   1.2659938570e+02   3.7120906343e+01    0.1694275    0.1192814  80.76 0.0008368127    1.047    0.045
       100 -11.5019     39.0741    167.7377   1.2234087038e+02   3.5891061287e+01    0.2355004    0.1928516 -73.73   0.00031877    1.317    0.241
       101 -11.7628     79.2669    165.2511   1.1408629774e+02   3.1450155803e+01    0.5262932    0.3777477  36.06  0.003199574    1.687    0.407
       102  -9.9976     68.1031    166.2341   1.1647184850e+02   3.2758891227e+01    0.1930556     0.144026 -83.22 0.0004051881    1.150    0.131
       103 -11.9453    245.7173    162.2842   8.0913661704e+01   9.0393201704e-01     0.532741    0.2687438 -35.06  0.002531172    2.041    0.510
       104 -11.0014    249.1847    160.9876   8.0064859757e+01   4.2069851973e-01    0.2961284    0.2194872 -47.64  0.001635523    1.772    0.436
       105 -11.0277    247.9875    157.6244   7.9559489488e+01   1.1006321791e+00    0.3946838    0.2033422  47.47  0.001867324    1.926    0.481
       106  -8.7966     91.5213    168.5249   1.1201488258e+02   2.9006236141e+01    0.1267355    0.1052013  79.54  0.000282674    1.017    0.017
       107  -9.9328     23.9843    161.9707   1.2472988976e+02   3.8564537977e+01    0.1644153    0.1217566  86.03 0.0003527319    1.017    0.017
       108  -8.9310     66.9432    161.2446   1.1611483821e+02   3.3934922384e+01    0.1572138    0.1394017 -17.57 0.0004068626    1.821    0.451
       109  -8.8973     28.6265    160.8450   1.2374146498e+02   3.8347284610e+01    0.1516563   0.08164585 -86.67 0.0003579505    1.541    0.351
       110 -10.1580     82.2158    157.0664   1.1238540932e+02   3.2724584288e+01    0.2879929    0.1856826  65.10  0.001623182    1.531    0.347
       111 -10.4951     32.1625    153.9950   1.2241908240e+02   3.9399750169e+01    0.2576858    0.1631501 -60.20  0.001136698    1.616    0.381
       112  -8.5122    228.4404    155.4805   8.2462613199e+01   5.2525990164e+00    0.1362823    0.1245837  15.97 5.362598e-05    1.043    0.041
       113 -10.4502     26.3129    154.9991   1.2368041328e+02   3.9758217570e+01    0.2048485     0.118226  66.45 0.0007946832    1.586    0.370
       114 -11.0132    249.4973    150.8672   7.7867764941e+01   1.7329861814e+00    0.3413756     0.281078 -36.05  0.002007273    1.349    0.259
       115  -9.4656     54.0819    151.8382   1.1766806785e+02   3.7485647749e+01    0.2025056    0.1469334 -64.40            0    1.339    0.253
       116 -11.0020    240.5386    150.6227   7.9320055630e+01   3.5294719636e+00    0.2582595     0.236141  64.73  0.001504629    1.380    0.276
       117 -10.4003     93.1780    150.0171   1.0898498666e+02   3.2579066425e+01    0.2647736    0.2558301  86.10 0.0008607549    1.227    0.185
       118 -10.8327     23.0590    149.5800   1.2384558935e+02   4.1171010779e+01    0.2797796    0.1276031  47.52  0.001649118    2.157    0.536
       119  -9.7590     81.2679    148.4441   1.1135879896e+02   3.4678129737e+01    0.2389931    0.1922772  66.89  0.001502651    1.168    0.144
       120 -11.7325     68.2055    144.0759   1.1361294649e+02   3.7393039361e+01    0.6226297    0.3670583  82.88  0.002534983    1.950    0.487
       121  -9.5700     58.8421    146.8797   1.1604150491e+02   3.7968428517e+01    0.2770068    0.1546152 -40.25   0.00132252    3.012    0.668
       122 -12.3301      9.5530    143.6280   1.2606014984e+02   4.3534058064e+01    0.3975315     0.187226 -71.98  0.001927507    1.621    0.383
       123 -11.2310    247.5507    144.4996   7.6802569252e+01   3.0034706199e+00    0.2934622    0.2122723 -45.65  0.001451169    1.656    0.396
       124 -11.6373    249.2708    140.9709   7.5736545351e+01   3.1599318588e+00     0.817639     0.278282  42.66  0.003045603    2.911    0.656
       125 -12.3558    249.0055    131.9829   7.3751795429e+01   4.5001057902e+00    0.9985325    0.4364216 -26.20   0.00402408    2.378    0.580
       126  -9.3080    235.9887    146.0036   7.9092679964e+01   5.1162294454e+00    0.2199415    0.1538261  14.71 0.0004426514    1.589    0.371
       127  -8.8633     96.8078    146.1519   1.0756511445e+02   3.2832331694e+01    0.1637882     0.149532 -52.77 0.0002477478    1.279    0.218
       128  -9.9116    133.2466    141.0500   9.8511510495e+01   2.7518372069e+01     0.310395    0.2246139 -67.95 0.0009774041    1.504    0.335
       129  -9.0576     36.8650    140.1508   1.2000291835e+02   4.1831520047e+01    0.1512017    0.1144373 -66.32 0.0003559204    1.270    0.212
       130 -12.4670      4.1624    143.3009   1.2711485957e+02   4.4013009336e+01    0.4927079     0.277052 -76.50  0.002644378    1.333    0.250
       131  -9.1345     43.9857    139.5069   1.1837229424e+02   4.1234137182e+01      0.16134     0.112208  43.14  0.001039482    1.610    0.379
       132  -9.6200    106.7500    135.8776   1.0351301097e+02   3.3400868683e+01      0.35084    0.2255108 -27.90  0.001518853    2.736    0.635
       133 -11.8135      3.2453    133.0658   1.2648749332e+02   4.6173201849e+01    0.3523958    0.1832673  77.11  0.001341112    1.762    0.433
       134  -9.0394     93.6997    133.1850   1.0605514754e+02   3.6108234688e+01     0.165073    0.1488348 -43.70 0.0004097466    1.307    0.235
       135  -9.4591     44.4457    129.9850   1.1707027360e+02   4.3237497084e+01    0.1810246   0.09751585 -70.68 0.0004880295    1.532    0.347
       136  -8.5492    209.7112    125.6837   7.9163965529e+01   1.3986295854e+01    0.1503543    0.1126426  11.62  0.000270834    1.592    0.372
       137 -11.3399    243.5547    120.7557   7.2029509215e+01   7.2965372223e+00    0.4646651    0.1785056 -43.50  0.001652644    2.988    0.665
       138  -8.7133     41.5723    123.1861   1.1683162477e+02   4.5013081972e+01     0.157869   0.09121867 -60.99 0.0001648535    1.475    0.322
       139 -12.3680     15.9446    120.4821   1.2250167540e+02   4.7873904131e+01    0.4806738    0.2066442  88.45  0.002079449    2.604    0.616
       140 -12.9860    248.1958    101.8579   6.6715640453e+01   9.1233564473e+00     1.183171    0.7385197 -16.25  0.005425787    1.753    0.430
       141 -12.0418    247.6808    112.8252   6.9466974337e+01   7.5972677404e+00    0.6482601     0.428416  41.84  0.003005154    1.549    0.354
       142 -12.5600      9.2828    113.5357   1.2330145308e+02   4.9836552869e+01    0.4254572    0.2148146 -85.39  0.002520203    1.688    0.408
       143 -10.9744    169.2010    248.6494   1.0806533600e+02   3.2780660184e+00    0.2598603    0.1593687  32.77   0.00119324    1.665    0.399
       144 -10.0347     29.2218    108.7912   1.1785968891e+02   4.9309940282e+01    0.1654219    0.1147813 -53.75  0.001077798    1.400    0.286
       145  -8.4197     71.7047    100.3029   1.0521885995e+02   4.6554804952e+01    0.1293135   0.09549407  86.79 0.0003380273    1.578    0.366
       146  -9.4952    168.2260    113.2311   8.4477177804e+01   2.5735748062e+01    0.3126091    0.2216174 -81.86  0.001313929    2.136    0.532
       147 -10.2586    249.7986    117.7968   7.0317886937e+01   6.4079351267e+00     0.266805    0.2234708   9.85 0.0005865069    1.184    0.155
       148  -8.9137     29.4831     83.4236   1.1373262595e+02   5.4798825143e+01    0.1185025   0.09327433 -65.07  5.61783e-05    1.011    0.011
       149 -13.3279     14.7023    100.7211   1.2045197795e+02   5.2192327902e+01    0.7382318      0.41653  88.09  0.004406184    1.769    0.435
       150 -10.6399    231.8591    116.3881   7.2940969940e+01   1.0522942843e+01    0.2618116    0.1840281  40.57 0.0009938333    1.429    0.300
       151 -11.5760    150.2299    247.3358   1.1094396301e+02   6.4589687521e+00    0.2897018    0.2584961  47.66  0.002278716    1.246    0.197
       152 -11.0442     74.4112    244.0504   1.2247449254e+02   1.7980943371e+01    0.2629808    0.2298827  67.43  0.002068207    1.432    0.302
