#   1 NUMBER                 Running object number                                     
#   2 MAG_AUTO               Kron-like elliptical aperture magnitude                    [mag]
#   3 X_IMAGE                Object position along x                                    [pixel]
#   4 Y_IMAGE                Object position along y                                    [pixel]
#   5 X_WORLD                Barycenter position along world x axis                     [deg]
#   6 Y_WORLD                Barycenter position along world y axis                     [deg]
#   7 A_WORLD                Profile RMS along major axis (world units)                 [deg]
#   8 B_WORLD                Profile RMS along minor axis (world units)                 [deg]
#   9 THETA_WORLD            Position angle (CCW/world-x)                               [deg]
#  10 FWHM_WORLD             FWHM assuming a gaussian core                              [deg]
#  11 ELONGATION             A_IMAGE/B_IMAGE                                           
#  12 ELLIPTICITY            1 - B_IMAGE/A_IMAGE                                       
         1 -12.0197     53.9886    147.0390   1.0473137925e+02   3.8517859744e+01     4.486841    0.8721992 -61.44   0.01306409    4.009    0.751
         2 -14.4342     68.7271    144.2895   9.9947247233e+01   3.7296375446e+01     4.296675     2.206615  72.25  0.003045087    4.455    0.776
         3 -13.2158    199.1529     42.3148   4.1759957878e+01   3.0449064016e+01     1.060054    0.9443102 -65.91  0.003245798    1.057    0.054
         4 -13.8028    208.7667     32.9681   3.8378980929e+01   2.9467887897e+01       1.3768     1.043839   3.37  0.001448955    2.115    0.527
         5 -12.9904    234.0609      6.7204   3.0435125992e+01   2.7046441859e+01    0.8224016     0.629775 -78.52  0.004743985    1.065    0.061
         6  -8.5491     38.6304    211.3647   1.1615445243e+02   2.4661918469e+01    0.2036872    0.1131456  65.84  0.001059823    1.733    0.423
         7 -11.4869    139.7607    248.6026   9.8523530192e+01   2.9998097110e+00     0.438678    0.3981786 -68.31  0.002962238    1.363    0.267
         8 -13.6580     44.1443    197.0887   1.1361504035e+02   2.7293192731e+01     2.480243     1.120973  65.50   0.00851583    2.707    0.631
         9 -17.3206     14.2352    242.3661   1.2308654705e+02   2.0755673664e+01     6.170382     2.253593  25.58   0.02742637    3.941    0.746
        10 -10.9821    110.9879    203.2791   9.8526426364e+01   1.6411244564e+01    0.2852279    0.2381984  47.76 0.0005907324    1.119    0.106
        11 -16.2858      6.7352    204.1063   1.2240865828e+02   2.9499084054e+01      15.8113     1.154116 -76.06   0.02313634    9.770    0.898
        12 -10.5210    107.7898    249.9132   1.0528290143e+02   7.5187499803e+00    0.3934022    0.1659395  37.99  0.001856203    1.952    0.488
        13 -10.0268     59.8828    197.4648   1.0995763232e+02   2.5274131334e+01    0.2292585    0.1953225  89.48 0.0004411807    1.075    0.070
        14  -9.3397     89.1101    210.8156   1.0470719970e+02   1.8149016595e+01    0.2121825    0.1818122 -87.37 0.0005331677    1.176    0.150
        15  -8.7540     21.3616    195.6621   1.1867930853e+02   3.0056534993e+01    0.2055344     0.140074  76.05 0.0006693851    1.272    0.214
        16  -8.6221     23.6118    193.5191   1.1800332432e+02   3.0333172891e+01    0.1899623    0.1545388  87.65 0.0004944138    1.042    0.041
        17 -11.2783    121.9126    198.2892   9.5144936207e+01   1.5700545920e+01    0.4529967    0.3140865 -70.93  0.001849562    1.741    0.425
        18  -9.8988    142.4251    208.6488   9.2063130028e+01   1.0034875563e+01     0.255387    0.1409635 -56.62 0.0009394892    2.116    0.528
        19 -10.4727    147.6106    187.7117   8.7186417092e+01   1.3499798542e+01    0.4820298    0.3320957 -79.65  0.002063848    2.348    0.574
        20 -10.2942     43.4504    178.0750   1.1177421969e+02   3.1933528864e+01    0.5167849    0.3388589 -10.86  0.001385665    2.658    0.624
        21 -12.7015     55.7950    185.7280   1.0958601273e+02   2.8591986759e+01    0.7847299    0.7272168  88.87  0.003108768    1.089    0.081
        22  -9.9057    120.1888    186.1639   9.3524639797e+01   1.8716527194e+01    0.2005146    0.1704291  74.17 0.0003848165    1.305    0.234
        23  -9.8573     49.2659    180.5590   1.1060124883e+02   3.0648837083e+01    0.2456128    0.2314607  68.12 0.0007064088    1.133    0.118
        24  -9.0897     79.6864    182.6832   1.0317182810e+02   2.6077655409e+01    0.2804525    0.1845123 -78.72  0.001199573    1.638    0.389
        25 -10.1175     99.3657    180.9090   9.7868860551e+01   2.3456617518e+01    0.2754224    0.2555844 -58.50 0.0006148728    1.108    0.097
        26  -9.9113    118.1849    191.0991   9.4858636826e+01   1.7937525725e+01    0.2175394    0.2019063 -18.05  0.001217248    1.189    0.159
        27 -10.6105    241.5431    177.4375   6.5858702066e+01  -7.3959239981e-01    0.3194542    0.1264389  40.81  0.001375095    2.833    0.647
        28 -10.4417    186.9348    175.3035   7.5882935097e+01   8.8556830091e+00    0.3906345    0.3063664 -43.77  0.001294947    1.297    0.229
        29  -9.9727    234.3871    173.7925   6.6369386580e+01   9.7949105732e-01    0.1957413    0.1098031 -28.89 0.0006934525    1.658    0.397
        30  -8.7361    147.8074    174.2036   8.4526038724e+01   1.6407229994e+01    0.2037272    0.1733096  -6.91 0.0003159873    1.299    0.230
        31 -11.3309    112.7184    173.1782   9.3092773811e+01   2.3053858602e+01    0.6489165    0.2493308  46.48   0.00220827    2.788    0.641
        32 -10.2130     92.9290    249.0054   1.0823058880e+02   9.8157841915e+00    0.2301063    0.1521869  40.71  0.001360927    1.272    0.214
        33 -13.0415     70.6665    153.6902   1.0103714036e+02   3.4621453093e+01    0.7333136    0.6224771 -51.82  0.001299653    1.172    0.147
        34  -8.0285    224.2585    206.6493   7.4589174070e+01  -2.9122410949e+00    0.1139088    0.1018154 -53.12 0.0002703963    1.605    0.377
        35 -11.3376     73.9738    167.0246   1.0230306057e+02   3.0775265309e+01    0.3544621    0.3163185 -37.16  0.001226762    1.264    0.209
        36 -11.8093     82.1616    158.8625   9.8704801500e+01   3.1618433654e+01    0.8201912    0.5850651  77.18 0.0008031172    1.694    0.410
        37  -8.6292     34.5175    171.5068   1.1330228449e+02   3.4520580306e+01    0.1348393     0.113186  86.50 0.0002624365    1.038    0.036
        38 -10.4788    240.1778    169.1416   6.4430135016e+01   8.5411285372e-01    0.2059383    0.1591138 -13.57 0.0004215738    1.204    0.170
        39  -9.2078    110.9421    167.9100   9.2576797974e+01   2.4629577196e+01    0.2412583    0.1815122  76.30 0.0006480276    1.653    0.395
        40  -8.0199    120.2946    165.2893   8.9629160115e+01   2.3585251550e+01    0.1501136    0.1202849 -13.50            0    1.550    0.355
        41  -8.2069     29.5813    164.5154   1.1380739421e+02   3.6749667907e+01    0.1338056     0.111336 -87.89 8.123267e-05    1.028    0.027
        42  -7.9726    130.2907    159.6398   8.5895340528e+01   2.3060331165e+01    0.1581526    0.1231535  84.94 0.0007027426    1.693    0.409
        43 -10.2127     32.2465    156.6631   1.1219599293e+02   3.8454027507e+01    0.2585395    0.2088704 -80.63  0.001089243    1.067    0.063
        44 -11.3652     89.3119    152.0492   9.5453406629e+01   3.2214244986e+01     0.677453    0.4704771 -20.18   0.00293772    2.069    0.517
        45 -10.3237    134.2691    146.8767   8.2092289058e+01   2.5287797516e+01    0.9221405    0.2662181 -54.42  0.002356002    4.548    0.780
        46  -9.6828    132.3986    139.1995   8.0814506619e+01   2.7464477791e+01    0.3708958    0.1877211 -52.32  0.001384596    2.029    0.507
        47  -8.9463    174.7097    148.9837   7.2832549221e+01   1.6609219028e+01    0.2228327    0.1934745 -42.44 0.0006454047    1.127    0.113
        48 -10.3037     38.6608    146.1254   1.0902936948e+02   4.0477932917e+01    0.3293094    0.2612403  74.69 0.0007898702    1.287    0.223
        49 -10.0840    102.9099    138.1896   8.8709067794e+01   3.3365604987e+01    0.5832054     0.363588 -19.18  0.002130074    2.737    0.635
        50 -10.1168    105.9705    130.9650   8.6179077056e+01   3.4585596642e+01    0.3906121    0.3288715 -53.99  0.001332261    1.159    0.137
        51 -11.5885     90.3552    137.7205   9.2260902112e+01   3.5655986466e+01    0.3010015    0.2681801 -34.37 0.0005110576    1.167    0.143
        52 -10.2358    135.6947    129.0222   7.7498228895e+01   2.9155040862e+01    0.4943459    0.1430906 -50.61  0.001339114    3.797    0.737
        53  -9.8329    111.9361    129.1596   8.4036292120e+01   3.3899561294e+01    0.3510205    0.2854983   0.45 0.0009976141    1.503    0.335
        54 -10.6713     43.2501    129.5949   1.0509388349e+02   4.4215216059e+01    0.3643368    0.2155818  49.05  0.001717352    1.942    0.485
        55 -10.2910     99.1588    124.9360   8.6753998561e+01   3.7306509677e+01    0.3358445    0.2665734 -14.26 0.0007953813    1.530    0.346
        56 -10.5680    117.3154    123.9930   8.1244010333e+01   3.4084992914e+01    0.4064477    0.2918586  -5.43 0.0009321027    2.034    0.508
        57  -8.6082    160.9935    127.6672   7.0895627898e+01   2.4055933381e+01    0.2554817    0.1290508  65.13 0.0007051355    4.350    0.770
        58  -9.1314     89.8417    122.9940   8.9116429476e+01   3.9417094708e+01    0.4737815    0.2421927  60.95  0.001462294    3.849    0.740
        59  -9.2840    108.0786    118.2978   8.2468440438e+01   3.7244416966e+01    0.2422577    0.2059751 -34.80 0.0002711927    1.182    0.154
        60 -11.4712     69.6745    171.6986   1.0416359010e+02   3.0212296511e+01    0.4974292    0.3349281 -23.17  0.002237997    2.288    0.563
        61 -10.0330    231.3616    113.8026   5.4063808257e+01   1.2053550199e+01    0.2950279    0.2290837 -45.21 0.0007301921    1.136    0.120
        62  -9.7022    134.7383    113.1666   7.3681975713e+01   3.2949133912e+01    0.3747511    0.1351118 -43.02  0.001182742    2.752    0.637
        63 -11.8658     46.0134    106.0851   9.9675684447e+01   4.9822642514e+01    0.6108592     0.326454  20.92  0.002323984    2.198    0.545
        64  -9.3553    205.3211    110.1011   5.7488070030e+01   1.7985181063e+01    0.2952257    0.2047897  34.67  0.001041152    1.751    0.429
        65 -10.1594    115.3257    107.6682   7.7553086308e+01   3.8275856323e+01    0.2318499    0.1661948 -60.94  0.001016682    1.586    0.369
        66  -8.4154    138.8581    105.8045   7.0625425308e+01   3.3652825496e+01    0.2090847    0.1864298 -88.23 0.0004328685    1.281    0.219
        67 -12.2077     30.1608    108.3367   1.0561724286e+02   5.0843910531e+01    0.5484355    0.3476077  31.49  0.002885095    1.790    0.441
        68  -9.6651     39.6940    102.9898   1.0123379108e+02   5.1255475084e+01    0.2034574    0.1632488 -57.65 0.0007720392    1.100    0.091
        69 -10.9836     33.7944     99.8093   1.0267168758e+02   5.2606101956e+01    0.3254198    0.3123176   2.22   0.00182297    1.180    0.153
        70 -10.5377     29.2214     98.6318   1.0407805167e+02   5.3302196787e+01    0.3151399    0.2167459 -12.15 0.0008415182    1.725    0.420
        71  -9.2080    127.4126     94.6155   7.0496246755e+01   3.8553145815e+01    0.2968523    0.1957568  75.02  0.001125141    2.495    0.599
        72  -9.0676     52.6700     90.6876   9.3634668634e+01   5.2735288553e+01    0.1495003   0.09842161 -26.20 0.0005300021    1.672    0.402
        73  -9.4659    156.0455     88.1555   6.1578009543e+01   3.3291930963e+01    0.3792709    0.2542063 -76.67  0.001326429    2.305    0.566
        74  -8.9997    115.3564     84.8737   7.0968485488e+01   4.3176192466e+01    0.2683799    0.2059406  55.85 0.0008305844    1.421    0.296
        75  -8.7833    158.4714     82.9468   5.9579837353e+01   3.3695113244e+01     0.228663    0.1474807 -40.34 0.0004440999    1.536    0.349
        76  -8.2605    184.6503     76.7248   5.2765798193e+01   2.8607173322e+01    0.1441526    0.1139517  25.24 0.0003660466    1.635    0.388
        77  -9.3841     57.6750     66.9777   8.4787386291e+01   5.7269078404e+01    0.2198761    0.1852538  16.09  0.001154118    1.196    0.164
        78 -12.8611    188.1736     50.6440   4.5368210527e+01   3.1865057440e+01    0.9073876    0.8504385   2.91 0.0007996501    1.310    0.237
        79 -11.0005    193.2699    195.4813   7.8569144964e+01   3.8990252958e+00    0.9316371    0.4895566 -61.84   0.00302725    4.801    0.792
        80 -10.7707    109.4035    198.7940   9.8222960630e+01   1.7666429449e+01    0.3359446    0.1978587 -41.64  0.001504568    2.017    0.504
        81 -11.2102     22.0145     34.2319   8.8999049912e+01   6.7671105732e+01    0.2839775    0.2174066  22.81  0.001080528    1.452    0.311
        82  -9.0823     68.1632     52.2623   7.5569475309e+01   5.8445470756e+01    0.2282479    0.1833711  50.73  0.001266306    1.549    0.354
        83  -9.5671     29.7513     35.6204   8.5700423186e+01   6.6644682017e+01    0.1559545    0.1078594  29.09 0.0003585664    1.581    0.368
        84  -8.8883    189.4995     14.9741   3.6121103007e+01   3.5996997449e+01    0.1764236    0.1234328 -33.52 0.0007035327    1.556    0.357
        85 -11.2349    107.5974    203.7842   9.9405470579e+01   1.6846944744e+01    0.5305606    0.2767693  61.15  0.002054923    2.757    0.637
