#   1 NUMBER                 Running object number                                     
#   2 MAG_AUTO               Kron-like elliptical aperture magnitude                    [mag]
#   3 X_IMAGE                Object position along x                                    [pixel]
#   4 Y_IMAGE                Object position along y                                    [pixel]
#   5 X_WORLD                Barycenter position along world x axis                     [deg]
#   6 Y_WORLD                Barycenter position along world y axis                     [deg]
#   7 A_WORLD                Profile RMS along major axis (world units)                 [deg]
#   8 B_WORLD                Profile RMS along minor axis (world units)                 [deg]
#   9 THETA_WORLD            Position angle (CCW/world-x)                               [deg]
#  10 FWHM_WORLD             FWHM assuming a gaussian core                              [deg]
#  11 ELONGATION             A_IMAGE/B_IMAGE                                           
#  12 ELLIPTICITY            1 - B_IMAGE/A_IMAGE                                       
         1 -11.9095    153.3674     19.0196   2.9009076591e+02   6.6776860840e+00     0.020382   0.01261283 -56.61  0.001657141    1.564    0.361
         2 -11.6566    134.7402     18.7519   2.9030634730e+02   6.7889132146e+00   0.02050045   0.01303157 -52.54   0.00209693    1.528    0.346
         3 -11.1745    123.4361     12.0901   2.9039815979e+02   6.9317273021e+00   0.01220971  0.008380329 -48.66 0.0007759639    1.439    0.305
         4 -12.0200    103.2619     15.8308   2.9065602899e+02   7.0052740099e+00   0.01895703  0.007315141 -54.28  0.001352532    2.398    0.583
         5 -11.9198    106.7755      9.1364   2.9057480649e+02   7.0625497245e+00   0.01789701   0.01269553 -77.85  0.001173537    1.582    0.368
         6 -10.6035    124.6437      7.7054   2.9035771627e+02   6.9755607972e+00   0.00875573   0.00630193 -74.52  0.000439058    1.507    0.337
         7 -11.7701    134.2427      1.6741   2.9020947863e+02   6.9897897622e+00   0.01534343  0.008920233  10.07 0.0008245186    2.146    0.534
         8 -11.7200    111.8971    150.4130   2.9136200932e+02   5.3926548108e+00   0.01568256  0.009477405  63.86  0.001414946    2.274    0.560
         9 -16.5879    164.7758    115.1764   2.9053518560e+02   5.4956428806e+00     0.200726   0.08981534  10.33   0.01413913    3.715    0.731
        10 -19.5753    210.8503     90.1582   2.8984880795e+02   5.5184791356e+00    0.6052456     0.442322 -76.48   0.06526272    1.501    0.334
        11 -16.2089    157.6782     84.1748   2.9043189244e+02   5.8967576178e+00    0.1090804   0.07728861  83.92  0.009014329    1.785    0.440
        12 -15.7471     49.9738    165.8805   2.9217586247e+02   5.5705813225e+00   0.08028596   0.04587474 -61.76  0.005454485    1.723    0.420
        13 -13.5586    248.9950    141.4196   2.8971305362e+02   4.7018405101e+00   0.01696487   0.01622549 -65.71  0.001638976    1.048    0.046
        14 -12.9950    247.3609    135.8085   2.8969836964e+02   4.7764577164e+00      0.01533   0.01361772 -41.52 0.0008106543    1.125    0.111
        15 -10.5237    127.0263    196.9355   2.9146391629e+02   4.7644521117e+00   0.01032484  0.007554647  60.80 0.0004627931    1.584    0.369
        16 -13.2953    204.6849    172.2426   2.9041282962e+02   4.6013612600e+00   0.02229099   0.01140275  20.87  0.001345718    2.130    0.530
        17 -11.4240    243.2157    131.9268   2.8972324170e+02   4.8456044156e+00   0.01319778  0.009000519  20.37 0.0007680688    1.532    0.347
        18 -11.3880    103.8350    129.8333   2.9133282775e+02   5.6784318306e+00   0.01012315   0.00891236 -28.86  0.000484582    1.174    0.148
        19 -15.1214     69.1547    153.5720   2.9187887407e+02   5.6029781126e+00   0.04627936   0.03566905  87.96  0.003539544    1.516    0.340
        20 -10.4004     89.2800    170.6681   2.9174650383e+02   5.2880106623e+00  0.006793153  0.005033647  66.86  0.000244453    1.607    0.378
        21 -12.0244    244.8191    117.9091   2.8962046492e+02   4.9989436936e+00   0.01246204  0.008981233  30.75 0.0006946966    1.380    0.276
        22 -12.2305    163.2848    166.4445   2.9085965471e+02   4.9088021516e+00   0.01233072   0.01084152  58.41 0.0005423091    1.207    0.171
        23 -10.3469     24.3238    105.2985   2.9211326913e+02   6.4226093957e+00  0.006943366  0.004931918 -26.47 0.0005237091    1.627    0.385
        24 -14.3505     60.3801    138.4541   2.9189084369e+02   5.8293531270e+00   0.07525856   0.04445899  62.11  0.006767965    2.320    0.569
        25 -11.3358     61.1003     80.9593   2.9153860249e+02   6.4932230671e+00   0.01000725   0.00961186 -83.26 0.0005786958    1.068    0.064
        26 -14.2101     75.6523    148.9493   2.9177554184e+02   5.6191879856e+00   0.03563426   0.02541913  61.70  0.003552483    1.658    0.397
        27 -11.0086     36.1928     62.1255   2.9171654891e+02   6.8556880027e+00   0.01358146  0.008117118 -49.13 0.0009553251    1.647    0.393
        28 -12.5833    233.6956    186.5074   2.9016111465e+02   4.2673412026e+00   0.01194113   0.01174023 -63.57 0.0004403368    1.021    0.021
        29 -10.7967     13.4633     60.0508   2.9196952168e+02   7.0107727136e+00  0.009933462  0.006455947 -62.54 0.0004309007    1.528    0.345
        30 -16.0944     80.7865    144.6932   2.9169027874e+02   5.6389967945e+00   0.08391787   0.06725981  -5.60  0.004876491    1.396    0.284
        31 -12.1729    103.8210     50.9922   2.9086059311e+02   6.5941079722e+00   0.01196512  0.009733422  29.92  0.001143159    1.229    0.186
        32 -10.9996     64.5117     49.4590   2.9131009168e+02   6.8392710139e+00  0.006507145  0.006465299  63.01 3.354964e-05    1.026    0.026
        33 -11.8272     91.4862     45.9560   2.9097428322e+02   6.7239561642e+00   0.01021487  0.006505472 -63.50 0.0008082475    1.571    0.364
        34 -13.0268     96.6215     42.9516   2.9089633931e+02   6.7291000175e+00   0.01768844   0.01244579 -66.63  0.001393863    1.451    0.311
        35 -11.5461     64.3477     43.8631   2.9127845930e+02   6.9051701198e+00   0.01226906  0.008047899 -53.30  0.001220596    1.480    0.324
        36 -14.3191    183.7494    159.5930   2.9058053613e+02   4.8697340378e+00    0.0257365   0.01987758  59.96   0.00225048    1.455    0.313
        37 -10.9105     17.4916     38.8978   2.9179586439e+02   7.2331446610e+00  0.009757852  0.006503164 -63.73 0.0004918606    1.502    0.334
        38 -12.5399    170.0225     31.8973   2.8997408221e+02   6.4316197076e+00   0.01526059   0.01291761 -48.54   0.00086416    1.167    0.143
        39 -15.1290     28.6272    172.0242   2.9246125383e+02   5.6221972807e+00    0.0823386   0.04379989  71.28  0.006066377    3.620    0.724
        40 -14.5703    165.8428    150.1524   2.9073234699e+02   5.0832346799e+00   0.02972149   0.02400379 -34.61   0.00339843    1.292    0.226
        41 -11.3821    153.7393     27.0136   2.9013448757e+02   6.5828341895e+00   0.01496924   0.01078406 -54.89 0.0009282002    1.354    0.261
        42 -11.8345     78.3082     24.4987   2.9099933392e+02   7.0491676344e+00   0.01147325   0.01027962 -73.95 0.0002296726    1.147    0.128
        43 -15.7215     10.5904    193.7974   2.9280107715e+02   5.4728679484e+00   0.07273806   0.03824296 -19.45  0.005460569    3.420    0.708
        44 -12.3600    207.7839    205.1663   2.9057390846e+02   4.2010147106e+00   0.01433939    0.0101009  31.57 0.0005160822    1.409    0.290
        45 -10.7120    122.2073     16.1031   2.9043661270e+02   6.8923212157e+00   0.01175816  0.008373528 -50.90 0.0004849489    1.376    0.273
        46 -15.1041    172.7438    151.9612   2.9066287202e+02   5.0222093508e+00   0.03677682   0.02984801  89.29  0.004080478    1.390    0.280
        47 -11.4447    108.3094     17.0184   2.9060426210e+02   6.9622609717e+00   0.01070481  0.009366523  24.89 0.0004486921    1.150    0.130
        48 -14.7615    190.3661    192.0421   2.9069784394e+02   4.4544513483e+00   0.05859972   0.03143174  71.83   0.00434588    3.571    0.720
        49 -13.0654    234.0553    193.0653   2.9019621627e+02   4.1891129697e+00   0.02672153  0.009906819  25.99  0.002067475    2.749    0.636
        50 -12.3235    199.9866    192.6427   2.9058959084e+02   4.3916881860e+00    0.0113584  0.008930625 -45.29 0.0006695459    1.270    0.213
