#   1 NUMBER                 Running object number                                     
#   2 MAG_AUTO               Kron-like elliptical aperture magnitude                    [mag]
#   3 X_IMAGE                Object position along x                                    [pixel]
#   4 Y_IMAGE                Object position along y                                    [pixel]
#   5 X_WORLD                Barycenter position along world x axis                     [deg]
#   6 Y_WORLD                Barycenter position along world y axis                     [deg]
#   7 A_WORLD                Profile RMS along major axis (world units)                 [deg]
#   8 B_WORLD                Profile RMS along minor axis (world units)                 [deg]
#   9 THETA_WORLD            Position angle (CCW/world-x)                               [deg]
#  10 FWHM_WORLD             FWHM assuming a gaussian core                              [deg]
#  11 ELONGATION             A_IMAGE/B_IMAGE                                           
#  12 ELLIPTICITY            1 - B_IMAGE/A_IMAGE                                       
         1 -14.7528    165.2544     39.3397   7.8509993540e+01   3.9334512515e+01     1.315102     1.045989  -2.26  0.003935682    1.491    0.329
         2 -14.0720    180.0379      8.9096   6.6651654491e+01   3.8994240490e+01    0.9964455    0.5097837  63.75  0.004357723    1.729    0.422
         3 -13.7540    179.0709      3.7821   6.5219059106e+01   3.9738324201e+01     1.242284    0.3505141  66.02  0.004378483    2.868    0.651
         4 -10.0610     28.5523    239.2015   1.4808969405e+02   2.3557452956e+01    0.1158412   0.08205293 -82.32 0.0004581855    1.444    0.307
         5 -19.6701     70.7419    179.5847   1.3539901041e+02   2.9857919959e+01     16.32383     6.460834 -68.93   0.07260902    2.518    0.603
         6 -10.7810     20.5458    217.4943   1.4827950743e+02   2.8293015268e+01    0.1452857   0.08013456 -70.65 0.0001116519    1.825    0.452
         7 -10.7566    114.0417    250.4269   1.3450168593e+02   1.0378053667e+01    0.1350925    0.1043664  56.08 0.0004767203    1.046    0.044
         8 -12.2017    110.5012    208.7667   1.3064398011e+02   1.7954084045e+01    0.2857326    0.2438485  19.93 0.0006819608    1.599    0.375
         9 -11.4217      8.4372    175.6212   1.4806981443e+02   3.7683855805e+01    0.1741316    0.1350947  65.59 0.0005294935    1.198    0.165
        10 -12.9173    177.9606    172.0736   1.1089031029e+02   1.2315757020e+01    0.4767214    0.3221776 -50.98  0.002370867    1.697    0.411
        11 -13.3627    138.7402    171.8024   1.1919457899e+02   2.0131870737e+01    0.6371203    0.4347091  65.36  0.002824412    1.642    0.391
        12 -13.6948    144.7744    168.8470   1.1733381527e+02   1.9553877855e+01    0.7911891    0.4955232  85.94  0.003098463    2.973    0.664
        13 -10.9348     15.6241    237.2060   1.5005537912e+02   2.5277249691e+01    0.1652725   0.06520802  67.62 0.0009844655    2.017    0.504
        14 -10.6170    150.8499    249.9142   1.2801623094e+02   4.7202178296e+00    0.1648484    0.1317396  48.30 0.0003904503    1.064    0.060
        15 -12.3891    112.3975    168.8631   1.2459528770e+02   2.5592274414e+01    0.5516785    0.2572044  57.13  0.002196301    2.491    0.598
        16  99.0000     24.2321    231.1114   1.4837743761e+02   2.5438099255e+01    0.3326641    0.1704821  70.07  0.002232341    1.501    0.334
        17 -12.0968    156.2551    198.5674   1.2000485217e+02   1.1816678821e+01    0.3650478    0.1907833 -63.96  0.001535607    3.055    0.673
        18 -10.7891    122.8919    165.9965   1.2172344220e+02   2.4307997584e+01    0.2731715    0.1627045  64.52 0.0007512711    2.018    0.504
        19 -10.3905    108.7755    182.7647   1.2753720491e+02   2.3315488892e+01    0.1862302    0.1686407  66.86    0.0011571    1.082    0.076
        20 -11.2098    223.8417    163.8827   1.0035224923e+02   4.5295027365e+00    0.2260676    0.1961257 -41.46 0.0004746703    1.310    0.237
        21 -12.8452    163.4472    203.7465   1.1939487179e+02   9.6167792752e+00    0.3891036    0.2621731 -49.83  0.001409744    1.750    0.429
        22 -13.0188    160.7054    198.3311   1.1907409991e+02   1.1036111818e+01     0.384203    0.2652977 -62.33  0.001514869    1.846    0.458
        23 -11.9737    169.0183    202.5746   1.1811244466e+02   8.7908635272e+00    0.2165593    0.1852725 -81.96 0.0001635213    1.482    0.325
        24 -12.3076    164.4673    157.4199   1.1079910687e+02   1.7817087681e+01    0.2994268    0.2738971  20.23 0.0009407013    1.154    0.134
        25 -14.2084    134.2350    146.0385   1.1529541705e+02   2.6370011260e+01     1.394826    0.4206368 -55.98  0.003881231    4.616    0.783
        26 -13.9013    175.0168    194.2627   1.1554449734e+02   9.0514812144e+00    0.6372241    0.4736523 -64.80  0.003469362    1.802    0.445
        27 -13.6235    167.5009    191.2150   1.1652310507e+02   1.0989693087e+01    0.5304464    0.4378189  75.37  0.002797487    1.448    0.309
        28 -11.9609    174.0950    149.3551   1.0702223016e+02   1.7333069186e+01    0.3397159     0.296852  40.97  0.001050372    1.093    0.085
        29 -13.8877    135.8134    125.4649   1.1036937486e+02   3.0482799613e+01     1.229383     0.289648 -49.92  0.003198316    4.687    0.787
        30 -14.0232    144.4115    146.0140   1.1290769344e+02   2.4299355721e+01    0.7972522    0.5281757 -71.41  0.003465456    2.028    0.507
        31 -12.8726    180.4428    192.7617   1.1421297649e+02   8.2765753636e+00    0.4026861    0.3191045 -68.20  0.001346326    1.700    0.412
        32 -13.3984    176.7203    188.2267   1.1414976517e+02   9.7432206977e+00    0.6041901    0.3502904 -62.88  0.002592145    2.843    0.648
        33 -12.2846      6.3058    137.4635   1.4572966024e+02   4.6028886844e+01    0.2334774    0.1462868 -68.34  0.001520072    1.355    0.262
        34 -11.2827    151.6752    150.3443   1.1215793075e+02   2.1895255766e+01     0.227449    0.1730699  83.41 0.0006081735    1.682    0.405
        35 -10.7943    138.6148    198.7991   1.2361545746e+02   1.4983016331e+01    0.5081425      0.18771  53.31   0.00186744    3.055    0.673
        36 -11.1166    219.8782    226.0089   1.1249185642e+02  -3.4131352971e+00    0.2202605    0.1539779 -48.77  0.001269483    2.117    0.528
        37 -11.5482     18.1484    129.1932   1.4202445215e+02   4.6966332118e+01    0.2815244    0.1352529 -55.67  0.001233282    1.963    0.490
        38 -12.3087    160.8053    127.4779   1.0493891459e+02   2.4588746434e+01    0.4325812    0.3310587 -45.71  0.002084016    1.336    0.251
        39 -11.6543    158.7422    204.4511   1.2043336099e+02   1.0355220129e+01    0.3321206    0.1872476  58.99  0.001529166    2.068    0.516
        40 -11.0571    140.0054    120.4769   1.0814082592e+02   3.0657378652e+01    0.2380483    0.1493223  49.05 0.0005218717    1.584    0.369
        41 -10.7227    110.1092    223.0951   1.3239230478e+02   1.5441336668e+01    0.1792653    0.1409558  59.08 0.0003859297    1.013    0.013
        42 -12.2066    170.2627    115.9717   9.9973057816e+01   2.4721589460e+01    0.5513667    0.3655027 -75.57 0.0008312263    2.461    0.594
        43 -10.9927     15.5050    219.8371   1.4925764246e+02   2.8375945396e+01    0.2217513     0.121763 -73.15  0.001519963    1.774    0.436
        44 -12.0498    154.3604    185.8531   1.1829671216e+02   1.4444766717e+01    0.2579322    0.1746619  52.02  0.000928514    1.372    0.271
        45  99.0000     14.3313    216.3309   1.4928058680e+02   2.9138926063e+01    0.1918709    0.1459705  42.80  0.001503237    1.572    0.364
        46 -10.7204    205.6132    110.1290   9.1328072430e+01   1.7472681018e+01    0.2893611    0.2186834  42.87 0.0007347325    1.354    0.261
        47 -11.9812     28.8587    183.8632   1.4457295425e+02   3.4030936446e+01    0.2751561    0.1825243  54.64 0.0009693258    1.345    0.257
        48 -11.1178     19.0718    108.6516   1.3929312702e+02   5.1560233653e+01    0.1565131    0.1408196 -69.14   0.00100741    1.170    0.145
        49 -13.8328    206.9586    179.8520   1.0669596131e+02   5.2948652457e+00     0.800638    0.4512838  30.77  0.003505222    1.847    0.459
        50 -13.3465    196.4670    172.0635   1.0718148795e+02   8.6069500453e+00    0.7552032    0.4196635 -48.27  0.002673643    2.137    0.532
        51  -9.9607     23.1066    182.7755   1.4563982648e+02   3.4841258244e+01    0.1283979    0.1156057 -85.71 0.0004437729    1.359    0.264
        52 -10.6917     13.6262     60.0028   1.3263750456e+02   6.2732396344e+01    0.1659824    0.1556038 -86.00 0.0005228847    1.261    0.207
        53 -14.2365    153.7859     54.2166   8.5625323534e+01   4.0115248452e+01     1.140743    0.7577723  50.59  0.001044425    1.459    0.314
        54 -10.8222    125.2164    247.4845   1.3225612617e+02   9.1125130330e+00     0.141468   0.09445128 -61.21 0.0006323562    1.881    0.468
        55 -12.7157    169.4294     31.2722   7.5186785500e+01   3.9293625661e+01    0.4318539    0.3431621  41.68 0.0009422755    1.307    0.235
        56 -10.6282    141.6054     32.7234   8.0903133828e+01   4.6325249915e+01    0.2393086    0.1754672  87.19 0.0005776429    1.680    0.405
        57 -11.3996     13.2618    244.7484   1.5074425617e+02   2.4238525865e+01    0.2226325    0.1013349 -70.10  0.001485809    2.323    0.570
