#   1 NUMBER                 Running object number                                     
#   2 MAG_AUTO               Kron-like elliptical aperture magnitude                    [mag]
#   3 X_IMAGE                Object position along x                                    [pixel]
#   4 Y_IMAGE                Object position along y                                    [pixel]
#   5 X_WORLD                Barycenter position along world x axis                     [deg]
#   6 Y_WORLD                Barycenter position along world y axis                     [deg]
#   7 A_WORLD                Profile RMS along major axis (world units)                 [deg]
#   8 B_WORLD                Profile RMS along minor axis (world units)                 [deg]
#   9 THETA_WORLD            Position angle (CCW/world-x)                               [deg]
#  10 FWHM_WORLD             FWHM assuming a gaussian core                              [deg]
#  11 ELONGATION             A_IMAGE/B_IMAGE                                           
#  12 ELLIPTICITY            1 - B_IMAGE/A_IMAGE                                       
         1 -13.6619    245.1020    158.2773   9.4195552096e+01   5.8077611390e+00     1.961241    0.8419942 -37.46  0.009443877    2.511    0.602
         2 -12.6823    248.7229    133.1551   8.8503275359e+01   8.3555783040e+00       1.1967    0.5387285 -25.37  0.005855848    1.925    0.481
         3 -14.3644    199.7402     17.4522   6.5631374697e+01   3.2794968104e+01     2.302077     1.301742  38.93  0.009216549    2.144    0.534
         4 -13.9525    204.5378     10.1293   6.3086537897e+01   3.2355510076e+01     2.954432     1.455706  19.23  0.001468783    3.716    0.731
         5 -13.5871      6.1446     10.3360   1.2645102058e+02   7.4725438862e+01     1.920437    0.7128788 -49.35  0.009192838    1.972    0.493
         6 -11.9410    132.4903    224.9791   1.2606103915e+02   1.3210446847e+01    0.4569151    0.2094672 -46.63  0.002494946    2.688    0.628
         7  -9.1200    205.3374    250.3081   1.1592795681e+02   7.4845086935e-01    0.1108101   0.06141504  10.87 0.0007042739    1.680    0.405
         8  -9.8899    183.8086    250.4284   1.1960838637e+02   3.3486024250e+00    0.1543982   0.07571705  24.82 0.0005305694    1.618    0.382
         9 -10.7562    152.2783    243.3324   1.2439893225e+02   8.1386447082e+00    0.2212332    0.1591576  43.11  0.001591653    1.404    0.288
        10 -11.9823    149.8881    248.4374   1.2539918308e+02   7.8047051686e+00    0.6729091    0.2275407  41.33  0.003367747    2.507    0.601
        11 -11.1431    143.6350    249.3563   1.2663216779e+02   8.4713801278e+00    0.3287565    0.1920411  50.58   0.00207709    2.010    0.503
        12 -11.5906    146.0451    240.7454   1.2525876773e+02   9.2654092914e+00    0.2720442    0.1996032  35.22 0.0004684997    1.143    0.125
        13 -11.6333     96.6454    239.1306   1.3443092525e+02   1.5642827187e+01    0.3793418    0.2739398  79.97  0.001911569    1.778    0.438
        14 -11.3061    133.5973    249.4093   1.2846812327e+02   9.7101180432e+00    0.6223391    0.1758556  42.94  0.002799984    3.133    0.681
        15 -11.7004     98.8471    247.5428   1.3471038682e+02   1.4162068139e+01    0.6207361    0.2496365  41.43  0.003450247    1.844    0.458
        16 -11.3563    124.1330    249.5950   1.3022097396e+02   1.0848835125e+01    0.5815916    0.2023647  31.82  0.002975263    2.264    0.558
        17 -10.6083    115.5594    250.1461   1.3184660931e+02   1.1815108245e+01    0.4442973    0.1766928  33.44  0.002492354    1.881    0.468
        18 -11.5052    110.0003    247.6397   1.3265107235e+02   1.2825663392e+01     0.556965     0.261042  24.89  0.003113122    2.137    0.532
        19 -10.4787    121.6859    244.8580   1.3022349480e+02   1.1785596082e+01    0.3272865    0.1580539  47.79  0.001902719    2.006    0.502
        20 -12.0650    126.3084    240.7916   1.2895740188e+02   1.1766901367e+01    0.3686167    0.3192846  22.82  0.001922692    1.164    0.141
        21 -10.4756     87.8611    250.5313   1.3696330780e+02   1.5002019734e+01    0.4398705    0.1623516  28.74  0.001752279    2.491    0.599
        22 -10.8162     88.0240    247.0380   1.3667638849e+02   1.5485885884e+01    0.2419161     0.126586  30.92  0.001158635    1.566    0.361
        23 -11.6406     81.1448    246.1723   1.3788725727e+02   1.6389754454e+01    0.4772769     0.277498 -89.29  0.003119332    2.411    0.585
        24  -9.3558     83.6143    242.2362   1.3714223437e+02   1.6695540983e+01    0.1658024    0.1601824 -22.90 0.0008264647    1.381    0.276
        25 -11.6274     90.0248    236.1895   1.3545457991e+02   1.6868208987e+01    0.3654925    0.2021863  45.97  0.002351556    1.467    0.318
        26  -9.7383     83.5178    238.4411   1.3687609133e+02   1.7279801127e+01    0.2769873    0.1211403  45.33 0.0008219022    1.805    0.446
        27  -9.6193     86.3184    237.2909   1.3625311253e+02   1.7132604281e+01    0.1646133    0.1302528  28.53 0.0003284501    1.214    0.176
        28 -14.9571     17.4751    169.6674   1.4620696681e+02   3.6638111511e+01     2.850054     1.254537 -60.58   0.01504393    2.387    0.581
        29 -14.7647     53.5181    216.9501   1.4123752203e+02   2.4107424616e+01     2.028292     1.602092  27.16   0.01504716    1.336    0.252
        30 -13.3949      7.2662    227.0704   1.5058220499e+02   2.6637171992e+01    0.6510512    0.4681271   1.95  0.004847311    2.193    0.544
        31 -12.4605    135.2370    236.8401   1.2685674125e+02   1.1173764532e+01    0.4074543    0.3470664 -43.85  0.002247486    1.521    0.343
        32  -9.8930    108.2807    242.3108   1.3250137509e+02   1.3781862363e+01    0.1635094    0.1462568  43.82  0.001334469    1.192    0.161
        33 -10.5510    165.5819    241.6571   1.2177809558e+02   6.6455055997e+00      0.28498    0.1346511  22.36 0.0009397303    2.054    0.513
        34  -9.1002    158.1816    241.8137   1.2314387375e+02   7.5742468593e+00    0.1490142    0.1061084  11.02 0.0004600343    1.342    0.255
        35  -8.3659     74.6813    239.3317   1.3861648176e+02   1.8140283961e+01    0.1102635   0.08346727  44.03 0.0003071081    1.001    0.001
        36 -10.5657     70.3320    235.4857   1.3917694463e+02   1.9219639737e+01    0.3817092    0.1786945  49.02  0.002312867    1.752    0.429
        37 -10.4370    173.1798    239.9086   1.2019156386e+02   5.8810677789e+00    0.2043417    0.1752541 -38.52 0.0008782442    1.635    0.388
        38 -10.6729    115.8052    240.0899   1.3087362014e+02   1.3175626725e+01    0.1941155    0.1458113  45.17 0.0008168726    1.200    0.166
        39  -9.4062     92.4159    231.9417   1.3463764208e+02   1.7238255742e+01    0.1714243    0.1091672 -72.25  0.001132527    2.026    0.507
        40 -11.2367    129.1771    233.1576   1.2761598341e+02   1.2467375912e+01    0.2968199    0.1850864  40.52  0.001689095    1.321    0.243
        41 -10.4401    165.8698    235.6067   1.2098624232e+02   7.3519016302e+00    0.1997669    0.1648426 -21.14  0.001525405    1.421    0.296
        42 -10.6035    162.0361    232.8050   1.2134628215e+02   8.2093294045e+00    0.2364036    0.1542728  52.16  0.001166336    2.072    0.517
        43 -12.3229    109.9220    230.4010   1.3107242715e+02   1.5326740243e+01    0.7485269    0.2788931  36.54  0.002987915    2.026    0.506
        44 -11.3090     98.4482    230.9894   1.3337511669e+02   1.6657474720e+01    0.3461795    0.3159649  81.91  0.001632501    1.308    0.235
        45  -9.8694     93.8126    217.4775   1.3305318295e+02   1.9388854468e+01    0.2528599     0.170585  73.01  0.001581913    1.848    0.459
        46 -10.5157    110.1840    222.5207   1.3022901766e+02   1.6504702953e+01    0.2429816    0.2102925 -27.59 0.0006731658    1.440    0.306
        47 -10.4638    105.1541    219.1624   1.3090139689e+02   1.7682924235e+01    0.3057071    0.2024221  67.25 0.0004310214    1.936    0.484
        48  -9.9339    101.2863    216.0463   1.3137568292e+02   1.8684471230e+01    0.2134042    0.1454778  50.42  0.001095583    1.359    0.264
        49 -10.3330    102.2361    211.9108   1.3075059178e+02   1.9249272217e+01     0.326861    0.1693386  48.76  0.001314314    1.826    0.452
        50 -10.8696     92.8960    226.0626   1.3403016361e+02   1.8105011276e+01    0.3028742     0.160177  43.12  0.000446355    1.511    0.338
        51 -12.1150     98.8284    223.4071   1.3259910427e+02   1.7800253966e+01    0.4678622    0.2391961  29.54   0.00177485    1.719    0.418
        52 -10.2726    222.9564    244.4915   1.1224656577e+02  -7.6879720737e-01      0.16416   0.07707857  29.18 0.0009261731    1.604    0.377
        53 -11.3244    121.8340    232.8360   1.2899858038e+02   1.3456662063e+01     0.283264    0.2284922  32.69  0.001195612    1.043    0.041
        54 -11.0906    156.7073    231.7924   1.2221715747e+02   9.0449469256e+00     0.236708    0.1920713  23.55 0.0005686852    1.084    0.077
        55  -8.7171     62.3163    233.2495   1.4056110844e+02   2.0445011905e+01   0.09277121   0.07615256  12.67 0.0002232499    1.523    0.344
        56 -10.9939    180.6010    229.4569   1.1749329166e+02   6.1715325790e+00    0.3049569    0.2332456 -68.56   0.00189532    2.876    0.652
        57 -11.5018    141.8967    230.2464   1.2484484198e+02   1.1213564816e+01    0.3615322    0.2285216 -30.99  0.001570704    2.030    0.507
        58 -10.8447    165.4630    227.3261   1.2000787146e+02   8.4598147604e+00    0.2949682     0.226437 -63.50  0.001849429    2.233    0.552
        59  -9.5417    150.5207    229.7455   1.2313686976e+02   1.0138527777e+01    0.2517279    0.1016383  42.37  0.001263462    2.239    0.553
        60 -10.6993     84.6575    229.6420   1.3596438691e+02   1.8517498932e+01    0.2940527    0.1832663  12.02  0.001196862    2.223    0.550
        61 -10.8032     79.4896    228.7820   1.3691098906e+02   1.9255492766e+01    0.3676394    0.2542317 -27.83  0.002349495    2.322    0.569
        62 -10.0715     78.6789    224.6795   1.3674703821e+02   2.0015633934e+01    0.2475464    0.1772976   9.78  0.001159759    1.816    0.449
        63 -10.3678     77.7927    221.2992   1.3665240304e+02   2.0678104308e+01    0.2449368    0.1418714  50.91 0.0007645169    1.505    0.336
        64 -10.2795    190.9254    228.0816   1.1544194611e+02   4.9737853396e+00    0.1706341    0.1241581  18.35 0.0003056604    1.015    0.015
        65 -11.5537    103.2832    239.5727   1.3320508218e+02   1.4782201385e+01    0.4793538    0.3220223 -31.54  0.003182095    2.202    0.546
        66 -10.9383    117.2629    224.3648   1.2900642936e+02   1.5305054570e+01    0.2352198    0.1690406  28.21 0.0004106962    1.184    0.155
        67  -8.7307     73.4844    225.4832   1.3784272887e+02   2.0478662200e+01     0.110959     0.086749  45.66 0.0002578458    1.004    0.004
        68  -9.1905    155.9316    223.5084   1.2132221017e+02   1.0258277246e+01    0.1759304   0.09184626  33.82 0.0003541285    1.510    0.338
        69 -10.5127    160.7346    223.8303   1.2044537774e+02   9.5610118655e+00    0.2583908     0.161265  24.84 0.0009092494    1.318    0.241
        70  -9.4517    164.5513    220.4473   1.1926785068e+02   9.4936634644e+00    0.2282354    0.1393048  -6.28 0.0008110972    2.210    0.547
        71 -14.6193     27.3567    247.5117   1.4766635962e+02   2.1640999122e+01     1.537014    0.7026042  30.72   0.01018208    1.876    0.467
        72  -8.9887    220.0311    223.4993   1.0971758805e+02   1.7212900680e+00    0.1554687   0.08588371  28.89 -0.0005709103    1.446    0.309
        73 -10.3678    149.9700    222.4613   1.2233950901e+02   1.1215301484e+01     0.185485    0.1599032 -11.17 9.151755e-05    1.291    0.225
        74 -11.9419    142.0606    221.4223   1.2375501299e+02   1.2440090171e+01    0.3236497    0.2924876 -14.75  0.002438491    1.284    0.221
        75 -11.4366    138.2812    214.1825   1.2360183613e+02   1.4029381544e+01    0.5160154    0.2654417  24.01  0.001775463    1.956    0.489
        76 -14.3623     10.5322    208.5103   1.4939367294e+02   2.9602607804e+01     1.313528     1.068309 -73.41   0.01002609    1.451    0.311
        77  -9.2646     30.8516    218.5628   1.4582883705e+02   2.6058773035e+01    0.2507192   0.08828087  56.02   0.00110853    2.439    0.590
        78  -9.5675     89.1473    219.6491   1.3420853208e+02   1.9602352149e+01    0.2461287    0.1293858 -44.22  0.001358301    2.653    0.623
        79 -10.5990     88.2772    213.0518   1.3377826254e+02   2.0818479302e+01    0.2168531    0.1839897  79.65 0.0004157357    1.303    0.233
        80 -11.5823    132.0961    211.3868   1.2450492160e+02   1.5317200697e+01    0.4060476     0.270927  -3.20 0.0005764752    2.094    0.523
        81  -9.5258    152.1629    211.8908   1.2052003498e+02   1.2424377927e+01    0.1748428    0.1434991  39.04 0.0005848326    1.237    0.191
        82 -10.0008    108.7272    208.4389   1.2901030206e+02   1.8979813842e+01    0.2614538    0.1122674 -65.26  0.001202967    3.372    0.703
        83 -14.8931      5.3451    244.5292   1.5136367051e+02   2.3979306680e+01     1.049276      0.62322  73.43  0.008444327    1.455    0.313
        84 -11.8255    135.5330    241.1418   1.2726165053e+02   1.0554028941e+01    0.3344743    0.2242017  13.28   0.00159721    1.584    0.369
        85  -8.9975    197.8326    208.1464   1.1124426243e+02   6.4603634042e+00    0.1591414    0.1088439  11.21 0.0002978258    1.250    0.200
        86 -10.7888    174.7239    206.1146   1.1526343610e+02   1.0016576761e+01     0.321222     0.192976 -20.06  0.001215634    1.976    0.494
        87 -11.6279     92.9116    205.0395   1.3200613248e+02   2.1627915064e+01    0.5860773    0.2696074  39.58  0.001541291    1.764    0.433
        88 -11.7071    246.6842    205.1941   1.0246006926e+02   2.8988932251e-01    0.3303734    0.2190187   5.21  0.002318495    1.132    0.116
        89  -8.7628    183.3041    206.3084   1.1365376615e+02   8.7558651476e+00    0.1227585   0.07887197   6.82 0.0003080243    1.606    0.377
        90  -9.4858    125.8010    205.8083   1.2510564463e+02   1.7083641686e+01    0.1649146     0.123847  48.19 0.0004332012    1.319    0.242
        91  -9.4753    113.8612    205.1865   1.2754794969e+02   1.8835360193e+01    0.2968709    0.1556907 -71.26  0.001427182    3.123    0.680
        92 -10.3640    115.1472    200.3083   1.2668070139e+02   1.9487912540e+01    0.1906502    0.1765084  46.60 0.0002576018    1.130    0.115
        93 -10.3774    120.5440    199.6131   1.2543203222e+02   1.8852016674e+01    0.4895799    0.1950947  47.94  0.002005677    2.762    0.638
        94  -8.6591    163.3216    205.3187   1.1737370493e+02   1.1780843928e+01    0.1248878   0.08298943   5.97 0.0007043521    1.667    0.400
        95  -9.8863    149.7162    204.2762   1.1995498309e+02   1.3911905182e+01    0.2477242     0.176612  -6.77   0.00107814    1.662    0.398
        96 -10.9024    102.8011    202.8240   1.2963971830e+02   2.0728942226e+01    0.4765499    0.2302361  47.59   0.00243431    1.961    0.490
        97  -9.5363    100.4855    198.4272   1.2964246368e+02   2.1813347996e+01     0.165775    0.1421573  34.60 6.813798e-05    1.053    0.051
        98 -10.4803     98.9927    195.2916   1.2960931272e+02   2.2577643474e+01    0.4850256    0.2285557  29.56  0.002018191    2.001    0.500
        99  -9.0426     75.9047    203.3490   1.3550199053e+02   2.4030216227e+01    0.3294822    0.1767889  21.42  0.001729096    2.168    0.539
       100 -10.2643    166.9570    203.0656   1.1631948115e+02   1.1576468913e+01    0.1844674    0.1472592  21.11  0.000308626    1.011    0.011
       101 -10.5418    169.7952    200.1989   1.1532198387e+02   1.1572910561e+01     0.212883    0.1649038  15.79 0.0003337455    1.094    0.086
       102  -9.6409    133.1566    202.7487   1.2316634440e+02   1.6540129392e+01    0.2211363       0.1768  -2.68 0.0008303047    1.403    0.287
       103  -9.9725    134.1494    197.9128   1.2229897037e+02   1.7186166051e+01    0.1931611    0.1690861  76.98 0.0003029613    1.496    0.331
       104  -9.1441    224.9391    202.5475   1.0557393287e+02   3.4043307687e+00    0.1614823   0.09407394  30.25 0.0003524379    1.479    0.324
       105 -10.3916    197.3726    200.8643   1.1016589869e+02   7.4521166280e+00    0.2415995    0.1457223  25.72  0.001036172    1.380    0.275
       106  -8.7332    158.5579    199.5028   1.1746315005e+02   1.3339711163e+01    0.1247324    0.1020236  20.53  0.000116079    1.011    0.011
       107  -9.7842     82.7964    193.7200   1.3304753719e+02   2.4968176786e+01    0.5029297    0.2043826  28.08 0.0009561064    2.483    0.597
       108  -9.1975     86.2702    199.2785   1.3285236256e+02   2.3502232981e+01    0.1791942    0.1553467  53.09 0.0001784617    1.066    0.062
       109  -9.8815     85.9923    195.9855   1.3257169998e+02   2.4142814295e+01    0.2359239    0.1642392  25.00            0    1.443    0.307
       110  -9.2633    192.1019    197.8916   1.1065943744e+02   8.6069950736e+00    0.1686846    0.1441975  20.79 0.0002944071    1.222    0.182
       111 -11.9790     70.0200    194.7175   1.3600072969e+02   2.6331236733e+01    0.4238615     0.297204 -24.31  0.002341655    2.209    0.547
       112 -12.0334     74.8043    187.9085   1.3426002477e+02   2.7067993972e+01    0.3443707     0.263448  42.75  0.001062721    1.133    0.117
       113  -9.3371    107.3401    196.0081   1.2785116536e+02   2.1317536906e+01    0.1593765    0.1527054  54.57 0.0006659044    1.137    0.120
       114 -10.1660    159.5610    194.1444   1.1644001969e+02   1.4006307096e+01    0.2908863    0.1753966  42.04  0.001066464    1.587    0.370
       115 -11.0931    120.4698    192.9723   1.2457636345e+02   2.0006772589e+01    0.3323117    0.2819883 -10.82 0.0007882045    1.351    0.260
       116 -10.3049    112.9752    193.3116   1.2627086599e+02   2.1013825256e+01    0.3652908    0.2108426 -58.02  0.001327048    2.051    0.512
       117  -9.5869     38.3312    193.3755   1.4290029106e+02   2.9988262896e+01    0.2789434    0.1522079 -64.96  0.001666742    1.962    0.490
       118 -13.0629     13.9232    238.9907   1.4973665392e+02   2.4144049751e+01    0.3487346    0.2055377  48.47  0.001060302    1.205    0.170
       119 -10.4523    248.4922    193.9000   1.0026045463e+02   1.2534705279e+00    0.2418913    0.1153541  19.87  0.001317541    2.038    0.509
       120  -9.7080    172.8809    192.4378   1.1348072140e+02   1.2243250684e+01    0.2404515    0.1499443 -16.17   0.00110101    1.913    0.477
       121  -9.6215     47.3986    192.8281   1.4087054765e+02   2.9189244077e+01    0.1475313    0.1271839 -89.63 0.0007556792    1.197    0.164
       122 -10.3344     26.0262    192.7585   1.4553112455e+02   3.1247983725e+01    0.2106368    0.1382186  79.28  0.001414255    1.391    0.281
       123 -10.2882    191.4057    191.4037   1.0971082884e+02   9.5896818982e+00    0.2416534    0.1853011   8.11  0.000618145    1.105    0.095
       124 -10.5489     30.8054    190.1494   1.4434841663e+02   3.1326686766e+01    0.3742276    0.1768062  34.51  0.001416094    1.825    0.452
       125 -11.3210     28.2780    184.2236   1.4455974624e+02   3.2731435803e+01    0.5367773    0.3242206  52.52  0.003411327    1.389    0.280
       126  -9.4249    135.3263    190.1228   1.2093581054e+02   1.8314438903e+01    0.1623008     0.153597  15.99 0.0005118711    1.127    0.113
       127 -11.6349    249.5088    187.7576   9.9024817883e+01   1.7871243439e+00     0.306701    0.2075526  -3.76  0.002085071    1.150    0.130
       128  -9.5433     42.4174    189.2063   1.4171854407e+02   3.0402361475e+01    0.1571574    0.1387872  60.57 0.0005095988    1.084    0.078
       129  -9.8607    175.8893    186.9563   1.1197362132e+02   1.2593557108e+01    0.1923248    0.1580295  15.33 0.0003850718    1.005    0.005
       130  -9.3362     67.6553    186.6148   1.3577343863e+02   2.8176328019e+01    0.2141361    0.1079403  28.03 0.0005178972    1.955    0.488
       131  -9.3960    154.7225    184.9582   1.1598543005e+02   1.6201576065e+01    0.1744941    0.1554643   0.75 0.0005262091    1.115    0.104
       132 -10.4811    140.7789    183.6729   1.1877300596e+02   1.8583336379e+01    0.3639593    0.2181118  52.71  0.001021052    2.045    0.511
       133  -9.4491     81.7350    183.9997   1.3224289973e+02   2.6968009850e+01    0.2150951    0.1447518  36.66 0.0007713274    1.314    0.239
       134  -8.9747     88.4579    183.4852   1.3061926401e+02   2.6197855759e+01    0.4450445    0.1343712  33.89  0.001763297    2.844    0.648
       135 -10.1285     36.9179    184.1606   1.4260837457e+02   3.1944393730e+01    0.2541898    0.1428719  31.98 0.0008584122    1.658    0.397
       136  -8.9803    217.4723    183.4328   1.0355464304e+02   6.7626606215e+00     0.123399   0.09661973   7.70 8.099357e-05    1.030    0.030
       137 -10.9384    131.8905    180.3486   1.2022031261e+02   2.0535489701e+01    0.6010606    0.2652302  37.47  0.001844538    1.977    0.494
       138  -9.4167     54.2899    182.1169   1.3845633489e+02   3.0584467685e+01    0.2192431    0.1539024  17.47  0.001135063    1.678    0.404
       139  -9.8706     65.9781    181.9769   1.3571245362e+02   2.9295370871e+01    0.1760713    0.1545952  50.28            0    1.039    0.038
       140  -9.5230    104.1491    180.7758   1.2662481585e+02   2.4573405726e+01    0.1799117    0.1522266  48.77 0.0003641146    1.113    0.101
       141  -9.5500    175.7674    179.9837   1.1079794968e+02   1.3663738191e+01    0.1758952    0.1515187  -0.76 0.0003811561    1.102    0.093
       142  -8.7964    169.9966    180.0572   1.1198334056e+02   1.4571209096e+01    0.1513498    0.1307544   3.16 0.0003246053    1.082    0.076
       143 -10.2016    115.1010    177.1887   1.2357518301e+02   2.3662259972e+01    0.3485694     0.200591 -60.20  0.001758335    2.079    0.519
       144  -9.4459     48.1113    179.6015   1.3968732939e+02   3.1752545636e+01    0.1697447    0.1028311  33.79 0.0005195471    1.525    0.344
       145 -11.6570     83.5947    175.8385   1.3085643627e+02   2.8351304053e+01    0.3305656     0.304666  36.49 0.0007657511    1.088    0.081
       146 -10.2383     76.7057    175.3826   1.3246076602e+02   2.9328319920e+01    0.3766504    0.1895097  53.92  0.001430796    2.107    0.525
       147 -11.9004     69.9662    174.2575   1.3396404368e+02   3.0392253273e+01    0.4315821    0.3277629 -16.16  0.002515137    1.858    0.462
       148  -9.9361     29.9261    177.4975   1.4377026225e+02   3.3950488413e+01    0.2902124    0.1014837  27.68  0.000866095    2.717    0.632
       149  -9.1924    109.1591    176.2183   1.2482296059e+02   2.4724641143e+01    0.1744584    0.1409691  59.32 0.0003423805    1.319    0.242
       150  -9.5307    179.1886    175.1323   1.0924418714e+02   1.3857002519e+01    0.1622888    0.1503657  34.82 0.0002253857    1.325    0.245
       151 -10.6140     80.6682    163.6631   1.3004878233e+02   3.1253554059e+01    0.2447222    0.2249409  51.53  0.001580541    1.013    0.013
       152  -9.6979     88.9595    156.9992   1.2700767353e+02   3.1540869839e+01    0.2376117    0.1808704  35.66 0.0003621343    1.242    0.195
       153 -11.2325     95.7014    173.0746   1.2758901671e+02   2.7268741104e+01    0.2573501    0.2183501 -62.63 0.0003624881    1.289    0.224
       154 -12.6340     89.0299    167.1049   1.2841356475e+02   2.9407079849e+01    0.6797901    0.6313571  44.45  0.004429996    1.030    0.029
       155 -10.2592     89.5658    160.4993   1.2736010315e+02   3.0712503475e+01    0.2165633    0.1989646  -0.05 0.0006243601    1.223    0.182
       156 -12.3425    248.0630    172.1168   9.6396851596e+01   3.7427680001e+00    0.5133041    0.2959683  22.65  0.003061678    1.589    0.371
       157  -9.8581    169.0762    249.1541   1.2203861440e+02   5.3175258365e+00     0.164326    0.1110438  16.59  0.000374766    1.247    0.198
       158  -9.4629    199.8128    245.7949   1.1627584297e+02   1.8784869631e+00    0.1355046    0.1029276  27.40 0.0004124485    1.308    0.236
       159 -13.0329     62.2543    246.0314   1.4135536787e+02   1.8460393510e+01     1.539746    0.5445779  37.49  0.008833759    1.970    0.492
       160  -9.7905     31.5096    171.5492   1.4300099717e+02   3.5045251630e+01    0.1555699    0.1106785  17.31 0.0006448455    1.670    0.401
       161 -10.5537     28.5750    170.1874   1.4360817991e+02   3.5595594308e+01    0.1871498    0.1666253  51.84 0.0006557466    1.137    0.121
       162 -11.4775      2.0734    166.6641   1.4965418151e+02   3.8399762690e+01    0.6071433    0.1483306 -88.89  0.002337514    4.147    0.759
       163  -9.3980    154.9107    172.4999   1.1384181916e+02   1.8239988072e+01    0.1913249     0.117613  35.30 0.0002962659    1.454    0.312
       164  -9.1219    183.4938    171.4746   1.0771196002e+02   1.3715853084e+01    0.1328392    0.1103771  11.22 7.138294e-05    1.005    0.005
       165  -9.1069    100.6228    170.7673   1.2608193724e+02   2.7032068686e+01    0.1661432    0.1248838 -75.46 0.0009363139    1.572    0.364
       166  -9.1279    167.3391    170.2227   1.1078271013e+02   1.6572709258e+01    0.1694534    0.1226771 -45.41 0.0009360696    1.628    0.386
       167 -10.9781     43.8098    168.8093   1.3981640653e+02   3.4446794403e+01     0.316615     0.284579 -49.25  0.001522591    1.331    0.249
       168  -9.9318     47.6870    168.3224   1.3882158124e+02   3.4153374294e+01    0.2342723    0.1543252  74.34 0.0005905235    1.519    0.342
       169 -10.8563     69.0959    167.1648   1.3338615327e+02   3.1980746975e+01    0.2173941    0.1905155  81.48            0    1.119    0.107
       170  -9.6072    107.2903    168.2087   1.2409513020e+02   2.6565862170e+01    0.2124508    0.1640614  26.46 0.0004242009    1.260    0.206
       171  -9.4100     58.6161    167.4974   1.3603548454e+02   3.3142105067e+01    0.1841517    0.1139344 -71.42 0.0005689046    1.644    0.392
       172  -9.0327    175.6826    166.3241   1.0832415113e+02   1.5811663515e+01    0.1212735    0.1080222  71.34 0.0002183672    1.670    0.401
       173  -9.2851    136.2140    165.6274   1.1682128246e+02   2.2523624526e+01     0.199802    0.1529828  47.02 0.0005051002    1.339    0.253
       174  -9.9640     47.1137    163.3822   1.3851213420e+02   3.5275564099e+01    0.2258337    0.1713246  72.00 0.0003939466    1.234    0.190
       175  -9.9086     37.0524    162.7911   1.4098650187e+02   3.6403304467e+01    0.1881475    0.1351175  59.38 0.0005510879    1.250    0.200
       176  -9.7666    123.2654    160.7549   1.1903259607e+02   2.5556670784e+01    0.2221428    0.1936985   8.73 0.0002333754    1.177    0.151
       177 -11.2767     34.9064    159.4714   1.4125552500e+02   3.7329722783e+01    0.4970013    0.3129891  -8.83  0.002575424    2.621    0.618
       178 -12.1998     23.9939    149.7390   1.4330534392e+02   4.0447902097e+01    0.3318619    0.2254763 -60.53   0.00121177    1.515    0.340
       179 -13.1942     24.7514    156.2250   1.4358426508e+02   3.8940542385e+01    0.7826149      0.41043  20.09  0.004190401    2.195    0.545
       180 -10.2937     32.9345    153.9089   1.4130214396e+02   3.8741837309e+01    0.2165826    0.1925638 -35.15 -0.0009232552    1.394    0.282
       181 -10.9510     96.3717    158.4336   1.2532411636e+02   3.0174573334e+01    0.3710378    0.2269592 -66.47  0.001419858    1.871    0.465
       182 -11.0547     73.9204    157.6057   1.3098849683e+02   3.3431601927e+01    0.3888487    0.3285046 -81.80  0.001967591    1.206    0.171
       183 -10.0311     79.0612    158.9431   1.2983422211e+02   3.2473682573e+01    0.1939408    0.1746684  57.62 0.0003917604    1.037    0.035
       184  -9.2591     52.2964    158.4105   1.3669929958e+02   3.5812845550e+01     0.172782    0.1039091  42.00  0.000938301    1.524    0.344
       185  -9.7414     47.6033    157.8323   1.3785467391e+02   3.6439676076e+01    0.2211356    0.1658574  36.33 0.0008189516    1.301    0.232
       186  -9.8076    134.5711    155.7692   1.1543696390e+02   2.4653212851e+01    0.1981726    0.1374292 -44.37 0.0004159563    1.539    0.350
       187 -10.1453    132.1714    152.3056   1.1536439221e+02   2.5729289125e+01    0.3056647    0.2467311  -4.12 0.0003303443    1.388    0.280
       188 -10.7673    133.2571    140.2956   1.1273530304e+02   2.7907512931e+01    0.3839642    0.3177757 -33.73  0.001571389    1.248    0.199
       189  -9.2823    228.4344    155.1258   9.6255009371e+01   8.7531257040e+00    0.1878798    0.1086239 -26.24 0.0005884845    1.566    0.361
       190 -10.4691    134.0000    145.0065   1.1350653661e+02   2.6842749640e+01    0.5299619    0.1932495 -49.49  0.001928653    2.995    0.666
       191  -9.9217     61.8097    152.5135   1.3353570573e+02   3.6045260640e+01    0.3270099    0.1964013  89.43   0.00122357    1.961    0.490
       192 -10.6818    113.6285    151.4612   1.1979301821e+02   2.8976471972e+01    0.3608118    0.3166754 -16.09  0.002101025    1.250    0.200
       193  -9.6827     96.2905    152.3416   1.2439333219e+02   3.1477030642e+01    0.2376598    0.1905107  -0.32  0.001306707    1.528    0.345
       194 -10.7449    101.8932    151.1581   1.2274538572e+02   3.0884474879e+01      0.34629    0.2868604  52.31  0.001834524    1.207    0.172
       195 -10.1244    104.4038    145.4755   1.2111221711e+02   3.1704554494e+01    0.4050296    0.2278794 -57.95  0.001870022    1.917    0.478
       196  -8.6538    148.6931    152.6423   1.1154205944e+02   2.2806388036e+01    0.1454134    0.1035859  -2.86  9.58451e-05    1.727    0.421
       197 -10.8761     90.4646    150.0412   1.2555633425e+02   3.2826241560e+01    0.2331933    0.2156903  30.60 0.0003762119    1.082    0.075
       198 -11.2623     55.6412    150.2233   1.3491546287e+02   3.7269576836e+01    0.5588441    0.3729783 -38.04  0.002994286    1.905    0.475
       199  -9.5689     53.1719    146.3886   1.3513757757e+02   3.8414600422e+01    0.2133248    0.1774059  42.22 0.0003674931    1.179    0.152
       200 -13.0141     67.4161    144.3652   1.3095481876e+02   3.7203452517e+01    0.7526743    0.4970244  63.36   0.00391637    1.665    0.400
       201 -12.3283     72.9055    137.9811   1.2848402505e+02   3.7960246987e+01    0.8143747    0.5058175  49.79   0.00153023    1.642    0.391
       202 -11.4607     35.9063    149.2278   1.4011003115e+02   3.9521298017e+01     0.326642    0.1389442  37.15  0.001553513    2.126    0.530
       203 -12.4968     31.8762    141.3327   1.4047768986e+02   4.1694042013e+01    0.4441221    0.2837669 -55.79   0.00169433    1.617    0.381
       204 -12.0841     14.0873    154.0321   1.4613929811e+02   4.0263785387e+01     0.304346     0.252573  55.93  0.002156455    1.124    0.110
       205 -12.1840      8.3693    196.7054   1.4941307215e+02   3.1956563051e+01    0.5171493    0.3076138  76.96  0.000872087    1.451    0.311
       206 -11.8702      9.3175    141.5548   1.4662900156e+02   4.3388815755e+01    0.2719671     0.223889  26.41  0.001461554    1.386    0.279
       207 -11.8794      1.9062    144.5287   1.4873053984e+02   4.3193340355e+01    0.4819238    0.1570479 -80.23  0.002196062    2.616    0.618
       208 -12.5329      3.3365    138.8772   1.4806947631e+02   4.4376383676e+01    0.7426637    0.2732315  66.20  0.003332198    2.750    0.636
       209 -11.3574     37.4456    143.9586   1.3919322802e+02   4.0579722608e+01    0.2052476    0.1756462 -69.70  0.000671503    1.170    0.146
       210 -11.1581     42.6620    141.1216   1.3745267904e+02   4.0729489020e+01    0.4116256     0.110458  47.23  0.001426875    3.887    0.743
       211 -12.3667     42.3983    237.3564   1.4453842346e+02   2.1821272660e+01    0.5107974    0.2616016  59.72  0.001457037    1.703    0.413
       212  -8.7381     53.6728    140.2937   1.3425849824e+02   3.9762007508e+01    0.1370328   0.08868255  61.94 0.0007020927    1.624    0.384
       213 -10.5188     60.3447    137.9288   1.3205257151e+02   3.9545272444e+01     0.264353    0.2566135  38.30  0.001706442    1.113    0.101
       214 -11.0053     58.8073    133.4396   1.3186959533e+02   4.0776432926e+01    0.2992083    0.1734411 -61.74 0.0006519533    1.645    0.392
       215 -11.3742     47.8009    138.4684   1.3569978603e+02   4.0821361641e+01    0.4672849    0.2184588  19.44  0.002050418    2.652    0.623
       216 -13.3471     20.0934    232.5633   1.4842624237e+02   2.4654784604e+01    0.8359923    0.4744231 -72.87  0.005272876    1.991    0.498
       217  -9.4715    118.9971    138.4963   1.1598132163e+02   3.0775863953e+01     0.206362    0.1345751  37.25 0.0003526872    1.467    0.318
       218 -10.7942     13.3999    137.3844   1.4525660521e+02   4.4063728643e+01    0.2298646   0.09504163 -73.00  0.001115274    2.085    0.520
       219 -10.7250    112.2900    136.1897   1.1728374234e+02   3.2405546145e+01    0.3848555    0.2989632  18.45  0.001165123    1.397    0.284
       220  -9.5890    133.7539    135.4060   1.1158857407e+02   2.8795495465e+01    0.1984756    0.1323053  28.27 0.0005057711    1.537    0.349
       221 -12.4375     46.0062    131.5866   1.3537902495e+02   4.2627371055e+01     0.730143    0.4131904  53.59  0.003142178    1.840    0.456
       222 -13.2031     45.6029    228.8478   1.4349959561e+02   2.2891058074e+01    0.5916222    0.3423454  70.00  0.001605271    1.697    0.411
       223 -11.3682      2.0000    120.5224   1.4738533822e+02   4.8694367278e+01    0.3213291    0.1251972 -78.05  0.001528307    2.122    0.529
       224 -12.5500    248.3241    101.3364   8.1543949949e+01   1.2442224372e+01    0.8156416     0.443613 -25.70  0.004257936    1.543    0.352
       225 -11.8828     67.1822    127.9377   1.2856180482e+02   4.1045318098e+01    0.5185364    0.4059714  51.86   0.00224494    1.287    0.223
       226  -9.1524    106.3332    129.6813   1.1758902741e+02   3.4817343191e+01    0.1468804    0.1114258  71.19 0.0007048539    1.695    0.410
       227  -9.7891    117.5352    128.9554   1.1439671917e+02   3.3044478935e+01    0.2074317    0.1188893 -27.56 0.0008089629    2.495    0.599
       228 -12.2773     31.5458    126.8636   1.3912539692e+02   4.5125517969e+01    0.4568289    0.2419191  35.52  0.002351567    1.871    0.466
       229 -10.4643    209.7654    125.8246   9.3160229597e+01   1.6057493565e+01    0.2808909    0.2126756 -15.98 0.0004808373    1.190    0.160
       230  -8.5855     93.4140    127.5113   1.2078937092e+02   3.7399232280e+01    0.1372736    0.1359993 -81.02 7.145171e-05    1.015    0.015
       231  -9.6647     86.0240    126.5613   1.2274676000e+02   3.8748768177e+01     0.310453    0.2212951  -1.30  0.001472179    1.966    0.491
       232 -11.5728     36.6830    124.6972   1.3732962306e+02   4.5185150778e+01    0.4303019    0.2530279  71.50  0.002148574    1.890    0.471
       233 -10.8070     38.3165    121.7129   1.3646324604e+02   4.5752069669e+01    0.3966105    0.1567599  50.96  0.001591269    2.888    0.654
       234 -12.0845      9.6741    126.7484   1.4556214302e+02   4.6784036194e+01     0.294284    0.2205918 -11.48  0.001846661    1.767    0.434
       235  -9.6580     50.2324    122.8245   1.3292642500e+02   4.4275045381e+01    0.2351865    0.1170443  63.65 0.0009439534    2.767    0.639
       236 -12.7457     19.2835    121.3707   1.4227450607e+02   4.7412818127e+01    0.4929976    0.3112037  -4.62   0.00265949    2.207    0.547
       237  -9.8775    238.7926    121.7579   8.7502936387e+01   1.1451808611e+01    0.2567636    0.1480173  -7.24  0.001257134    1.922    0.480
       238 -12.7305    248.2907    113.9731   8.4397253967e+01   1.0846039499e+01      1.14311    0.5263978 -19.24  0.005232061    2.157    0.536
       239 -11.3273    168.2648    113.4858   9.8336119854e+01   2.6226576940e+01     0.357208    0.3188542 -72.69 0.0008384316    1.472    0.321
       240  -8.7603     81.9941    114.2617   1.2153287663e+02   4.2217746482e+01    0.1702551    0.1229708  34.10 0.0002074799    1.412    0.292
       241 -11.9162    248.1504    142.5091   9.0545256715e+01   7.2814672580e+00    0.6482638    0.3933191 -19.43  0.003479588    1.391    0.281
       242 -10.3421     69.9724    111.3023   1.2473124552e+02   4.4644144376e+01    0.1919508    0.1761362  36.85  0.000301437    1.131    0.116
       243 -11.5386     57.0196    110.5954   1.2880903982e+02   4.6469587681e+01     0.462874     0.260594  11.29  0.001999615    2.514    0.602
       244  -9.2307    114.4420    107.1801   1.1020401814e+02   3.8301694305e+01    0.1981286    0.1443564 -59.29 0.0003947925    1.548    0.354
       245  -8.8337     59.2604    117.2772   1.2923772340e+02   4.4579182129e+01    0.1304307   0.09967557 -36.17 0.0006857328    1.471    0.320
       246 -10.1693    134.6610    105.5248   1.0427804925e+02   3.4669404325e+01    0.2781731    0.1392881 -42.13 0.0009177281    1.993    0.498
       247 -10.4191    106.0598    102.9771   1.1157925236e+02   4.0783523105e+01    0.2142157    0.2082431 -12.10  0.001191421    1.003    0.003
       248 -12.2606     31.3948    117.5288   1.3811531851e+02   4.7388444847e+01    0.4364071     0.321329 -47.77  0.002071454    1.431    0.301
       249  -9.2764    139.2356    173.4444   1.1746357168e+02   2.0613806165e+01    0.1842191    0.1134399  43.80 0.0004061614    1.567    0.362
       250  -8.5922    136.7432     94.3328   1.0069645738e+02   3.6467367533e+01     0.147092    0.1214793 -71.06 0.0003545466    1.566    0.362
       251  -8.4007     72.2505     90.3056   1.1932467596e+02   4.9357922163e+01    0.1431452    0.1052888 -30.26 0.0001446851    1.505    0.336
       252 -10.5877     47.3319     89.9451   1.2827867697e+02   5.2652486320e+01    0.3021857    0.2021566  19.51  0.000848052    1.711    0.416
       253  -8.9939     23.6832     90.6988   1.3722332211e+02   5.4613188206e+01    0.1352311   0.08563516 -43.00 0.0002322403    1.618    0.382
       254  -9.1992     16.5771     90.5191   1.3982652119e+02   5.5139794812e+01    0.1287939    0.1089711 -79.85 3.713515e-05    1.038    0.036
       255  -9.9396      2.0000     89.0031   1.4498700907e+02   5.6282142933e+01    0.2137032   0.05936952 -78.26 0.0007140327    2.963    0.662
       256 -12.3514    249.0769    240.3278   1.0752656607e+02  -3.3706320814e+00    0.4381259    0.2797084  -7.54   0.00339636    1.310    0.237
       257 -11.1405    136.0607    227.4896   1.2565247711e+02   1.2373691445e+01    0.3196811    0.2094362 -30.28   0.00203349    1.972    0.493
