#   1 NUMBER                 Running object number                                     
#   2 MAG_AUTO               Kron-like elliptical aperture magnitude                    [mag]
#   3 X_IMAGE                Object position along x                                    [pixel]
#   4 Y_IMAGE                Object position along y                                    [pixel]
#   5 X_WORLD                Barycenter position along world x axis                     [deg]
#   6 Y_WORLD                Barycenter position along world y axis                     [deg]
#   7 A_WORLD                Profile RMS along major axis (world units)                 [deg]
#   8 B_WORLD                Profile RMS along minor axis (world units)                 [deg]
#   9 THETA_WORLD            Position angle (CCW/world-x)                               [deg]
#  10 FWHM_WORLD             FWHM assuming a gaussian core                              [deg]
#  11 ELONGATION             A_IMAGE/B_IMAGE                                           
#  12 ELLIPTICITY            1 - B_IMAGE/A_IMAGE                                       
         1 -14.2858    173.8037    105.9542   2.8456441566e+01   2.5881220433e+01     5.063691     1.400139 -35.35   0.01425516    4.628    0.784
         2 -15.7616    209.4914    110.3253   2.3780436729e+01   1.8370106149e+01      4.04165     3.467598  -6.22   0.02356431    1.341    0.254
         3 -16.0439    243.3571     65.8964   1.0555613174e+01   1.8963915141e+01     6.180244     2.230367 -53.58   0.02759868    2.845    0.649
         4 -16.4618    240.0879    118.5144   2.1512916612e+01   1.2220063089e+01     3.442098     2.717264  15.61   0.02362877    1.607    0.378
         5 -12.1752    233.4854      6.5059   3.5856262771e+02   2.7807166291e+01    0.6780272    0.2622736 -42.90  0.003711232    1.746    0.427
         6  -9.6836    250.2441      3.9259   3.5743079739e+02   2.5010375033e+01    0.1755432   0.09949348 -52.75 0.0006173591    1.212    0.175
         7 -10.1168      8.7467    171.9834   8.6516793524e+01   3.7039134224e+01    0.2739091    0.1771292  88.33 0.0008485398    1.459    0.315
         8 -11.8832    236.1165    245.0743   4.2957904013e+01  -3.6467847018e+00    0.3611092    0.2164834  25.43  0.002786055    1.634    0.388
         9 -11.7922    247.1400    235.3190   4.0030759014e+01  -3.5696309886e+00    0.5012214     0.278273 -37.13  0.003642503    1.955    0.488
        10 -11.3343    249.5239    249.1472   4.1558472300e+01  -5.2022395332e+00    0.5804438    0.2136138 -38.10  0.003582007    2.850    0.649
        11 -11.4304    243.8933    248.2794   4.2246676973e+01  -4.6489420574e+00    0.4614371    0.2541138 -15.54  0.003511765    1.454    0.312
        12  -8.2433    152.4258    213.3783   5.3268856264e+01   9.8032815784e+00    0.1220492    0.1018398  17.70  9.25701e-05    1.035    0.034
        13  -8.9784     94.2242    213.1330   6.6408550534e+01   1.7692863690e+01    0.1779484    0.1578994  12.76 0.0003471565    1.175    0.149
        14 -10.3398    248.0456    209.9886   3.6254061015e+01  -8.2405744900e-01    0.1968711    0.1796347  13.40 0.0006834004    1.668    0.400
        15  -8.5041    224.6802    207.5141   3.9315987506e+01   1.8689239046e+00    0.1298364   0.09515815  32.58 0.0008180517    1.626    0.385
        16 -10.8725    204.4609    201.6707   4.1681734173e+01   4.9653583657e+00    0.5261425    0.4011398 -60.58  0.003298192    2.299    0.565
        17 -10.4447    248.8621    203.3874   3.5140138313e+01  -1.2788584844e-01    0.2187757    0.1895026  12.96  0.001124383    1.488    0.328
        18 -11.6427    193.0986    195.2095   4.2623868826e+01   7.3269032157e+00    0.8414895    0.4660788 -60.46   0.00344831    4.591    0.782
        19 -12.8809    157.7130    107.6720   3.1951381843e+01   2.8894842379e+01     2.018407    0.7917172 -47.81    0.0073505    2.506    0.601
        20 -10.4464    217.3865    247.0219   4.6093116981e+01  -2.1584129741e+00    0.2093414   0.08392464 -36.80  0.001258175    2.459    0.593
        21 -12.7934    135.7106    116.4405   3.9012688560e+01   3.1737451954e+01      2.92973    0.6882759 -49.29  0.007728214    4.521    0.779
        22 -14.0654    216.3188    182.6901   3.6632815195e+01   6.2034711281e+00     4.636246     2.440519   5.80   0.01564123    3.195    0.687
        23 -14.1603    152.3033    148.4602   4.2257268081e+01   2.1814846268e+01     3.868289       2.3359  30.99   0.01793223    1.823    0.451
        24 -12.6962    202.2958    165.8031   3.5964115823e+01   1.0618170188e+01     1.553175    0.6874856 -24.71  0.006312178    3.249    0.692
        25 -11.1405    224.8752    246.6479   4.4870144376e+01  -2.8105227170e+00    0.2563569    0.1476554  40.32  0.001663648    2.752    0.637
        26  -8.9091    112.6667    169.6587   5.5805386311e+01   2.4179481573e+01    0.2632706    0.2270667  58.69  0.001447819    1.200    0.167
        27  -8.4677     49.0000    164.3679   7.3532189614e+01   3.4902941936e+01    0.3079128    0.0815846 -71.95 0.0009327205    3.918    0.745
        28 -13.2244    194.1864    110.2230   2.6027854141e+01   2.1153553404e+01     1.312489    0.5179451  52.39  0.005452713    2.884    0.653
        29 -13.7007    192.5950    167.4853   3.7946180513e+01   1.1758820447e+01     1.273914    0.8268989  39.82  0.002466754    1.661    0.398
        30 -10.0302    181.0837    148.6389   3.6450223685e+01   1.6779227547e+01     0.279914    0.2327848 -52.06 0.0008207436    1.295    0.228
        31 -12.5180    190.2882    152.6767   3.5571054459e+01   1.4578305105e+01    0.7012975    0.5012562  35.32  0.004074192    1.489    0.328
        32 -13.7164    247.5780     91.3867   1.5354504170e+01   1.4868010187e+01    0.7129428    0.2897464 -39.12 0.0002826612    1.821    0.451
        33  -8.6504     38.4674    192.1304   7.9066285508e+01   2.9239881783e+01     0.177349    0.1290674 -82.29 0.0004379559    1.447    0.309
        34 -10.7377    191.9429    144.2407   3.3619050467e+01   1.5744443340e+01    0.3328265    0.2268639 -32.06 0.0005380664    1.361    0.265
        35 -13.0738    223.1373    165.0640   3.2521831919e+01   7.8628648460e+00     1.082375    0.7999376  19.65 0.0002981792    1.437    0.304
        36 -11.8371     67.8704    143.2982   6.4651776497e+01   3.7845269735e+01    0.9302158    0.6168562  77.16  0.003012202    1.749    0.428
        37 -10.5304     22.8821    132.2138   7.9215513916e+01   4.6419213413e+01    0.2551131    0.2297079  55.57 0.0002439892    1.063    0.059
        38 -10.4994    150.5631    131.0794   3.8960394962e+01   2.5658779351e+01    0.3013387    0.2305436 -74.01 0.0007354839    1.639    0.390
        39 -12.5101     66.5006    112.3051   5.9393517544e+01   4.6358065711e+01     1.783664     1.341765 -70.58  0.008280256    1.339    0.253
        40 -12.6267     54.2937    117.3420   6.5067241406e+01   4.6878322205e+01    0.8321742    0.6831824 -61.36  0.001483507    1.234    0.189
        41 -13.5582     46.2274    114.6532   6.7769000511e+01   4.8733546263e+01     1.283959      1.09892  -6.01  0.004075808    1.412    0.292
        42 -10.1270    153.5060    126.0255   3.7180828434e+01   2.6107767880e+01    0.2241477    0.1955971  46.32 0.0008888126    1.186    0.157
        43 -13.5081      6.8192    116.4538   8.4196318596e+01   5.2038089770e+01     1.127436    0.8473957 -86.93  0.003687983    1.214    0.176
        44 -10.7642    115.7088    121.9644   4.5545580099e+01   3.4631329010e+01    0.5715378    0.2819638 -53.24  0.001500285    2.071    0.517
        45 -12.6099     22.7253    121.1337   7.8163219325e+01   4.9520564821e+01      1.67876    0.5169462 -63.58  0.005786101    2.845    0.648
        46 -12.2120     22.0085    108.0083   7.6944965934e+01   5.3264677319e+01    0.7174474    0.5427546 -35.26  0.003620199    1.522    0.343
        47  -8.1157    240.2799    189.6415   3.4183663904e+01   2.4564381879e+00   0.09571072   0.07780439 -43.42 0.0007013435    1.665    0.399
        48 -10.6741    148.0069    111.8976   3.5050851683e+01   3.0101070592e+01    0.5034318    0.2798449  41.92  0.001563325    1.961    0.490
        49  -9.9671    142.4895    112.5114   3.6447074622e+01   3.1141473966e+01    0.2830619    0.2213012  50.50 0.0008820884    1.308    0.236
        50  -8.4587     92.5426    113.4990   5.0512109907e+01   4.1317238408e+01    0.1602525    0.1495287  76.44 0.0001707702    1.022    0.022
        51  -9.5251    125.8300    124.6169   4.3439700292e+01   3.1972561804e+01      0.36203    0.2062438 -46.23 0.0008467055    1.776    0.437
        52 -10.8088    126.9392    103.7918   3.8007784293e+01   3.6369292579e+01    0.6549135    0.3235011 -43.43  0.002097991    2.064    0.516
        53  -8.2241    108.9752    106.2084   4.3584657156e+01   3.9723560150e+01    0.2061426    0.1246464  45.70 0.0004572577    1.634    0.388
        54 -10.3055    142.0666    103.9390   3.4384442531e+01   3.3010359610e+01    0.3395097     0.270572 -78.06 0.0008900588    1.411    0.291
        55  -8.8162    120.9566    121.9490   4.4106889582e+01   3.3568497112e+01    0.2399961    0.1851316  89.47 0.0005645005    1.595    0.373
        56 -14.3507    240.0531     94.3813   1.6716542663e+01   1.5635739130e+01     1.034508    0.5834794 -43.67  0.004150869    1.403    0.287
        57 -10.8517    200.9362     94.5309   2.1472379184e+01   2.2467410971e+01    0.4584573    0.2070071 -44.56  0.002074271    1.910    0.476
        58 -10.9427    224.0745    214.2053   4.0424003610e+01   1.0863108209e+00    0.2608628    0.2052736  43.31  0.001070661    2.015    0.504
        59 -12.4156     37.4111    115.3129   7.1452519267e+01   4.9641250692e+01     0.592115    0.4726036  39.48 0.0009929268    1.224    0.183
        60  -9.0229    152.9682    186.0955   4.8991216603e+01   1.4470578355e+01    0.3285718    0.1507928  40.92   0.00102603    2.149    0.535
        61  -9.6508      5.5244    170.4546   8.7422647230e+01   3.7677970122e+01    0.1907125    0.1596038 -42.54 0.0006015748    1.515    0.340
        62  -8.3654    113.7795     80.9948   3.5034996977e+01   4.4294502332e+01    0.2009463    0.1270434 -46.50 0.0004235799    1.586    0.369
        63  -8.3334    110.8605     78.5689   3.5099160754e+01   4.5495272801e+01    0.1994449    0.1458626  68.40  0.000436609    1.440    0.305
        64  -8.3493    124.9831     76.0648   3.0582153363e+01   4.2627598850e+01    0.1885171    0.1686827 -62.29 0.0005612827    1.080    0.074
        65  -9.1079    138.6017     74.5357   2.6986724191e+01   3.9628548156e+01    0.2844467    0.1446169  70.21  0.001031544    2.541    0.607
        66 -10.6403    210.8189     70.1819   1.4614453926e+01   2.4291814752e+01    0.3392444    0.2176066 -34.89 0.0008785471    1.406    0.289
        67  -9.4118    224.8688    228.7578   4.2420407557e+01  -7.6715394322e-01    0.1670652     0.124261  27.44  0.000970542    1.567    0.362
        68 -11.0283    205.1998     64.4048   1.3875822910e+01   2.6251525045e+01    0.6174508    0.1837632 -34.68  0.002319191    2.932    0.659
        69 -10.5904    172.9624     63.7866   1.7802167878e+01   3.3329984750e+01    0.4531554     0.196738 -36.89   0.00118596    2.130    0.531
        70  -9.6059    163.8357     61.0427   1.8412097825e+01   3.5899107072e+01    0.3165227    0.2025196  58.48 0.0009649741    1.644    0.392
        71 -11.2943    168.8977     58.3590   1.6899354972e+01   3.5127587489e+01    0.4574373    0.3807769 -56.14  0.001822592    1.065    0.061
        72  -8.6964    151.5738     59.8350   2.0071090271e+01   3.9053202646e+01    0.2130805    0.1222397 -50.06 0.0004665139    1.646    0.392
        73  -9.0995    235.9890    183.9789   3.3873998021e+01   3.6699352829e+00    0.2311216    0.1329993 -51.00  0.001286621    2.709    0.631
        74 -11.0167    175.6253     52.7250   1.4421215969e+01   3.4410733764e+01     0.397074    0.2942375 -51.01  0.001588912    1.176    0.150
        75 -10.8559    186.6008     47.4009   1.1677883418e+01   3.2666587651e+01    0.3202358    0.2978916  46.43 0.0009839145    1.394    0.283
        76 -10.2978    160.0284     50.7205   1.6008245882e+01   3.8426025972e+01    0.2080516    0.1802022 -85.88 0.0006038021    1.082    0.076
        77 -10.8729    139.6078     43.5838   1.7039114462e+01   4.4620754494e+01    0.9097508    0.4130307 -16.43   0.00240425    6.212    0.839
        78 -10.7284    141.8181     38.4042   1.4965502025e+01   4.4808972940e+01    0.3539986    0.2609142  -5.45 0.0009496229    2.030    0.507
        79  -9.1551    178.0000     44.9522   1.2000363128e+01   3.4978198008e+01    0.2151074   0.07132845 -33.31 0.0004044347    2.811    0.644
        80 -10.9073    181.9868     50.4876   1.3026116019e+01   3.3273662441e+01    0.3389361    0.2379059  80.81  0.001416581    1.456    0.313
        81  -9.7574    101.9107     42.6502   2.4830656192e+01   5.4518963505e+01    0.2598794    0.2172928 -41.46 0.0003944549    1.269    0.212
        82 -10.6854    147.5855     41.3765   1.5025801998e+01   4.2909465607e+01     0.303886    0.2203475 -64.88  0.001193689    1.293    0.227
        83  -9.3293    178.1710     39.7920   1.0564792263e+01   3.5648695064e+01    0.2135015    0.1565775 -62.05 0.0005660582    1.176    0.150
        84  -9.1186    190.1115     36.6016   8.4879909829e+00   3.3332976210e+01    0.2309852     0.146769 -48.62 0.0005452773    1.303    0.232
        85  -9.9625    158.6738     32.2500   1.0649921663e+01   4.1371662046e+01    0.3293252    0.2176115  23.62  0.001442281    2.760    0.638
        86 -10.0604    146.2927     28.3062   1.0991037254e+01   4.5018831362e+01    0.2311751    0.2101516  60.24  0.000879764    1.278    0.218
        87  -9.8096    230.2168    182.6835   3.4501651015e+01   4.5131790452e+00     0.209388    0.1760095  31.29  0.001058341    1.489    0.329
        88  -9.4023    174.0102    182.9931   4.4156995048e+01   1.1901930056e+01    0.1557143    0.1327103 -22.62 0.0004503459    1.113    0.102
        89  -8.6569    169.4142    183.2983   4.5116810327e+01   1.2521546719e+01    0.1640775    0.1205715 -51.85 0.0005726668    1.592    0.372
        90  -8.3192    112.2224     17.9431   1.2455024467e+01   5.5251026243e+01    0.1730608    0.1157228 -33.67 0.0003546075    1.584    0.369
        91  -9.4082    193.1352    223.7309   4.6957072978e+01   3.2338622466e+00    0.2063299    0.1524095  24.44 0.0008544229    1.292    0.226
        92 -10.6877    245.3925    220.3658   3.8160689447e+01  -1.7653535262e+00     0.197596    0.1492513  18.93 0.0005823249    1.449    0.310
        93  -8.1785     92.5456     13.5418   1.4449538000e+01   6.0967669270e+01    0.1431484    0.1258421  85.85 5.843322e-05    1.033    0.032
