#   1 NUMBER                 Running object number                                     
#   2 MAG_AUTO               Kron-like elliptical aperture magnitude                    [mag]
#   3 X_IMAGE                Object position along x                                    [pixel]
#   4 Y_IMAGE                Object position along y                                    [pixel]
#   5 X_WORLD                Barycenter position along world x axis                     [deg]
#   6 Y_WORLD                Barycenter position along world y axis                     [deg]
#   7 A_WORLD                Profile RMS along major axis (world units)                 [deg]
#   8 B_WORLD                Profile RMS along minor axis (world units)                 [deg]
#   9 THETA_WORLD            Position angle (CCW/world-x)                               [deg]
#  10 FWHM_WORLD             FWHM assuming a gaussian core                              [deg]
#  11 ELONGATION             A_IMAGE/B_IMAGE                                           
#  12 ELLIPTICITY            1 - B_IMAGE/A_IMAGE                                       
         1 -11.9278     56.1558     32.7893   7.4171657962e+01   6.3449479317e+01    0.5575274    0.3808581 -52.52  0.002961761    2.151    0.535
         2 -10.6552     33.3075      1.9894   6.9563483622e+01   7.0838279832e+01     0.249222    0.1870051  31.20  0.001211975    1.364    0.267
         3 -11.8994     22.3058     26.0692   8.6805401824e+01   6.8846788587e+01    0.7408058    0.5524204 -48.23  0.004822959    1.596    0.373
         4 -11.6564     16.8569      7.8280   8.1203214712e+01   7.2148757677e+01    0.5448688    0.2226174 -34.63 0.0005456852    2.142    0.533
         5 -12.0219     12.7151      1.8265   8.0396090763e+01   7.3380149427e+01    0.3383207     0.207441   5.72 0.0009039341    1.448    0.309
         6 -11.2664     26.5258      2.8511   7.3388844650e+01   7.1654849371e+01    0.3095511     0.203124  32.24  0.001318961    1.532    0.347
         7 -11.4934     21.1590      3.0887   7.6343605276e+01   7.2287413618e+01    0.3190871     0.210834 -12.93  0.001762289    1.250    0.200
         8 -11.8282     19.9381     15.7663   8.3427451038e+01   7.0694975050e+01    0.4814387    0.3547891  29.24  0.003273251    1.604    0.376
         9 -12.0089     23.5738      8.0286   7.7665144571e+01   7.1374130573e+01    0.4117656    0.2526366 -23.45 0.0003455025    1.404    0.288
        10 -11.2025     69.6187     26.4076   6.6293638836e+01   6.2072382785e+01    0.3605098    0.1971738  29.18  0.001308918    1.860    0.463
        11 -12.0906      7.9750      9.0634   8.6911143329e+01   7.2819183061e+01    0.4183237    0.1914177  32.81 0.0008778631    2.594    0.615
        12 -10.1964      5.4645     13.0866   9.0281457607e+01   7.2409702997e+01    0.2543325    0.1201677 -41.30 0.0009215687    1.730    0.422
        13 -11.6609      9.9328     15.5340   8.8826208645e+01   7.1667044366e+01     0.290033    0.1923985 -14.91 0.0005044304    1.234    0.190
        14 -12.0455      4.6949     17.8948   9.2838302767e+01   7.1692958855e+01    0.3715013    0.3501497 -48.67  0.002329146    1.591    0.372
        15  -9.1516      1.4202     25.4143   9.7649714124e+01   7.0617888381e+01    0.4293507    0.1192023 -56.06  0.001801808    3.419    0.708
        16 -11.6952     98.5213     21.9123   5.5466111791e+01   5.6817678404e+01    0.6798736    0.3476481  47.02  0.002287732    1.709    0.415
        17 -11.6451    103.0620     19.4185   5.3331525505e+01   5.6089207580e+01    0.5237953    0.3599224 -83.09  0.002535758    2.399    0.583
        18 -11.6953    129.5426     19.2312   4.7453615286e+01   4.9991277123e+01     0.258915    0.2481713  12.62 0.0004721723    1.131    0.116
        19 -10.5035     33.8311     15.9437   7.6441926927e+01   6.9048474217e+01    0.4255907    0.2030161  11.73  0.001839071    3.194    0.687
        20 -11.5333     49.6377     15.1737   6.8948397583e+01   6.6872572335e+01    0.6978477    0.3032034  45.51  0.003337915    2.446    0.591
        21 -10.3280     39.9496     11.0650   7.1171664486e+01   6.8838492418e+01    0.2083924    0.1996914 -32.26 0.0005144534    1.625    0.384
        22 -10.2947     40.1606     15.1726   7.3095380562e+01   6.8291965007e+01    0.2793123    0.2264784  11.21  0.001285583    1.114    0.102
        23 -11.9185    230.0755     12.4427   3.3150476723e+01   2.7082881622e+01    0.3054788    0.1837294 -41.37 0.0002555625    1.534    0.348
        24 -11.3514     74.1079     15.7498   6.0116599247e+01   6.2503922832e+01    0.4398331    0.4270348  75.93  0.001924579    1.392    0.282
        25 -10.5110     74.2062      2.7781   5.4295549198e+01   6.3733463373e+01    0.3439565    0.2393046 -35.75  0.001696338    1.760    0.432
        26  -9.5592     72.0102      4.7584   5.5866607827e+01   6.3993767017e+01    0.1690597    0.1310828  34.70            0    1.075    0.070
        27 -11.2864     79.0292     10.5061   5.6273747409e+01   6.2072119860e+01    0.2816974    0.1852686  35.34   0.00043021    1.320    0.242
        28 -11.1189     75.5578     10.4694   5.7322559912e+01   6.2765555566e+01    0.2868294    0.2693346  83.97 0.0009178061    1.454    0.312
        29 -10.5423    118.5226     12.8957   4.7431871888e+01   5.3209739677e+01    0.3620739    0.2370884  23.38  0.001793646    1.763    0.433
        30  -9.9443    117.6692      9.3193   4.6327875270e+01   5.3732094284e+01    0.1846971     0.132363 -28.20 0.0009550523    1.564    0.360
        31 -11.6566    128.9333     11.3818   4.4918100664e+01   5.0896772059e+01    0.5046883     0.332171 -63.35  0.002601541    1.959    0.490
        32  -9.4572     65.2901     12.2923   6.1560086210e+01   6.4530146828e+01    0.1934798    0.1089399 -10.31 0.0005309568    1.973    0.493
        33 -10.6373     43.6316      8.6548   6.8320964713e+01   6.8574726495e+01    0.3154474    0.2186833 -16.04 0.0008429326    1.327    0.246
        34 -10.1446    156.7894      9.0224   3.9823617516e+01   4.4403721846e+01    0.2375265   0.09191035 -28.34 0.0009188604    2.749    0.636
        35  -9.7236    100.2877     11.9420   5.1118272419e+01   5.7444455879e+01    0.1721025    0.1510939  22.54 0.0002126378    1.101    0.092
        36 -12.5322    178.6270      4.8257   3.6040134350e+01   3.9545512828e+01    0.4476118    0.3397987  25.94  0.002649615    1.767    0.434
        37 -10.2767    164.2841      9.0875   3.8862244858e+01   4.2585483636e+01    0.2329089    0.1829341  88.50 0.0005996876    1.177    0.150
        38  -9.9508    164.5780      5.4923   3.7817820838e+01   4.2845286676e+01    0.2134829    0.1693279 -52.70 0.0005874899    1.313    0.238
        39 -11.8493    246.6153      8.2676   3.1106364220e+01   2.4111727994e+01    0.2900984    0.2213045  35.61   0.00148905    2.143    0.533
        40 -12.4808    214.3162      5.8094   3.2957703343e+01   3.1220899709e+01    0.6641614     0.439147 -83.89  0.004019364    1.343    0.255
        41 -11.6856    146.3214      6.5398   4.0546440926e+01   4.7156506598e+01    0.4523278    0.3249173   5.08  0.002548162    1.800    0.445
        42  -9.8287    141.3098      7.1415   4.1479762366e+01   4.8311300573e+01    0.1677637    0.1624718 -50.54  0.001113685    1.166    0.142
        43 -10.4303    144.9903      1.3908   3.9159368750e+01   4.7908587374e+01    0.1937559    0.1078622  69.53 0.0003174291    1.545    0.353
        44 -11.0261    191.5722      7.2469   3.5328778076e+01   3.6263316763e+01    0.3287709    0.2377057 -32.01  0.001467174    1.527    0.345
        45 -11.1757    194.4960      2.0851   3.3792463103e+01   3.6081404058e+01    0.3230491    0.1941686  78.99  0.001150786    1.460    0.315
        46  -9.7985    113.3855      7.6897   4.6598740688e+01   5.4864739495e+01    0.1517996     0.120114   6.85  0.000393109    1.400    0.286
        47  -9.8415     86.1094      7.6352   5.3012868681e+01   6.0886802236e+01    0.2294202    0.1514054 -18.48  0.000574717    1.628    0.386
        48 -10.9392     97.8470      3.9851   4.8563545222e+01   5.8674089970e+01    0.3569764    0.2009133  19.97  0.001783184    2.107    0.525
        49 -10.4539     93.4678      4.4769   4.9803564027e+01   5.9590104597e+01    0.2382448    0.1737568  30.89  4.90885e-05    1.257    0.205
        50 -10.2764     34.0047      7.4751   7.2125400959e+01   7.0111187499e+01    0.2068109    0.1328787  -9.93 0.0003785636    1.408    0.290
        51 -10.1825     81.1225      5.1647   5.3339312258e+01   6.2135492697e+01    0.2509192    0.1851849 -78.92  0.001367293    2.305    0.566
        52 -10.8940    204.2681      3.4822   3.3263919214e+01   3.3709251164e+01    0.2857561    0.1690218 -32.62  0.001616725    1.791    0.442
        53 -10.2200    223.3339      3.9516   3.1851246926e+01   2.9435553890e+01    0.1622063    0.1353186 -68.51 0.0004768177    1.079    0.073
        54 -11.7772     66.8450      3.2574   5.6826218870e+01   6.5120319749e+01    0.3386998     0.259971  43.54  0.001203327    1.213    0.175
        55 -10.9783    243.1834      2.9799   3.0284463188e+01   2.5373584128e+01    0.1916805    0.1429835 -84.19 0.0005314911    1.149    0.130
        56 -11.2450    237.6208      2.3191   3.0512946045e+01   2.6582463648e+01    0.2130342    0.1815241 -45.74  0.001542206    1.302    0.232
        57  -9.8773    126.6558      2.4157   4.2289047697e+01   5.2197881103e+01    0.2013855     0.138446  26.63  0.001126693    1.636    0.389
        58  -9.8520    118.3539      3.5963   4.4162573971e+01   5.4051394127e+01    0.1817474    0.0988931  54.22 0.0009271046    1.523    0.343
        59 -10.2962     90.6222      7.3047   5.1676614994e+01   5.9962398956e+01    0.3083203     0.142207  54.83  0.001482322    1.857    0.461
        60  -9.7384    183.9460      1.3967   3.4616438653e+01   3.8603808570e+01    0.1803157    0.1051367  74.92 5.487386e-05    1.488    0.328
        61  -9.4581    166.7576      1.3462   3.6415384730e+01   4.2687132836e+01    0.1822788   0.09718642  63.96 0.0004345443    1.604    0.377
        62 -10.6979     46.5177    177.9277   1.1207806619e+02   3.1839861900e+01    0.2958656    0.2251425 -79.22  0.001227914    1.173    0.147
        63 -10.4276    250.1090    246.8455   7.8884959695e+01  -1.1712509886e+01    0.1845598    0.1334164   1.16  0.001308728    1.029    0.028
        64 -12.4605    226.2464    245.7677   8.2902097663e+01  -8.5780133924e+00    0.6127408    0.3340214   0.50  0.003175037    2.265    0.559
        65 -12.0611    232.5880    245.6905   8.1751713403e+01  -9.3938825446e+00    0.5834895    0.1726642 -31.64  0.002411392    3.717    0.731
        66 -10.0697     72.5962    250.1242   1.1357870249e+02   1.2995102575e+01    0.1865306    0.1611143   6.35  0.001195129    1.672    0.402
        67 -12.8521     19.1953    237.8900   1.2276890545e+02   2.1675447088e+01     0.672146    0.3464961  56.33  0.004140789    1.544    0.352
        68 -12.0561     29.0784    248.2669   1.2157253152e+02   1.8624190824e+01    0.5200069    0.2666804  74.96  0.003090871    1.796    0.443
        69 -11.8920      4.4614    236.7184   1.2535325239e+02   2.3360469017e+01    0.4323778    0.3128714 -72.01  0.002863028    1.515    0.340
        70 -13.3868      5.8961    245.0987   1.2548642215e+02   2.1614942571e+01    0.9048909    0.5701845  41.42  0.004437344    1.528    0.346
        71 -12.0989     21.9591    249.0967   1.2288602250e+02   1.9235130044e+01     0.421938     0.223055  47.62  0.001723301    1.508    0.337
        72 -11.1136     17.4841    247.4871   1.2358855318e+02   2.0006059068e+01    0.2213273    0.1494098  88.53 0.0005135363    1.292    0.226
        73  -9.5107     69.7781    178.1778   1.0633738137e+02   2.8825512694e+01    0.1812062     0.155411 -42.53 0.0005138883    1.353    0.261
        74  -9.3795    200.6736    176.3021   7.5122492187e+01   6.3701134574e+00     0.132269    0.1160675 -89.05  0.000369751    1.641    0.391
        75 -11.8941     34.2064    174.2799   1.1468586967e+02   3.4072295342e+01    0.2452465    0.1965964 -74.81 0.0003750398    1.128    0.114
        76  -9.8839     39.1786    173.2501   1.1335478489e+02   3.3791660196e+01    0.2055409    0.1491963 -41.47  0.001141156    1.703    0.413
        77 -10.8660     18.0623    173.0873   1.1845070935e+02   3.5915858583e+01    0.3828592    0.1973762  64.74  0.001930107    1.991    0.498
        78 -12.3050     49.2790    161.9011   1.0939194855e+02   3.5429857068e+01     1.129833    0.7695552  16.57   0.00500478    1.917    0.478
        79 -11.8316     36.4886    166.4873   1.1326567519e+02   3.5720879661e+01    0.3615586    0.2742827  72.52  0.002125948    1.256    0.204
        80 -11.5977     35.3934    163.2069   1.1316702891e+02   3.6636955130e+01    0.2877259     0.234772 -64.70 0.0005771678    1.178    0.151
        81 -10.3771     69.1646    167.1438   1.0490971125e+02   3.1596541817e+01    0.4822172    0.2336417  67.93  0.001626988    3.689    0.729
        82 -10.9639     36.9621    157.9415   1.1212905297e+02   3.7770460865e+01    0.2928483    0.1682394 -75.88 0.0003970954    1.568    0.362
        83  -9.9239     99.1560    164.9016   9.6661213913e+01   2.7574217246e+01     0.219392    0.1917397  78.98 0.0003782136    1.183    0.155
        84  -9.0738    200.3236    162.6536   7.2323271694e+01   8.9948473696e+00    0.1417662    0.1172108 -78.12 0.0007049892    1.741    0.426
        85  -9.4741      7.9439    162.0000   1.1991327800e+02   3.9390616209e+01    0.1727113   0.07060967  23.74 0.0007477151    2.941    0.660
        86 -12.3489     22.2756    156.8291   1.1583107887e+02   3.9455112367e+01    0.5403525    0.5216078 -22.05  0.003718626    1.313    0.238
        87  -9.3679    216.4493    155.4304   6.7651308085e+01   7.3455049531e+00    0.1406318    0.1272693 -23.81 7.502615e-05    1.045    0.043
        88  -9.3690    157.6474    155.0250   7.9929424942e+01   1.8921252629e+01    0.2624861    0.1186811 -28.20 0.0007047275    4.502    0.778
        89 -10.1607     11.1709    153.4303   1.1833552876e+02   4.1198945168e+01    0.2625838     0.116777  27.32  0.001287404    2.554    0.608
        90  -9.9500    177.5946    150.9379   7.4491692902e+01   1.5758561633e+01    0.3003229     0.205874  60.69  0.001321722    1.884    0.469
        91  -9.5192    143.6875    148.6384   8.1869745890e+01   2.3148908561e+01    0.1629152    0.1224598 -10.35 0.0004150377    1.752    0.429
        92  -9.6612     33.1161    148.1363   1.1192636198e+02   4.0589734669e+01    0.1957163    0.1550064 -58.21 0.0004136596    1.207    0.171
        93 -10.5959     17.5176    146.9123   1.1600798908e+02   4.2285111934e+01    0.2539795    0.2053339 -14.89 0.0007952991    1.645    0.392
        94  -9.2279     41.2879    146.2875   1.0941202844e+02   4.0216368494e+01    0.1327802   0.09484552 -42.70  0.000173518    1.535    0.348
        95 -10.1348    207.0940    146.4851   6.7443715797e+01   1.0771326514e+01    0.2057936    0.1445873  43.59 0.0007508837    1.529    0.346
        96 -10.2707     10.4376    144.6784   1.1765930912e+02   4.3376596327e+01    0.2023704    0.1425926 -31.15 0.0009629644    1.819    0.450
        97  -9.4883    220.4572    143.9804   6.4414328642e+01   8.6866146828e+00    0.2170865     0.127531 -38.74 0.0006749616    1.536    0.349
        98  -9.7805    239.7757    140.4526   6.0363914820e+01   5.7965444872e+00    0.1716862    0.1276184  26.45 0.0006488389    1.562    0.360
        99  -9.6748     82.3888    139.7736   9.6512669934e+01   3.6481182531e+01    0.2151048    0.1284484 -49.11 0.0009419727    1.612    0.380
       100 -10.4355     56.3894    139.3651   1.0400908173e+02   4.0218578772e+01    0.3340282    0.2408298  66.97  0.001700073    1.581    0.368
       101 -11.0102      2.6412    137.1271   1.1899015580e+02   4.5738859346e+01    0.3022376     0.154621 -81.82 0.0008879928    1.656    0.396
       102 -10.3031      9.2945    136.9106   1.1714956278e+02   4.5350281296e+01    0.1838405    0.1296649 -73.79  0.000379026    1.141    0.123
       103  -9.8160     20.9514    135.4986   1.1371103448e+02   4.4817616409e+01    0.2136203    0.1426532 -71.38 0.0006781977    1.241    0.194
       104  -9.7833    122.9880    135.2901   8.4137314344e+01   3.0370806957e+01    0.2193511    0.2088161  45.80 0.0005349342    1.073    0.068
       105 -10.1486    249.4908    133.9553   5.7462298060e+01   5.2055622771e+00    0.2080673    0.1135249 -37.06 0.0009157054    1.545    0.353
       106 -10.3390    108.5258    133.5010   8.7692603864e+01   3.3563604158e+01     0.154028    0.1486717 -44.38 0.0001487341    1.023    0.022
       107 -10.1839     79.8131    133.1517   9.5921748477e+01   3.8531540094e+01    0.1993355    0.1701479 -28.86 0.0003734495    1.288    0.224
       108 -10.3319     55.3358    133.0180   1.0321376262e+02   4.1947308704e+01    0.3123357    0.1802718  42.01  0.000978386    1.869    0.465
       109 -10.9588     74.0520    129.5340   9.6896822728e+01   4.0299818623e+01    0.3380406    0.2696842 -62.88 0.0009998593    1.181    0.154
       110 -11.1739     36.8114    130.4301   1.0834542714e+02   4.4650539271e+01     0.464301     0.320497  -3.99  0.002287447    1.999    0.500
       111  -9.1656     59.2208    128.9715   1.0129241728e+02   4.2478238754e+01     0.181878    0.1079243 -62.09 0.0002054914    1.530    0.346
       112  -9.0675      9.3025    129.3216   1.1629363714e+02   4.7201227991e+01    0.1311374   0.07780679 -48.75 0.0003516249    1.631    0.387
       113 -10.2013     24.3166    126.0012   1.1143914760e+02   4.6892260689e+01    0.1887276     0.145422 -67.02 0.0003311088    1.082    0.075
       114 -11.8795     21.7925    121.2423   1.1151634153e+02   4.8273414282e+01    0.5862314    0.2384215 -39.47  0.002361395    3.008    0.668
       115 -10.6455     13.5036    126.0155   1.1466817976e+02   4.7720282460e+01    0.2624018       0.1583  46.35  0.000938681    1.883    0.469
       116 -11.2216     10.8062    122.9916   1.1508489909e+02   4.8645729825e+01    0.4258875    0.2361788  50.13  0.001187405    2.105    0.525
       117  -9.3531    220.2884    124.3518   6.0020888146e+01   1.2283914853e+01    0.1448709    0.1083366  -6.56  0.000702484    1.668    0.401
       118 -10.5700      2.9278    123.0570   1.1741778825e+02   4.9123637163e+01     0.228499    0.1594969 -60.44 0.0007511029    1.209    0.173
       119 -10.0242      1.3920    119.0114   1.1740614720e+02   5.0187547097e+01    0.1897602   0.09794774 -74.26 0.0003386541    1.550    0.355
       120 -10.8169     15.8548    115.9115   1.1258399929e+02   5.0027791277e+01    0.2261293    0.1911904 -49.69 0.0004120696    1.163    0.140
       121 -10.3759     72.2379    117.2754   9.4809068231e+01   4.3604035134e+01    0.3803491    0.1749709 -64.92  0.001390621    2.532    0.605
       122 -10.1847     85.9987    116.6737   9.0365427017e+01   4.1603548492e+01    0.2025769    0.1973478   9.72  0.000459771    1.081    0.075
       123  -9.8927    213.9894    115.6691   5.9083442121e+01   1.5134397984e+01    0.1926019    0.1814243  41.71 0.0005380315    1.165    0.142
       124 -12.6184     14.0909    109.0814   1.1213548466e+02   5.1811732950e+01    0.7137654    0.3310949 -41.85  0.003386056    2.167    0.539
       125 -10.9607    249.3389    112.1844   5.2815970649e+01   8.8534511308e+00    0.2682726    0.1955642 -47.57  0.000629687    1.235    0.190
       126  -9.8667     94.9707    112.4789   8.6573060100e+01   4.1067890244e+01    0.2481586    0.2007196 -50.38 0.0009888114    1.183    0.155
       127 -10.3801      1.3153    109.1657   1.1623048163e+02   5.2555897903e+01    0.4430672    0.1868916  85.01  0.001282288    3.448    0.710
       128 -10.5986      2.4823    105.4980   1.1537596422e+02   5.3370662869e+01    0.1919632     0.171189 -48.23 0.0005297177    1.186    0.157
       129 -11.2442     55.0646    110.3351   9.8826961537e+01   4.7627529676e+01      0.27268    0.2568452  -3.68 0.0004158867    1.161    0.139
       130  -9.6899     43.3119    111.3246   1.0292209080e+02   4.8734858858e+01    0.1456359   0.09286615 -36.45 0.0007040141    1.659    0.397
       131 -11.4035     36.7470    109.8363   1.0480872178e+02   4.9768978448e+01    0.4005561    0.2728825  68.08  0.001247009    1.912    0.477
       132  -9.8363     82.6070    108.7279   8.9472648280e+01   4.4068068361e+01    0.2831198    0.1340656 -50.05  0.001109262    1.954    0.488
       133  -9.5605     70.5253    108.0051   9.3195535544e+01   4.6109983346e+01     0.228814    0.1357778 -55.78 0.0005252077    1.572    0.364
       134 -10.2196     25.4820    107.9974   1.0821775703e+02   5.1226569140e+01    0.2112847    0.1136992 -67.40   0.00103204    1.603    0.376
       135 -10.7986    243.9186    104.6904   5.1935236953e+01   1.1099345478e+01    0.1816385     0.168496 -48.46 0.0006013524    1.090    0.083
       136 -10.1311    121.5253     98.4712   7.4987095634e+01   3.9036409597e+01    0.3122472    0.1511712 -40.33  0.001162121    2.074    0.518
       137 -10.0245    119.4906    104.4860   7.7242411055e+01   3.8154884914e+01     0.238035    0.1467279 -34.56  0.000643559    1.742    0.426
       138  -9.3694     87.9882    104.0201   8.6545744725e+01   4.4275630579e+01    0.1824777    0.1670824 -41.73 0.0004344622    1.031    0.030
       139  -9.7348     32.0583    103.8405   1.0523814452e+02   5.1670651797e+01    0.3008593    0.1932109  62.44  0.001486408    2.116    0.527
       140 -10.7229     37.5686    102.1656   1.0301062579e+02   5.1555380884e+01    0.3012916    0.2343239  -8.29 1.183372e-05    1.498    0.333
       141  -9.0288    223.2917    103.7048   5.4750738442e+01   1.5344538365e+01    0.1403348    0.1030876 -64.93 0.0003022354    1.556    0.357
       142 -10.5583     25.5129    101.7066   1.0707643428e+02   5.2748598382e+01     0.422926    0.2240403 -89.84  0.001758294    2.863    0.651
       143  -9.5833     35.3121    114.6912   1.0617563231e+02   4.8712864258e+01    0.1339625   0.09848487  73.76 0.0002756498    1.624    0.384
       144  -9.0855    186.3254    104.2800   6.1358478220e+01   2.3252599233e+01    0.1490838     0.119263  11.48 0.0002600378    1.593    0.372
       145 -10.9279     61.9655     98.9315   9.3835596210e+01   4.9480309804e+01    0.3684132    0.3387466  15.63   0.00122616    1.174    0.148
       146 -10.4688     66.5696     98.2339   9.2083452166e+01   4.9003952835e+01    0.2107539    0.1632048 -47.33 0.0003553942    1.173    0.147
       147 -11.4739      2.4818     97.3482   1.1422283536e+02   5.5304944038e+01    0.4604858     0.228921  79.38  0.002037386    2.957    0.662
       148 -11.4574    143.5405     98.3697   6.9185054942e+01   3.4210918734e+01    0.5085685    0.3933314  72.45  0.002311636    1.588    0.370
       149 -10.4114     50.7920     99.2165   9.7770058786e+01   5.0831290232e+01    0.1924224    0.1810653 -68.41 0.0005809766    1.129    0.115
       150 -10.6869     14.7119     98.0680   1.1015067087e+02   5.4417975433e+01    0.1911047    0.1395301 -62.29  0.001148224    1.113    0.102
       151 -10.4729     39.1017     95.9036   1.0113152808e+02   5.2902616862e+01    0.3914677    0.1905517  40.44  0.001419678    2.433    0.589
       152  -9.7369    249.9916     95.7326   4.9168202234e+01   1.1412246083e+01    0.1764736    0.1573057 -53.72 0.0004069009    1.080    0.074
       153 -10.5615    153.6104     96.2467   6.6180696012e+01   3.2332925777e+01    0.2140953    0.1474056 -30.42 0.0003569965    1.556    0.357
       154 -10.9982     93.6672     95.6531   8.2450286242e+01   4.5177932539e+01    0.2987378    0.1954238 -48.28  0.001356876    1.479    0.324
       155  -9.7288     57.5050     96.5024   9.4772861887e+01   5.0643178383e+01    0.1424003    0.1274137 -43.69 0.0008106566    1.009    0.009
       156 -11.0118     20.8733     93.4340   1.0713739677e+02   5.5085032130e+01    0.6255612          nan -57.35   0.00160005    5.959    0.832
       157 -10.8408     21.6017     86.7953   1.0553710201e+02   5.6587285055e+01    0.2745334     0.271827 -21.40  0.001901047    1.207    0.171
       158 -12.7594    158.1611     89.4031   6.3234244825e+01   3.2602745370e+01     0.795661    0.5776709 -59.08  0.003654057    1.556    0.357
       159 -11.1298    157.1190     82.3649   6.1469363507e+01   3.4163279808e+01    0.9973755    0.4370277  33.69  0.002813964    4.449    0.775
       160 -12.4878    166.1630     83.8661   5.9966926843e+01   3.1744092168e+01    0.8866186     0.706337  60.97  0.004429456    1.292    0.226
       161 -10.4928    109.1076     92.5359   7.6827389615e+01   4.2883123150e+01     0.402514    0.1654712 -41.43  0.001412376    2.422    0.587
       162 -11.1746     26.6186     92.6297   1.0490962818e+02   5.4824074925e+01    0.6509147    0.3013775 -78.58  0.002522557    3.141    0.682
       163  -9.8213     31.4671     92.9529   1.0322529926e+02   5.4329836560e+01    0.2008904    0.1144948 -60.63 0.0003926851    1.508    0.337
       164 -10.8404    124.3595     90.6715   7.1946782669e+01   4.0063374656e+01     0.355126    0.2297044 -71.66  0.001330167    2.632    0.620
       165 -11.4604     11.5454     90.7215   1.0997850650e+02   5.6356856975e+01     0.364439    0.2537345  20.85 0.0006692967    1.722    0.419
       166 -10.6586     96.5270     89.5694   7.9784933609e+01   4.5981667549e+01    0.3171967    0.2239129  14.81  0.001428073    1.780    0.438
       167 -10.5379     83.0542     88.9306   8.3954442912e+01   4.8541450371e+01    0.2259506    0.2004987 -22.09 0.0005182578    1.091    0.083
       168 -10.9219     78.3061     87.8295   8.5229081074e+01   4.9577466267e+01    0.3419162    0.2561087 -51.28  0.001323949    1.315    0.239
       169  -9.8363     58.5350     89.4372   9.2585164933e+01   5.2147982368e+01    0.3061796    0.1354686  32.74   0.00125989    2.426    0.588
       170 -10.9728     46.5829     87.6673   9.6461349388e+01   5.4027145187e+01    0.4689317     0.262148 -64.31  0.002112702    1.903    0.474
       171 -10.0471     43.0428     82.9991   9.6580631577e+01   5.5488197917e+01    0.3002203    0.1619781  44.35  0.001169061    2.382    0.580
       172  -9.7889    139.0393     87.6890   6.7241727329e+01   3.7376708535e+01    0.2149577    0.1982068  47.48 0.0004887486    1.091    0.083
       173 -10.2100     65.0432     87.4852   8.9733999965e+01   5.1692814270e+01    0.3182966     0.223209  15.57  0.001431478    1.639    0.390
       174 -10.5131     67.5009     84.0056   8.7871412768e+01   5.2108906653e+01    0.3387709    0.1947068 -32.10  0.001487163    1.901    0.474
       175 -10.2870     37.3041     90.7275   1.0060744090e+02   5.4302909747e+01    0.3812243    0.2404718 -19.17  0.001898909    1.925    0.481
       176  -9.4785     51.4068     86.2014   9.4308025159e+01   5.3793752525e+01    0.1834749    0.1258645 -64.11 0.0008838587    1.556    0.357
       177 -12.5893      5.7602     83.6034   1.1081003338e+02   5.8340886180e+01     1.005031    0.4687906 -75.43   0.00480578    2.151    0.535
       178 -11.5324     20.0209     61.1960   1.0001546130e+02   6.2401345259e+01    0.5470572    0.3369782 -56.37   0.00197152    1.437    0.304
       179 -12.3570     13.4255     75.7798   1.0632022945e+02   5.9676030199e+01    0.4521099    0.2413079 -53.97 0.0009371319    1.451    0.311
       180 -11.5960      8.3035     73.9548   1.0795631471e+02   6.0393237430e+01    0.4606826    0.2738913  -3.66  0.001715206    2.000    0.500
       181 -12.6292      3.8093     64.2862   1.0770113228e+02   6.2764164767e+01    0.7665659    0.4033134 -62.06  0.003762178    1.560    0.359
       182 -11.9849      5.2244     58.8362   1.0582564612e+02   6.3860466446e+01    0.3977246    0.2757095  50.37 0.0002864706    2.093    0.522
       183 -13.6062     16.2925     67.7819   1.0330954372e+02   6.1258919661e+01    0.3717616     0.332241 -58.10 0.0007259384    1.193    0.162
       184 -11.4151     21.8703     66.6500   1.0070027461e+02   6.1093514992e+01    0.3587811    0.2145019  45.70  0.001195942    2.365    0.577
       185 -10.6876    115.1983     84.0390   7.2510735817e+01   4.3382468387e+01    0.2960315    0.2158985  35.86  0.000760466    1.410    0.291
       186  -9.4372     56.4207     83.5404   9.1743609500e+01   5.3760376468e+01    0.1400131    0.1232724 -36.55 7.618371e-05    1.013    0.013
       187 -11.5837     30.3242     81.7323   1.0110448154e+02   5.7037039132e+01    0.2836159    0.2438705  11.62  0.001303283    1.309    0.236
       188 -10.5449     35.0692     79.5165   9.8729909388e+01   5.7097524921e+01    0.3421063    0.2095528 -29.84   0.00135477    1.675    0.403
       189 -10.3267     74.1238     82.1448   8.4989709279e+01   5.1494434135e+01    0.2390022    0.1887387 -16.01  0.001245599    1.337    0.252
       190  -9.7088    146.5131     80.9605   6.3460951036e+01   3.6925779414e+01     0.237646    0.1502687 -37.20   0.00103183    1.591    0.371
       191 -10.0666     22.0073     73.5269   1.0238478454e+02   5.9575741967e+01    0.4159769     0.152033 -62.36  0.001730825    2.511    0.602
       192 -11.1152     21.9334     80.5050   1.0404703236e+02   5.8010322128e+01     0.532732     0.187311 -36.40  0.002023891    3.254    0.693
       193 -10.4129     18.6782     79.2999   1.0503731386e+02   5.8524941587e+01    0.1845203    0.1670685 -60.01 0.0006993071    1.154    0.134
       194  -9.6746     86.4921     80.5090   8.0277381357e+01   4.9748257735e+01    0.1465212    0.1375394 -19.84 0.0008104694    1.023    0.022
       195  -8.8451    112.2833     79.6869   7.2003324915e+01   4.4865888888e+01    0.1463146    0.1214804 -79.69 0.0001829704    1.575    0.365
       196 -11.2333     61.0515     78.4930   8.8588034179e+01   5.4244033953e+01    0.3169827    0.2384233 -52.74 0.0003454324    1.318    0.241
       197 -12.0557     62.4871     71.4806   8.5906799650e+01   5.5525610467e+01    0.5107369    0.3185976  -8.97  0.001247359    2.235    0.553
       198 -12.6989     44.7344     75.3011   9.3844279060e+01   5.7013594238e+01    0.2937503    0.2601857 -55.62 0.0005792923    1.198    0.165
       199 -10.4796     31.5979     68.0462   9.7050181152e+01   5.9953742792e+01    0.2499835    0.1758379 -22.05   0.00033324    1.405    0.288
       200  -9.9291     33.0382     64.4787   9.5429818938e+01   6.0573935034e+01    0.2398126    0.1573725  26.52  0.001047854    1.690    0.408
       201 -10.0087     40.1325     72.1546   9.4760895741e+01   5.8207572857e+01    0.2252893    0.1937942  16.35 0.0009564454    1.272    0.214
       202 -11.4238     37.5723     67.5904   9.4474205329e+01   5.9457556360e+01    0.5820197    0.2885643  32.52  0.002010596    2.237    0.553
       203 -10.0706     90.8062     75.3964   7.7242580409e+01   5.0005084838e+01    0.2850364    0.1109928 -46.18  0.001016197    2.581    0.613
       204 -10.8178     74.4165     75.2611   8.2767461234e+01   5.2903257455e+01    0.5474851     0.254788 -42.80  0.002262666    2.020    0.505
       205 -11.0960     77.2907     69.8779   8.0017471832e+01   5.3517537517e+01    0.3843304    0.3333992  56.99  0.001674837    1.430    0.301
       206 -10.8271     77.0084     64.2199   7.8215816201e+01   5.4666523649e+01    0.4148899    0.2839001 -43.14  0.002102732    1.445    0.308
       207 -11.1726    207.7939     73.4043   4.9835721085e+01   2.3802513925e+01      0.24235    0.2169022 -50.93 0.0002683892    1.047    0.045
       208  -9.7962    145.7100     74.0087   6.1581669073e+01   3.8377012941e+01    0.2173728    0.1946301 -38.41 0.0007874046    1.126    0.112
       209  -9.9996    137.3348     74.0279   6.3570202628e+01   4.0341576976e+01    0.2117303     0.185214 -34.22 0.0003244124    1.155    0.134
       210  -9.5775     84.6829     74.2835   7.8912912482e+01   5.1348407220e+01    0.1362929    0.1178015  84.03 0.0001764641    1.583    0.368
       211 -11.2839     41.9984     37.5060   8.2157730446e+01   6.4711240099e+01    0.6277039    0.3323798  42.62  0.003101956    2.422    0.587
       212 -11.6496     46.6785     54.6219   8.6549642173e+01   6.1035123497e+01    0.6954348    0.4757123 -72.78   0.00284907    2.719    0.632
       213 -11.9797     51.1718     69.8056   8.9709281181e+01   5.7415686516e+01    0.6496929    0.4370234 -72.09  0.001977065    2.257    0.557
       214 -10.7960     51.6508     62.7262   8.7266117143e+01   5.8807041546e+01    0.3472054    0.2423536 -34.52  0.001417673    1.280    0.219
       215 -11.0194     29.1331     60.7939   9.5987326264e+01   6.1715430182e+01    0.5285093    0.2763356  15.49  0.002654941    2.186    0.543
       216 -11.7332     35.1847     42.4237   8.7136167400e+01   6.4673247612e+01    0.7849214    0.4199483  -5.60  0.003558209    2.668    0.625
       217 -10.8641     26.6960     56.0693   9.5610250621e+01   6.2907634755e+01    0.3078036     0.200341 -47.43  0.001124507    1.307    0.235
       218 -11.9420     26.7070     49.5596   9.3519492595e+01   6.4202242081e+01    0.5006119    0.4328945 -82.17  0.002132028    1.704    0.413
       219 -11.6233     33.6909     49.9770   9.0525854131e+01   6.3429419632e+01    0.4030184    0.2412125 -38.12  0.001297286    1.419    0.295
       220 -10.7530    101.8753     72.9002   7.2935513472e+01   4.8338644296e+01    0.3728776    0.2502618  66.88  0.001589583    2.241    0.554
       221  -9.7863    128.9963     71.5472   6.4883725184e+01   4.2713797295e+01    0.2202659    0.1452859  48.93 0.0003278536    1.494    0.331
       222  -9.1242    194.6459     69.7013   5.0928259819e+01   2.7422481155e+01    0.1432587    0.1118192  24.97 0.0007036133    1.698    0.411
       223  -9.9314    189.2740     68.6248   5.1519659771e+01   2.8858273410e+01    0.2088649    0.1693081  85.74 0.0006829107    1.302    0.232
       224 -10.0700    110.4765     68.9193   6.9076454001e+01   4.7295132319e+01    0.2105402    0.1443534 -35.66 -2.325978e-05    1.464    0.317
       225 -11.7934     93.7007     66.6761   7.3432192797e+01   5.1139571755e+01    0.3321244    0.2602539   6.97  0.001698636    1.412    0.292
       226 -10.3705     99.3885     65.7402   7.1327364254e+01   5.0183198814e+01    0.2494322    0.1984096 -28.01 0.0008910216    1.248    0.199
       227  -9.3800    201.9400     62.2241   4.7901322137e+01   2.6895770324e+01    0.1786979    0.1132744  65.97 0.0008611758    1.618    0.382
       228 -11.1224     85.7709     60.2365   7.3814352194e+01   5.3832947017e+01    0.5220256    0.3201011  16.52  0.002251543    2.210    0.547
       229 -10.3934    119.7784     61.2715   6.3973363269e+01   4.6595271617e+01     0.352898    0.1937505  51.69 0.0008779571    1.803    0.445
       230  -9.9278    155.4683     60.4646   5.5411954997e+01   3.8306810754e+01    0.1448823    0.1405749  68.84 -1.177072e-05    1.010    0.010
       231  -9.4876     98.4136     60.4493   6.9818939808e+01   5.1326944679e+01    0.1429562    0.1333141   2.12 2.377927e-05    1.012    0.011
       232 -11.7587     59.4266     58.4300   8.2739699776e+01   5.8570093527e+01    0.3944742    0.3200073  -3.14  0.001981983    1.187    0.157
       233 -10.5284     62.3473     52.7951   7.9589214300e+01   5.9176839118e+01    0.3630801    0.1842032 -42.55  0.001371751    1.895    0.472
       234 -10.2662    152.6387     57.2980   5.5036451754e+01   3.9488365201e+01    0.3904819    0.1462212 -30.22  0.001332528    3.056    0.673
       235 -10.1905    166.9368     56.3900   5.2018275923e+01   3.6146239641e+01    0.2296356    0.1905499 -55.03  0.000560814    1.223    0.182
       236 -10.4162    147.0219     56.8649   5.6071818025e+01   4.0915310472e+01    0.2320817    0.2066433 -38.37 0.0002782614    1.157    0.136
       237 -11.7895     75.2575     56.0949   7.5982622169e+01   5.6469349489e+01    0.2392024    0.2099533 -19.73 0.0002897923    1.070    0.065
       238  -9.7428     98.9942     56.1359   6.8133004687e+01   5.1947551874e+01    0.2472744    0.1534334  23.55 0.0009679894    1.988    0.497
       239 -10.0977    132.0445     54.8210   5.8777992717e+01   4.4809009217e+01    0.3596047    0.2312206  37.88  0.001397307    1.645    0.392
       240 -11.4411    129.2816     49.5890   5.7713855172e+01   4.6252644299e+01    0.6155174     0.453634  -6.61  0.003040428    1.659    0.397
       241 -11.0064      6.9225     41.1727   1.0015327770e+02   6.7357693529e+01    0.2674207    0.1316502 -43.28 0.0005291951    1.539    0.350
       242 -11.6243      6.7029     51.7307   1.0333771849e+02   6.5262398838e+01    0.4163441    0.3017471 -25.47  0.002094913    1.241    0.194
       243 -10.1011      4.4367     46.0158   1.0280349376e+02   6.6547938270e+01    0.2800543    0.1232507 -48.42   0.00073555    1.669    0.401
       244 -11.2622     12.6362     51.7096   1.0061559290e+02   6.4897865384e+01    0.5179603    0.2154552 -60.77  0.001737468    2.304    0.566
       245 -10.5801     11.8647     44.6497   9.8849738391e+01   6.6359354548e+01     0.333318    0.2707555  56.94  0.001797935    1.908    0.476
       246 -10.9295    119.6170     52.0077   6.0906446203e+01   4.8125431248e+01    0.3924588    0.2953812  70.09  0.001263137    1.572    0.364
       247 -11.6317    104.9576     52.6736   6.5139372420e+01   5.1263160547e+01    0.2721792    0.2343552  43.67  0.000172423    1.143    0.125
       248 -11.3104     88.1593     51.4699   6.9875157004e+01   5.4891750919e+01    0.3074621     0.245451  19.41 0.0008037441    1.233    0.189
       249 -10.8992     78.1263     46.7141   7.1487515908e+01   5.7557915689e+01    0.4318643    0.2472889 -46.09  0.001555335    2.020    0.505
       250 -10.6841     53.9118     49.9085   8.1874535333e+01   6.0945003627e+01    0.3791839    0.2075849  21.17  0.001797746    2.071    0.517
       251 -10.9167     57.2619     46.2486   7.9142147934e+01   6.1104561041e+01    0.2138809    0.1754512  20.47 0.0006743642    1.197    0.165
       252  -9.1094    198.2816     49.3005   4.5138593968e+01   2.9646844951e+01    0.1281023    0.1071108  27.34 0.0001813955    1.547    0.354
       253  -9.9993    155.7428     48.6090   5.1807091423e+01   4.0023612046e+01    0.2056043    0.1673459 -78.67  0.001080156    1.360    0.265
       254 -10.1177    152.1894     47.5978   5.2180839454e+01   4.1034971396e+01    0.3052637    0.1250581  55.37 0.0008972779    2.240    0.554
       255 -10.3520    112.8204     47.3581   6.1080768630e+01   5.0363230082e+01    0.3224801    0.2453128 -76.86  0.001091877    1.931    0.482
       256  -9.8940    119.9430     47.0887   5.9143087709e+01   4.8790217952e+01    0.2088019    0.1913199  27.44 0.0004477664    1.051    0.048
       257 -10.6572    142.8107     45.5590   5.3421413556e+01   4.3601548536e+01    0.2934594    0.2274044 -68.00  0.001268539    1.527    0.345
       258 -10.6013     91.8015     43.2528   6.5651731628e+01   5.5461434411e+01    0.4026622    0.1948949 -34.92  0.001761255    2.104    0.525
       259 -10.5260     97.0630     31.0787   5.9427350980e+01   5.6046653975e+01    0.3389608     0.205988  44.56  0.001269336    1.492    0.330
       260 -10.6073     95.9076     36.1880   6.1723066389e+01   5.5621445790e+01    0.4449178    0.1988483 -39.75  0.001479345    2.460    0.593
       261  -9.9046     96.2724     42.4011   6.3964105915e+01   5.4669402831e+01    0.3325262    0.2200701  17.01 0.0008949156    1.818    0.450
       262 -10.9032    100.9499     37.2177   6.0660586466e+01   5.4409750287e+01    0.4892711    0.3009139  14.50  0.001483976    2.222    0.550
       263 -10.5924     50.9614     45.0205   8.1249343133e+01   6.2226880813e+01    0.1981769    0.1654338 -11.73 0.0003674365    1.014    0.014
       264 -10.1036    125.0495     43.0750   5.6527787564e+01   4.8180179142e+01     0.318736    0.2170144  41.54  0.001583545    1.427    0.299
       265  -9.5556    106.7443     43.0480   6.1191342672e+01   5.2337609276e+01    0.1890868    0.1732738  21.31 0.0002804683    1.019    0.018
       266 -11.0242     71.1924     41.1187   7.1790666375e+01   5.9685602643e+01    0.2436817    0.1691106  -6.20  0.001193252    1.569    0.363
       267 -11.2683     68.9022     37.9047   7.1346485099e+01   6.0578411242e+01    0.4216663     0.254915  -9.75  0.002004441    2.064    0.516
       268 -10.7695     23.8880     41.7397   9.2132978791e+01   6.5952140237e+01    0.5494435    0.3028473  44.75  0.002711237    2.936    0.659
       269 -12.0236     27.6812     38.1410   8.9004425881e+01   6.6242292452e+01     0.382571    0.2366857  23.66  0.001431862    1.687    0.407
       270 -12.1491     24.3750     35.1059   8.9433299691e+01   6.7107834799e+01    0.8942146    0.3399104  12.12  0.002925879    4.504    0.778
       271 -12.7577     38.7325     51.1359   8.8713898940e+01   6.2655261146e+01    0.7769912    0.3688799 -44.50  0.003775909    1.833    0.455
       272 -11.5235     52.7105     39.7381   7.8449689448e+01   6.2874098642e+01    0.4648044    0.3515224  27.42  0.001850472    1.319    0.242
       273 -12.0882     36.9457    243.8615   1.1986354689e+02   1.8584793371e+01    0.6596072    0.3057656 -89.81  0.003073749    2.271    0.560
       274 -10.9797    152.5263     39.0529   4.9509454695e+01   4.2115008060e+01     0.251863    0.2243146  89.21 0.0004503136    1.132    0.117
       275 -11.0533    102.0004     29.0746   5.7296696052e+01   5.5229264782e+01    0.3830768    0.3093658 -82.12 0.0007621376    1.743    0.426
       276 -11.0936     80.5343     36.6112   6.6722718235e+01   5.8649063847e+01     0.604177    0.2988024 -13.44  0.002249185    3.396    0.706
       277  -9.4756     61.9737     40.7586   7.5127895150e+01   6.1289774642e+01    0.1628803    0.1045547  33.56 0.0003649078    1.526    0.345
       278  -9.2966    167.7369     38.9942   4.6885281562e+01   3.8398080829e+01    0.1696491    0.1208135 -33.04 0.0004350744    1.482    0.325
       279 -10.2211    224.0341     38.4120   3.9425508655e+01   2.5265825308e+01    0.3720096    0.1242201  71.01  0.001148425    3.263    0.694
       280  -9.2118     85.6907     38.7502   6.5866050528e+01   5.7342529491e+01    0.1360764    0.0953197  18.72 0.0001903494    1.511    0.338
       281 -10.8145     74.4021     35.8268   6.8517896390e+01   5.9907273955e+01    0.3358022    0.2179826  -7.62  0.001698387    1.775    0.436
       282 -11.8080     77.9799     32.5273   6.5938028498e+01   5.9706455599e+01    0.6620607    0.3556874   2.75  0.002492552    3.503    0.715
       283 -10.1473      2.3515     36.9827   1.0111252239e+02   6.8430235455e+01    0.2336866    0.1193674 -17.37  0.001298816    2.001    0.500
       284  -9.5683    171.7939     36.4393   4.5524298329e+01   3.7735580470e+01    0.2149827     0.111071  52.42 0.0009562031    1.892    0.471
       285  -9.6645    134.5131     35.9286   5.2031834907e+01   4.6886589034e+01    0.2003012    0.1399199 -26.80 0.0007874857    1.554    0.356
       286 -10.0992    147.5024    245.5019   9.8090559643e+01   2.9175528456e+00    0.1268299    0.1062708  31.95 -1.78748e-05    1.007    0.007
       287 -12.7980     75.4521    238.5717   1.1197194225e+02   1.4805306561e+01    0.6348053    0.4986461 -55.74  0.004124999    1.542    0.351
       288 -10.4224     88.8866    241.2359   1.0951981234e+02   1.2433706892e+01    0.2156762    0.1538474 -34.24  0.001224752    2.124    0.529
       289  -9.8228     63.1565    242.4055   1.1475561603e+02   1.5685507963e+01    0.1775864   0.08485071  48.00 0.0004637506    1.714    0.416
       290 -11.5658      8.3071     34.1676   9.7141955779e+01   6.8595590138e+01    0.4271748    0.2993669 -64.86   0.00218373    1.814    0.449
       291 -11.5803     16.6759     31.5813   9.1910483220e+01   6.8427394572e+01    0.5996081    0.2895216   9.54  0.003099365    2.368    0.578
       292  -9.2633     50.3219    240.3061   1.1708074785e+02   1.7699310351e+01     0.101273   0.09231421 -30.88 0.0004396316    1.640    0.390
       293 -10.0928    195.3487    238.8825   8.7586210451e+01  -3.2966086302e+00    0.2551886    0.1603075  23.17  0.001448877    1.422    0.297
       294 -10.4109    243.8544    237.5032   7.8414157369e+01  -9.7816813601e+00    0.1760488     0.149712 -16.19 0.0008675004    1.362    0.266
       295  -9.8981    135.3490    237.9826   9.9567259879e+01   6.0830032306e+00    0.1995998   0.09226975 -32.00 0.0007048493    4.498    0.778
       296 -10.5927    107.7833     34.7520   5.7884166325e+01   5.3241306428e+01    0.4149187    0.2016055  45.04   0.00139052    1.894    0.472
       297 -11.3178    234.8670     31.4727   3.6829169291e+01   2.3820022748e+01    0.3957775    0.2611767  34.49  0.001550846    2.584    0.613
       298 -10.5891    185.0163     32.1798   4.2479200199e+01   3.5065228716e+01    0.2084618    0.1877283 -53.77  0.001274699    1.127    0.113
       299  -9.9694    166.4962     32.4825   4.5213778244e+01   3.9522660064e+01    0.1369521    0.1252979  80.41 4.305391e-05    1.004    0.004
       300 -10.3604     48.4802     31.5180   7.6837339367e+01   6.4792935377e+01     0.229457     0.148981  27.90 0.0006128474    1.484    0.326
       301 -10.7127     50.0260     27.9827   7.4649060713e+01   6.5095548330e+01    0.3053148    0.1986194  -2.80 0.0009409814    1.623    0.384
       302  -9.8088    139.1941     30.7212   4.9392096145e+01   4.6399419215e+01    0.1776189    0.1475837  32.00 0.0006702393    1.270    0.213
       303  -9.7716     89.1546     31.4277   6.1894394014e+01   5.7652327274e+01    0.2173681    0.1474215  33.70  0.001059168    1.380    0.275
       304  -9.7862     62.3359     28.6809   6.9975404121e+01   6.3040007995e+01    0.2546396    0.1292936  24.46  0.001126178    2.317    0.568
       305  -9.9701    111.7200     27.9234   5.4383538704e+01   5.3199016649e+01    0.2157067    0.1632899 -18.15 0.0003076385    1.429    0.300
       306  -9.8454    112.3368     23.8077   5.2730070198e+01   5.3527861786e+01    0.2434266    0.1905231 -16.16 0.0008786503    1.388    0.279
       307  -9.4521    114.4366     20.5425   5.1056376022e+01   5.3398815186e+01    0.2052268    0.1456199  29.07 0.0005562782    1.462    0.316
       308 -10.2664    131.5121     26.4765   4.9504131031e+01   4.8739807382e+01     0.258466    0.2312325  72.26 0.0009604475    1.112    0.100
       309 -10.1626    128.3181     26.6743   5.0220148384e+01   4.9478724682e+01     0.316328    0.2164907 -32.44 0.0007394255    1.578    0.366
       310 -11.7329     30.1691    234.2251   1.2050773783e+02   2.1233841393e+01     0.455105    0.1887654  82.60  0.002137947    2.778    0.640
       311 -10.1782    159.8213    236.1513   9.4259823355e+01   2.5673448814e+00     0.176277    0.1399039   7.57 0.0004566324    1.315    0.239
       312 -10.2954    109.4600    242.7829   1.0550081211e+02   9.1618546741e+00     0.241082    0.1569135  56.49 0.0007553137    1.503    0.335
       313 -11.6448      9.2297     24.9818   9.3231184260e+01   7.0168898408e+01    0.5348826    0.2656909  26.43  0.003071494    2.215    0.548
       314 -11.2206     88.7688    249.6543   1.1038234623e+02   1.0884696437e+01    0.2874086    0.1952062  36.17 0.0009918648    1.362    0.266
       315 -10.6801      7.7220     20.3484   9.2166229294e+01   7.1064982073e+01    0.1858363    0.1511544 -44.48 0.0005784918    1.422    0.297
       316  -9.6955    177.6493    234.6951   9.0419551099e+01   2.6776802302e-02    0.1332868    0.0901157   5.54 0.0007041447    1.704    0.413
       317 -10.7935    196.8728     24.8143   3.9132157037e+01   3.3132286859e+01    0.2300398    0.1689347  50.52 0.0007142222    1.526    0.345
       318  -9.9383    193.2096     25.2008   3.9650085843e+01   3.3949159941e+01    0.1845601    0.1349027 -69.28 0.0002899694    1.322    0.243
       319 -10.7941    185.8327     23.5941   4.0116965896e+01   3.5886882038e+01    0.3314171    0.2381273   4.77  0.001735206    2.094    0.523
       320  -9.2100    119.2715     25.3431   5.1697125833e+01   5.1757688382e+01    0.1391209   0.09573253  26.33  0.000699335    1.614    0.380
       321 -10.4650     62.3948     24.2287   6.8013400260e+01   6.3629707437e+01    0.3240564    0.1192137 -26.91 0.0008019941    3.054    0.673
       322 -10.5362    153.6538    233.2332   9.5100151976e+01   4.0365828371e+00      0.16633    0.1175398 -34.46 0.0003607214    1.631    0.387
       323 -11.5653    165.0472     23.0989   4.2739843547e+01   4.0968137941e+01    0.2473626    0.2193246  76.56            0    1.018    0.017
       324  -9.9912    108.1250     17.7551   5.1476298920e+01   5.5126916968e+01    0.2650655    0.1785973  40.00   0.00144062    1.359    0.264
       325 -10.1934     24.0890    232.4721   1.2154556885e+02   2.2238829483e+01    0.1881373    0.1600277 -71.16 0.0006653802    1.418    0.295
       326 -10.1323     38.2313    232.7861   1.1886475533e+02   2.0620068198e+01    0.1733475    0.1254522  68.33 0.0006618331    1.113    0.102
       327  -9.7631     50.4614     23.4211   7.2434628532e+01   6.5675318685e+01    0.1266766    0.1018126   3.95 0.0001309213    1.027    0.026
       328 -10.8479    156.2110     21.8666   4.3697644010e+01   4.3259070199e+01    0.2311527    0.1659373  78.38 0.0005246161    1.344    0.256
       329 -10.6098     59.0554     21.7248   6.8183021357e+01   6.4520227966e+01    0.1803935    0.1425586  15.77 0.0005384464    1.080    0.074
       330  -9.0196     28.4541     22.5813   8.2179566262e+01   6.8743012380e+01    0.1212827   0.09374508  -9.73 0.0005021277    1.019    0.019
       331  -9.5021    169.7255    229.3199   9.1185435716e+01   2.1517676694e+00    0.1193364    0.1007306  64.67 0.0003327539    1.572    0.364
       332 -10.0388     89.5817     20.7437   5.7473498059e+01   5.8850897729e+01    0.2516458    0.1297746  42.36 0.0007166914    1.725    0.420
       333  -9.2768    121.3012     20.3326   4.9489552241e+01   5.1825971729e+01    0.1409764   0.09214155  31.33 0.0007034173    1.653    0.395
       334 -11.9672     74.4685    233.4947   1.1168482080e+02   1.5937686791e+01    0.3875046    0.2059928  37.62  0.001530909    1.703    0.413
       335  -9.7862    190.5042    226.4829   8.6520177408e+01  -6.5058876235e-01    0.2349065    0.1239096 -40.03 0.0008151649    2.028    0.507
       336 -11.0934    120.3986    226.6029   1.0119725743e+02   1.0529967087e+01    0.2149494    0.1740658 -62.92 0.0008916378    1.394    0.283
       337 -11.2635     42.1209     19.0591   7.4059580705e+01   6.7499262809e+01    0.4126694    0.2369393  35.29  0.002256007    1.707    0.414
       338  -9.6693    140.1631     19.6495   4.5644969313e+01   4.7397089398e+01     0.200441    0.1031841  54.29 0.0004847007    1.702    0.412
       339 -10.0116     65.9665    226.2143   1.1273907403e+02   1.8550397398e+01    0.2012926    0.1651693 -87.68 0.0006539258    1.187    0.157
       340  -9.6255    143.2221     17.0054   4.4283304911e+01   4.6926095574e+01    0.1753628    0.1640022  65.98 0.0002210924    1.051    0.048
       341  -9.8318     17.5105    227.5199   1.2248872368e+02   2.3918481486e+01     0.116571    0.0865647  71.41 0.0003042677    1.024    0.024
       342 -10.8281      4.3940    226.1030   1.2485399462e+02   2.5473071302e+01     0.267641    0.1197301  53.12  0.001410553    1.796    0.443
       343 -11.5110     21.1261    222.3410   1.2148078478e+02   2.4615410497e+01    0.2676447    0.1735249  85.94  0.001101473    1.301    0.232
       344  -9.2929    126.5518    221.5471   9.9169367603e+01   1.0531417727e+01    0.1346935    0.1172637  49.92 2.500286e-05    1.076    0.071
       345  -9.8623    142.6081    220.8140   9.5580266722e+01   8.0616502462e+00    0.2624661   0.09574126  34.97 0.0009998451    2.577    0.612
       346  -9.4214     41.6876    220.6932   1.1726452631e+02   2.2715833001e+01    0.1078114   0.09212448 -43.91 0.0005013175    1.620    0.383
       347  -9.7787    203.7073     14.9672   3.6013961670e+01   3.2653031694e+01    0.1686779    0.1482432 -59.76 0.0004851666    1.134    0.118
       348 -10.3058    177.8576     15.1493   3.8852272289e+01   3.8716164669e+01    0.1994394    0.1550266 -71.68  0.000445211    1.245    0.197
       349 -11.6616      9.8271    217.3806   1.2336708298e+02   2.6759596542e+01    0.3260981    0.1759255  64.96  0.001965639    1.551    0.355
       350  -9.7897     37.9749    217.5272   1.1777328938e+02   2.3813082999e+01    0.1723871    0.1091202  38.33 0.0008494757    1.561    0.359
       351 -11.3312     30.0827    215.8371   1.1925674969e+02   2.5045328358e+01    0.3452604    0.2605858  15.59  0.002177422    1.913    0.477
       352 -10.1358     62.7518     14.5433   6.3509996057e+01   6.4742430254e+01    0.2525453    0.1133482  47.34  0.001206708    2.123    0.529
       353 -11.5418    235.9356    214.3710   7.5778095298e+01  -5.5575205081e+00    0.3393928    0.1836953 -27.90  0.001142015    1.719    0.418
       354  -9.7331     26.2049     14.1853   7.9384363363e+01   7.0232082823e+01    0.1723047    0.1179438  -7.36 0.0002540828    1.243    0.196
       355 -11.4335    240.7785    211.7722   7.4447548142e+01  -5.8563137501e+00    0.3580149    0.2309197  22.20  0.002117805    1.470    0.320
       356  -9.5801     31.0474     12.6956   7.6212136610e+01   6.9843249078e+01    0.1607213    0.1218858   6.93 0.0004682979    1.095    0.087
       357  -9.2817    194.6594    215.2933   8.3774511304e+01   5.1828127425e-01    0.1220427    0.1047015  61.62 0.0002438125    1.653    0.395
       358  -9.8883     67.1304    215.3068   1.1140614923e+02   2.0693761187e+01    0.1852821    0.1646633  16.40 0.0008259906    1.448    0.309
       359 -10.3438     21.4280    212.5878   1.2078006007e+02   2.6644037999e+01    0.2722874    0.1484331  60.12  0.001569661    1.593    0.372
       360 -10.0169    208.9414    212.0127   8.0376912278e+01  -1.1976155583e+00    0.2026623     0.164304   0.83 0.0004990772    1.085    0.078
       361  -9.5902     76.3190    212.3020   1.0906507914e+02   2.0087820013e+01    0.1204506    0.1029326 -22.93 0.0003395264    1.625    0.384
       362  -9.2576    107.5491     10.5017   4.8881394879e+01   5.5951599191e+01    0.1310643    0.1119711  43.12  0.000808559    1.019    0.018
       363 -12.4392      4.3281    208.4076   1.2392761952e+02   2.9158146575e+01    0.5855979    0.3097446 -85.86  0.003491545    1.570    0.363
       364 -10.5129     10.8043    208.5379   1.2265175518e+02   2.8544035657e+01    0.2148407    0.1621072 -55.69 0.0005927893    1.648    0.393
       365  -9.5433    188.3758    205.4656   8.3289805492e+01   3.2224111371e+00    0.1342265    0.1190948   1.42 0.0001156309    1.030    0.029
       366 -10.8755     19.6589    200.8544   1.2031956104e+02   2.9382133263e+01     0.356791     0.114242 -65.81   0.00152488    2.690    0.628
       367 -10.2917    175.3565    202.8371   8.5531755862e+01   5.9034909023e+00     0.225503     0.178813  41.00 0.0005189271    1.268    0.212
       368  -9.7603    243.4832    202.4325   7.2250328186e+01  -4.8636956155e+00    0.1261887    0.1019622  -7.16 0.0001029331    1.018    0.017
       369 -10.3720    107.8435    209.8337   1.0167281656e+02   1.5904537781e+01     0.196626    0.1510938  64.10 0.0008815264    1.339    0.253
       370 -10.4100     24.0589    216.3199   1.2050601708e+02   2.5578142637e+01    0.1616126    0.1498594  27.54  0.001068606    1.468    0.319
       371  -9.0793     34.3242    201.2974   1.1721407914e+02   2.7771678252e+01    0.1140262    0.0918396 -45.30  0.000702373    1.626    0.385
       372  -9.2277    238.6576    200.7081   7.2772248792e+01  -3.9118748751e+00     0.132421   0.08542495  -0.49 0.0007027145    1.654    0.396
       373  -9.4130    215.6551    194.6862   7.5848275227e+01   5.7957680718e-01    0.1418933   0.09463813  -0.34 0.0007047225    1.712    0.416
       374 -10.8937     16.4338    193.2262   1.2044830664e+02   3.1398827656e+01    0.2766957    0.2149672  16.28  0.001334713    1.773    0.436
       375 -10.1569     54.9732     23.5373   7.0621158813e+01   6.4952852470e+01    0.1912087    0.1127578  37.35  0.001038977    1.617    0.382
       376  -8.9130    101.6850    192.3130   1.0055876041e+02   2.0723881406e+01    0.1467701    0.1029702  69.00  0.000484212    1.640    0.390
       377  -9.5735    211.4963    188.4875   7.5439849196e+01   2.3163257796e+00    0.1388673    0.1188171  -4.74 -4.870966e-05    1.033    0.032
       378  -9.4126      1.7660    188.0074   1.2323149643e+02   3.3849197226e+01    0.1572146   0.08002339 -81.19 0.0008186314    1.599    0.375
       379 -11.1653     16.5302    184.5744   1.1976491330e+02   3.3366461739e+01     0.412495    0.1820558 -78.12  0.002039478    1.944    0.486
       380 -10.0089     14.7072    180.6561   1.1986452447e+02   3.4437606961e+01    0.1925559    0.1522997 -64.75 0.0006096532    1.309    0.236
       381  -9.6025     61.6503    184.8407   1.0921344314e+02   2.8322203020e+01    0.1957501    0.1169458 -81.52 0.0009435849    1.732    0.423
       382 -10.0175    167.4974    183.5098   8.3602755444e+01   1.1036078786e+01    0.1449886    0.1360714   9.12 2.969343e-05    1.003    0.003
       383  -9.7982     58.7999    182.1987   1.0958118749e+02   2.9318491003e+01    0.1799485    0.1552268 -47.69 0.0009339016    1.343    0.256
       384  -9.3025      1.5427    180.5019   1.2279077774e+02   3.5566961490e+01    0.1204175   0.09303255  87.09 0.0001648961    1.009    0.009
       385  -9.9295    244.4591    178.4833   6.7462734387e+01  -1.3080524948e+00    0.2382673     0.106051 -27.76  0.001024122    2.297    0.565
