#   1 NUMBER                 Running object number                                     
#   2 MAG_AUTO               Kron-like elliptical aperture magnitude                    [mag]
#   3 X_IMAGE                Object position along x                                    [pixel]
#   4 Y_IMAGE                Object position along y                                    [pixel]
#   5 X_WORLD                Barycenter position along world x axis                     [deg]
#   6 Y_WORLD                Barycenter position along world y axis                     [deg]
#   7 A_WORLD                Profile RMS along major axis (world units)                 [deg]
#   8 B_WORLD                Profile RMS along minor axis (world units)                 [deg]
#   9 THETA_WORLD            Position angle (CCW/world-x)                               [deg]
#  10 FWHM_WORLD             FWHM assuming a gaussian core                              [deg]
#  11 ELONGATION             A_IMAGE/B_IMAGE                                           
#  12 ELLIPTICITY            1 - B_IMAGE/A_IMAGE                                       
         1 -13.6019    223.8045    139.7542   2.7648799644e+01   9.2735133450e+00     8.049559     2.077304 -47.60   0.01215662   11.002    0.909
         2 -14.3144    208.6991    100.1521   2.1240780746e+01   1.8518794989e+01     4.289017     2.449906 -44.42   0.01420359    1.636    0.389
         3 -13.0516    219.6004    115.3890   2.3048416697e+01   1.3910134469e+01     7.576988     1.960176 -48.98  0.003205067   13.279    0.925
         4 -13.9103    243.2918     60.0120   7.8206578065e+00   1.7527167254e+01     2.658031     2.240707  75.67   0.01620912    1.338    0.253
         5  -9.4342    236.3102     17.8966   3.5927875082e+02   2.4050692498e+01    0.3672583   0.08147229 -38.48  0.001504532    2.966    0.663
         6  -8.5418    225.3524     16.3570   3.5966667062e+02   2.6503545516e+01    0.3084411   0.08027095 -34.83  0.001260324    2.939    0.660
         7  -7.8038    221.2970     14.7570   3.5958443302e+02   2.7548240433e+01    0.2616297   0.07106496 -37.36  0.001088525    2.742    0.635
         8 -11.0617    245.6314     10.9461   3.5727054040e+02   2.2937458224e+01    0.5174415    0.4705728 -89.01  0.003943483    1.309    0.236
         9  -9.3149    232.5750     10.2536   3.5786584660e+02   2.5639220728e+01    0.2721482    0.1077213 -28.49  0.001286797    2.543    0.607
        10 -10.0147    243.7826      4.1915   3.5598574515e+02   2.4000500375e+01    0.2633952    0.2079103  73.62 0.0004346544    1.459    0.315
        11  -8.9693    239.0000    213.0105   3.8892300195e+01  -3.4131696628e+00     0.284404    0.1065091 -28.35  0.001376355    2.595    0.615
        12 -11.1846    242.2648    240.2275   4.2684180941e+01  -6.9849694577e+00     1.191482    0.4610051 -16.37  0.005143496    4.031    0.752
        13  -9.3310    239.5766    250.2856   4.4620309082e+01  -7.7813118300e+00    0.3933568    0.1073395  28.25  0.001812063    3.317    0.699
        14  -9.7571    247.6113    213.6868   3.7614136039e+01  -4.5295877009e+00    0.3886445    0.1745842 -42.98  0.001961359    3.108    0.678
        15  -7.6088    218.5350    211.5161   4.2135136094e+01  -5.9652269987e-01    0.1211414   0.09493909   2.65 0.0001639123    1.014    0.014
        16  -8.2128    214.1960    210.0744   4.2668453474e+01   1.8691423733e-01     0.307798    0.1310545 -37.59  0.001518292    2.386    0.581
        17  -9.4195    228.2119    208.9857   4.0024486041e+01  -1.5363881029e+00    0.3409078    0.1463001  33.78  0.001759398    2.209    0.547
        18 -12.9097    193.4355    128.9016   3.0546796195e+01   1.6708694441e+01     2.122248     1.853235  -9.03   0.01204532    1.151    0.131
        19 -10.0739    244.9788    246.6287   4.3206065766e+01  -7.9699034493e+00    0.5037896    0.2078369 -16.01  0.002560395    2.983    0.665
        20  -7.6880    181.3154    249.3169   5.4816556951e+01  -6.9827022087e-01    0.1203096   0.07464097   5.30 0.0005002014    1.649    0.394
        21 -14.0191    248.5647    133.8099   2.2743032198e+01   6.1216326872e+00     2.658631    0.7795939 -29.47  0.004672278    4.009    0.751
        22 -12.6982    229.4050    118.1806   2.2196187411e+01   1.1669257344e+01    0.4785163    0.3541314 -45.50 0.0009161147    1.305    0.234
        23 -13.3897    241.1721     80.9118   1.2568961264e+01   1.5060473256e+01     1.166111    0.4188809  60.53  0.003820599    3.267    0.694
        24 -13.3789    249.1577    110.5275   1.7909552471e+01   9.3965390428e+00     1.288203    0.3371829 -33.36  0.004656061    3.432    0.709
        25 -12.2050    228.0557    111.1075   2.0851367200e+01   1.3009835364e+01     0.366253    0.2567939 -51.26 0.0003032875    1.476    0.323
        26 -13.1700    234.7242    107.3482   1.9107257630e+01   1.2369996410e+01    0.5431965    0.3728589  28.83  0.001532823    1.885    0.469
        27 -14.0546    243.3584     99.1775   1.6242420565e+01   1.2038266304e+01       0.8436    0.5892587 -18.00  0.003346041    1.562    0.360
        28 -12.9796    244.4611     87.5217   1.3622437681e+01   1.3518401281e+01    0.5797221    0.4632017  -3.48  0.001035005    1.556    0.357
        29 -13.2546    240.0519    112.3627   1.9467856054e+01   1.0676091692e+01    0.5085018    0.3619654  50.07  0.001167919    1.649    0.394
        30 -12.4250    241.6619    107.1314   1.8147303809e+01   1.1171219293e+01    0.2433055    0.2217725 -23.26 0.0003358369    1.100    0.091
        31  -9.2149    124.0147    206.0067   6.0830915602e+01   1.4642781623e+01    0.1974554    0.1689703  32.90  0.001175671    1.003    0.003
        32  -8.8597    197.3216    203.8623   4.4750859982e+01   3.4843279949e+00    0.2519371    0.1825796  28.03 0.0009846182    1.255    0.203
        33  -9.9444    218.8514    198.9397   3.9922934889e+01   1.0958977258e+00    0.2616385    0.2299018   2.64 0.0004577934    1.216    0.178
        34  -9.5551    223.8421    170.8662   3.3891304177e+01   4.4622753885e+00     0.437963    0.2115589 -28.94  0.002061975    1.985    0.496
        35  -9.7705    237.1799    188.2285   3.4899473886e+01   5.6214860960e-02    0.4193332     0.204152 -40.30  0.002194241    2.148    0.535
        36 -10.3742    229.8533    186.1180   3.5728954568e+01   1.3596566089e+00    0.6782899    0.2384441  40.68  0.001054148    3.047    0.672
        37 -10.9612    223.7261    183.7529   3.6337374562e+01   2.5752442969e+00    0.7490187    0.3013569 -39.71 0.0003755976    2.460    0.594
        38  -8.2074    187.1323    196.5240   4.5472848604e+01   6.1767256001e+00    0.1952397    0.1894748 -27.82  0.001284718    1.356    0.263
        39 -10.9042    235.8232    195.9100   3.6489000077e+01  -7.9993138871e-01    0.5537297     0.352478  20.17  0.001964567    1.474    0.322
        40  -9.2796    198.9217    191.9297   4.2346640817e+01   5.0699487925e+00    0.2466094    0.2376258  27.52  0.000694858    1.378    0.274
        41  -7.7569    168.0000    192.9665   4.8809512314e+01   9.8544400062e+00    0.2092785   0.07667319 -44.32  0.000804564    2.957    0.662
        42  -8.4457    209.4573    196.0469   4.1106527443e+01   2.8602976754e+00    0.2659708    0.1142947 -42.61  0.001213816    2.583    0.613
        43  -7.3231    205.3003    191.3240   4.1030723685e+01   4.1881719595e+00    0.1326882   0.08734762  -1.09 0.0007027469    1.632    0.387
        44  -8.3702    166.7577    185.9993   4.7836735737e+01   1.1295647266e+01    0.1748194    0.1153231 -40.60 0.0008861854    1.613    0.380
        45  -8.6435    211.5034    182.4379   3.8255352243e+01   4.5987457525e+00    0.2500116    0.1162005 -37.55  0.001018105    2.083    0.520
        46  -7.4264    182.6618    181.2997   4.3613752118e+01   9.4293759993e+00    0.1259715    0.1094658  68.86 0.0004685777    1.662    0.398
        47  -8.5138    192.6967    178.5819   4.1084615010e+01   8.2139492908e+00    0.2643158    0.2026717 -76.53 0.0009657525    2.535    0.605
        48  -8.3874    201.1238    182.2768   4.0153037728e+01   6.2456100440e+00    0.2848042    0.1588276 -46.38   0.00136374    2.126    0.530
        49  -8.0681    182.9997    176.3182   4.2599740771e+01   1.0231219971e+01    0.1968899     0.165282  17.84 0.0007110919    1.086    0.079
        50  -7.6968     47.9826    171.7622   7.6004887862e+01   3.3333610905e+01    0.1748192    0.1088265  31.43 0.0004551316    1.561    0.360
        51  -9.5602    192.1273    167.8992   3.9120839215e+01   1.0111333795e+01    0.2801826    0.2092616 -42.66 0.0003684445    1.437    0.304
        52  -7.7720    183.3947    168.7999   4.1053427958e+01   1.1478613319e+01    0.1937447    0.1221205 -26.04 0.0003965116    1.695    0.410
        53  -9.3970    216.6268    166.3999   3.4269328337e+01   6.2737815419e+00    0.3338498    0.2995146 -59.60 0.0003686831    1.562    0.360
        54  -9.9031    223.5655    162.8404   3.2377585980e+01   5.7213931046e+00    0.5988427    0.1436438 -41.64  0.001973593    4.256    0.765
        55  -7.7250    190.5896    159.1809   3.7662975871e+01   1.1890102207e+01    0.1893515    0.1230148 -25.11 0.0003862949    1.600    0.375
        56  -8.9827    218.6597    157.5792   3.2164446332e+01   7.3260355874e+00    0.2999289    0.1849823  54.63  0.001493394    2.287    0.563
        57  -8.5754    196.8889    156.9704   3.5983378811e+01   1.1148153386e+01    0.2619839    0.1828357 -41.62  0.000752855    1.459    0.314
        58  -9.6370    220.1277    150.6621   3.0511753865e+01   8.1735396552e+00    0.3904728    0.1972729 -49.94  0.001181028    2.604    0.616
        59  -9.8860    188.3187    146.7079   3.5484710383e+01   1.4520147657e+01    0.6575039    0.4109553  66.90   0.00170045    2.924    0.658
        60  -8.1307    133.4191    148.3490   4.8323665923e+01   2.4978228676e+01    0.2722797    0.1470177 -43.86 0.0006625064    1.948    0.487
        61  -7.9467    212.2116    147.9456   3.1305619122e+01   9.9610507371e+00    0.1905737    0.1664212 -46.00 0.0003340967    1.298    0.230
        62  -7.9725    196.0296    243.7531   5.1267717530e+01  -1.8841928211e+00    0.1983409    0.1063409  10.15  0.001062718    2.028    0.507
        63  -7.6094    163.4295    150.5119   4.1562195533e+01   1.8608003973e+01    0.1468038    0.1371858   4.06 0.0001139551    1.020    0.020
        64  -8.9884    174.8132    139.7067   3.6704179756e+01   1.8443239110e+01    0.3129164    0.2383257 -61.30 0.0006225479    1.645    0.392
        65  -8.3326    210.5209    138.3528   2.9566551984e+01   1.1841265609e+01    0.2441419    0.2077498 -86.20  0.001082483    1.686    0.407
        66 -12.4821    239.3362    140.9786   2.5504854153e+01   6.5229771311e+00    0.4933471    0.3356802 -21.03 0.0002994096    1.355    0.262
        67  -7.5739    147.0070    131.4944   4.1128412284e+01   2.5829465094e+01    0.2092657    0.1343574  67.22 0.0008066516    2.327    0.570
        68 -14.6116    239.8309    125.5728   2.2272108732e+01   8.7412974079e+00     1.392083     1.016202  13.13   0.00608896    1.674    0.403
        69  -8.3297    166.0822    126.4958   3.5525505846e+01   2.2796809554e+01    0.2806222    0.2120415 -58.17  0.001092797    1.526    0.345
        70  -7.5189    143.4647    125.4348   4.0550965360e+01   2.7864801908e+01    0.1531466    0.1495078  45.78 4.412685e-05    1.030    0.029
        71  -9.3770     50.4382    123.0081   6.8554052078e+01   4.5397961316e+01    0.3438498    0.1914316  72.34  0.001320602    2.605    0.616
        72  -8.0486    151.7292    121.4032   3.7556737446e+01   2.6914821610e+01    0.2943597    0.1474307  49.75  0.001121458    2.053    0.513
        73  -8.8278    170.8053    117.4620   3.2325356624e+01   2.3530628854e+01    0.3570319    0.2526819  76.88  0.001558696    2.062    0.515
        74  -7.6322    162.3176    117.6892   3.4210999068e+01   2.5341535642e+01    0.1521215    0.1218244 -83.45 0.0004154302    1.640    0.390
        75  -8.1205    153.2514    114.9861   3.5592062550e+01   2.7888292510e+01    0.2836362    0.2227493  77.08  0.001317703    1.608    0.378
        76  -9.0285      5.4134    114.2025   8.3417552350e+01   5.1816505380e+01    0.1911419    0.1101454  87.42 0.0009497533    1.659    0.397
        77  -8.7111    176.2753    112.1974   2.9904892728e+01   2.3330163906e+01    0.2725125    0.1974452  83.51 0.0009920096    2.017    0.504
        78  -9.5699    161.4839    109.8181   3.2409054753e+01   2.7069887955e+01    0.6249059    0.2451372 -50.90   0.00198376    3.208    0.688
        79  -9.7186    154.5225    107.1930   3.3288948705e+01   2.9164750357e+01    0.4633825     0.286704 -53.56  0.001828515    1.808    0.447
        80  -7.5039    141.4827    104.4903   3.5677662102e+01   3.2698933700e+01    0.1549023    0.1530038  43.98 0.0008103469    1.008    0.008
        81  -9.0205    174.0764    100.9042   2.7490587932e+01   2.5903458249e+01    0.5157293    0.2018706 -41.12  0.001847211    2.455    0.593
        82  -8.0956    171.3961     95.2286   2.6541226974e+01   2.7551097884e+01    0.3536703     0.154584 -37.25  0.001313578    2.265    0.559
        83  -9.3443    168.9975     90.4351   2.5739481609e+01   2.8976155167e+01    0.4497028    0.2257515 -50.29  0.001542886    2.192    0.544
        84  -9.0362    157.0882    101.1788   3.1120575229e+01   2.9753935703e+01    0.3914087    0.2410279 -52.72  0.001334736    1.788    0.441
        85  -9.1007    169.2715    106.9436   3.0011652156e+01   2.5867535661e+01    0.3004939    0.2807466 -36.94  0.001525164    1.052    0.049
        86  -7.9298    167.0457     99.3068   2.8492855980e+01   2.7806306955e+01    0.2123447    0.1990532  58.12 0.0006812669    1.084    0.077
        87  -8.2217    128.5178     97.5054   3.7094686026e+01   3.7136673626e+01    0.1573165    0.1534664  68.24 3.345699e-05    1.022    0.022
        88  -9.3353    159.5688     95.7255   2.9112481869e+01   3.0218011188e+01    0.3379706    0.2882057  54.35   0.00114981    1.178    0.151
        89  -8.9460    154.7105     95.1209   3.0010913997e+01   3.1476524821e+01    0.2531395    0.1916682 -60.83  0.001176151    1.481    0.325
        90  -9.3392    164.9354     94.1316   2.7552377496e+01   2.9256488839e+01    0.3021646    0.2396067 -49.69 0.0008269569    1.265    0.210
        91  -8.6833    148.7017     94.5718   3.1224498202e+01   3.3002766623e+01     0.280858    0.1887043 -60.50   0.00119061    1.795    0.443
        92  -7.9036    101.2923     94.3573   4.4185106376e+01   4.3867847519e+01    0.1613784    0.1254045  -8.61 0.0007029526    1.690    0.408
        93  -9.1207    176.6742     92.0026   2.4677075946e+01   2.6908226287e+01    0.3519544    0.2317311 -43.08  0.001088371    1.468    0.319
        94  -9.4201    159.0291     89.8663   2.7625802174e+01   3.1441071214e+01    0.3558259     0.207751 -26.23  0.001374042    2.118    0.528
        95  -7.9917    142.3661     90.1596   3.1475185088e+01   3.5370407939e+01    0.2289834    0.1423938 -49.78 0.0009521396    1.698    0.411
        96 -13.3227    237.3111     88.7373   1.4722890597e+01   1.4657439719e+01    0.5291054    0.3964624 -42.08 0.0005143473    1.134    0.118
        97  -8.0685    151.3125     87.9845   2.8780420329e+01   3.3640795204e+01    0.2229937     0.202582 -41.64 0.0006588002    1.110    0.099
        98  -9.2910    174.1739     88.0074   2.4091426410e+01   2.8192290650e+01    0.3620687    0.2308819 -58.58  0.001455232    1.835    0.455
        99  -7.7591    147.6644     84.6991   2.8663080088e+01   3.5138986710e+01     0.157429    0.1222537  18.54 0.0007035282    1.659    0.397
       100  -8.1660    170.1564     82.2195   2.3287636944e+01   3.0151841742e+01    0.2238813    0.2083889   9.49 0.0008285475    1.214    0.176
       101  -7.9210    175.5072     80.5405   2.1842454005e+01   2.9164736805e+01    0.1466428    0.1400723 -68.00 0.0007772302    1.005    0.005
       102  -8.7500    165.1677     80.3987   2.3744367707e+01   3.1667667647e+01    0.2090558    0.1433695  71.04 0.0009292858    1.643    0.391
       103  -7.7315    142.4893     80.4928   2.8623610594e+01   3.7186206638e+01    0.1539187    0.1501459  47.23 0.0001140093    1.047    0.045
       104  -8.5598    150.2169     78.0706   2.6163206276e+01   3.5732404121e+01    0.3039869    0.2071704 -55.70  0.001342621    1.615    0.381
       105  -9.2190    175.0178     75.5141   2.0565079278e+01   3.0123407819e+01     0.360874    0.2311659  85.62   0.00153066    2.129    0.530
       106  -9.0730    175.1518     68.5399   1.8626184882e+01   3.1225654702e+01    0.5491721    0.2170434 -31.13  0.001949069    2.768    0.639
       107  -9.6091    157.9280     74.5511   2.3519802646e+01   3.4451368234e+01    0.3496561    0.2701371 -24.21  0.000566013    1.459    0.315
       108  -8.8087    163.5068     75.0449   2.2560330195e+01   3.2994925965e+01    0.2323748    0.1459899 -37.75  0.001030879    1.584    0.369
       109 -12.7357    230.3907    101.3530   1.8380362948e+01   1.4073672900e+01    0.6119606    0.4804716 -45.52  0.001391906    1.165    0.141
       110  -7.6618    128.6274     73.2047   2.9775972715e+01   4.1943756756e+01    0.2101448    0.1503776 -27.28 0.0006932062    1.592    0.372
       111  -8.8644    170.1478     70.0978   1.9930360450e+01   3.2193690025e+01    0.3479511    0.2198175 -31.53   0.00126942    1.659    0.397
       112  -8.9131    163.8392     71.1888   2.1397677175e+01   3.3563309196e+01     0.281765     0.206464  84.18  0.001323024    1.579    0.367
       113  -9.1670    147.9410     70.0096   2.4253120134e+01   3.7718474486e+01    0.2669098     0.238226 -80.35 0.0003403162    1.157    0.136
       114  -9.5624    145.4018     66.7920   2.3817820747e+01   3.8907196366e+01    0.3033841    0.2443516 -22.90  0.001492587    1.407    0.289
       115  -7.7153     86.4548     68.5126   4.1034492210e+01   5.2578218103e+01    0.1514512    0.1453437  14.64 7.985069e-05    1.021    0.020
       116  -8.9333    197.2742     62.9584   1.3763673617e+01   2.6839056701e+01    0.3109807    0.2163202 -20.43  0.001153141    1.709    0.415
       117  -8.9265    234.4532    217.6035   4.0403970529e+01  -3.4270749345e+00    0.3341228    0.1577432 -25.45  0.001705118    2.006    0.501
       118  -7.7295    172.0013     62.2806   1.7410279950e+01   3.2981859833e+01    0.1994637    0.1838988  80.49 0.0007624389    1.058    0.055
       119  -7.9357    201.6451     58.2227   1.1982419489e+01   2.6523948822e+01    0.2446638    0.1858881 -29.30 0.0008314624    1.373    0.272
       120  -8.3432    203.7373     54.0814   1.0680653139e+01   2.6630473131e+01     0.320385    0.1761698 -41.28  0.001543886    1.629    0.386
       121  -8.6976    132.3327     58.6565   2.4159732211e+01   4.3579224249e+01     0.324066    0.1967854 -28.04  0.001371276    1.885    0.469
       122  -8.7000    197.9252     56.4055   1.1998765415e+01   2.7638162999e+01    0.4019251    0.2511061  -6.04  0.001702537    2.768    0.639
       123  -7.9615    164.4776     58.4958   1.7610427086e+01   3.5438975586e+01    0.1480807    0.1373601 -80.56 0.0008101678    1.021    0.020
       124  -8.8344    192.2478     54.2965   1.2199017285e+01   2.9266607647e+01    0.4015067    0.2700233  15.77  0.001775458    2.590    0.614
       125  -7.3965    125.2917     54.2917   2.4371622220e+01   4.6078675385e+01    0.1504519    0.1161636  25.80 0.0001840859    1.549    0.355
       126  -7.9908    183.4613     52.8759   1.3030197787e+01   3.1574589579e+01    0.2148453    0.1327013 -36.49   0.00102273    1.573    0.364
       127  -8.6154    153.0736     51.8220   1.7653386803e+01   3.9347158344e+01    0.3359172    0.2226379 -21.71  0.001130319    1.818    0.450
       128  -8.9749    228.5124     46.3587   6.1895198176e+00   2.2264308297e+01     0.197382    0.1159691  71.90 0.0007806012    1.821    0.451
       129  -9.4478    219.3944     45.8274   6.9480595471e+00   2.4265144951e+01    0.3625991     0.153558  59.47  0.001640625    2.482    0.597
       130  -7.8249    202.4057     45.8233   8.7623327951e+00   2.8058708601e+01    0.1812518    0.1278861 -18.89 0.0009388612    1.730    0.422
       131  -7.5901    185.5291     43.4394   1.0188947871e+01   3.2375878823e+01    0.1377641    0.1259668 -78.08 9.791902e-05    1.035    0.034
       132 -13.0803    226.4787     92.4079   1.6905753177e+01   1.6177108782e+01    0.9755696    0.6242687 -42.50 0.0001275257    1.369    0.269
       133  -7.9760    215.9051     41.2684   6.2145036383e+00   2.5612049522e+01    0.1799803    0.1528522 -89.12 0.0008783395    1.158    0.136
       134 -12.0848    250.3844    141.8425   2.4090956111e+01   4.6891219331e+00     0.298554    0.1499853 -32.76 0.0006869017    1.659    0.397
       135 -12.4218    249.9643     74.0465   1.0165927485e+01   1.4397821661e+01    0.3765937    0.2300985 -34.96 0.0004135447    1.385    0.278
       136  -7.9344    242.3951     36.7671   2.8956213654e+00   2.0650120687e+01    0.1629395    0.1246011 -62.74 0.0004385564    1.114    0.102
       137  -8.9699    232.1005     31.8314   2.6194591182e+00   2.3319619279e+01    0.1945706    0.1376875 -58.47 0.0005213658    1.184    0.156
       138  -8.3748    228.7408     29.1548   2.2859019489e+00   2.4336007431e+01     0.320859    0.1522492 -19.71  0.001396511    3.039    0.671
       139  -9.9917    236.2371     27.0497   1.2594421171e+00   2.3032748672e+01     0.313511    0.2109477 -50.65  0.001953529    1.202    0.168
       140 -10.0665    243.0027     23.2216   3.5997706249e+02   2.2113579251e+01    0.4081612    0.1423166 -37.81  0.001960255    2.198    0.545
       141  -9.3869    249.6566     21.6760   3.5923599261e+02   2.0990705863e+01    0.3136306     0.172077  84.35  0.001847117    1.903    0.475
       142  -9.8970    249.3827     18.1777   3.5853732771e+02   2.1430478284e+01    0.2936256    0.2492289 -54.63   0.00216262    1.153    0.133
       143  -8.6290    229.9767     20.3163   2.2826133255e-01   2.5090174054e+01    0.1736351     0.137496 -75.23 0.0007319374    1.118    0.106
       144 -13.2260    245.4072     68.8133   9.5090794159e+00   1.5946897803e+01      2.37387    0.6875185  48.89  0.001923044    5.036    0.801
       145  -9.9929    249.9278    248.1148   4.2636999246e+01  -8.6444583086e+00    0.4259294    0.1930872 -25.33  0.002681274    2.001    0.500
       146  -8.2689    223.6235    225.4636   4.3519724989e+01  -3.0674994221e+00    0.2887013    0.1471562  10.20  0.001502361    2.241    0.554
       147  -8.8294    239.3917    206.5758   3.7746764632e+01  -2.6514176358e+00    0.2948632    0.1936551  54.22  0.001543291    3.414    0.707
       148  -9.0473    236.4573    209.0534   3.8648782210e+01  -2.5991724736e+00    0.2345835    0.1351937 -35.64  0.001267402    1.777    0.437
       149 -10.0370    240.7006    217.9490   3.9428414176e+01  -4.2261506692e+00    0.4885097    0.2491226 -15.20  0.002749315    1.998    0.500
