#   1 NUMBER                 Running object number                                     
#   2 MAG_AUTO               Kron-like elliptical aperture magnitude                    [mag]
#   3 X_IMAGE                Object position along x                                    [pixel]
#   4 Y_IMAGE                Object position along y                                    [pixel]
#   5 X_WORLD                Barycenter position along world x axis                     [deg]
#   6 Y_WORLD                Barycenter position along world y axis                     [deg]
#   7 A_WORLD                Profile RMS along major axis (world units)                 [deg]
#   8 B_WORLD                Profile RMS along minor axis (world units)                 [deg]
#   9 THETA_WORLD            Position angle (CCW/world-x)                               [deg]
#  10 FWHM_WORLD             FWHM assuming a gaussian core                              [deg]
#  11 ELONGATION             A_IMAGE/B_IMAGE                                           
#  12 ELLIPTICITY            1 - B_IMAGE/A_IMAGE                                       
         1 -11.7580     79.6322     23.4540   8.9372249706e+01   6.0132039592e+01    0.9316024    0.2779506  42.13  0.003692281    2.930    0.659
         2  -8.5362    144.7193     23.3952   7.2940639707e+01   4.6121930450e+01    0.2325074    0.1950082  47.94 0.0002863186    1.096    0.088
         3  -8.8119     46.0703     21.0882   1.0070064514e+02   6.5635864188e+01    0.3268406    0.1545344 -35.18   0.00177141    2.046    0.511
         4  -9.1242    230.4339     19.2092   6.0092243673e+01   2.5747530147e+01    0.3804835    0.2096875 -38.43  0.001614127    1.871    0.466
         5  -8.8857    103.9510     16.2097   7.9588289126e+01   5.6143953839e+01    0.3652594    0.1665911  21.32   0.00133814    3.837    0.739
         6  -9.3346     64.4482     13.3910   9.0463828544e+01   6.3851212960e+01    0.4225467    0.2268781  -5.60  0.001747098    2.237    0.553
         7  -9.4577    134.1912     13.4552   7.1882819598e+01   4.9633928115e+01    0.3357171    0.2024685  37.46  0.001733538    1.671    0.401
         8  -9.4174     79.3172     12.9456   8.5330462257e+01   6.1325718487e+01    0.4089215    0.1923282  47.79  0.001316624    1.890    0.471
         9  -8.7477     74.4577     13.5008   8.7105102961e+01   6.2142793742e+01     0.227674     0.179292   7.35   0.00086428    1.130    0.115
        10  -8.5400     96.5801     12.3275   8.0093135056e+01   5.8043892255e+01    0.3954918    0.1466199  35.69  0.001417184    2.892    0.654
        11  -9.3401     32.2059     10.7990   1.0223451731e+02   6.8622984330e+01    0.4327526    0.1984092  18.60 0.0005926748    2.348    0.574
        12  -9.2097     32.1256      6.2445   1.0023827215e+02   6.9172828783e+01    0.4436974    0.1998752  19.39 0.0003415877    2.379    0.580
        13  -8.8043    129.8647     11.0174   7.1952600912e+01   5.0868952964e+01    0.2678162    0.1810179  -4.02  0.001128049    1.844    0.458
        14  -8.7059    112.9264     11.2504   7.5644726189e+01   5.4679451688e+01    0.2816606     0.142864  32.67 0.0009478095    2.094    0.522
        15  -8.7724    125.2081     10.2558   7.2641970366e+01   5.2011161048e+01    0.2452993    0.1664382  52.86 0.0004231276    1.211    0.174
        16  -8.2490     87.9402     13.1657   8.2820607724e+01   5.9680098485e+01    0.2222379    0.1600947  17.77 0.0008080213    1.300    0.231
        17  -8.5318     71.7002      9.0228   8.6173786536e+01   6.3072103354e+01     0.165946    0.1303993   9.70 0.0004561365    1.112    0.101
        18  -8.9138     41.0480      5.8527   9.6202963352e+01   6.8105743772e+01    0.3561279    0.1815015 -10.88   0.00129025    2.134    0.531
        19  -9.6251     46.5984      6.4629   9.4202265791e+01   6.7286531714e+01    0.2916009    0.1790609  20.27 0.0001032757    1.390    0.281
        20 -10.0808      8.1391      5.2394   1.1128098554e+02   7.1638675434e+01     0.485067    0.2110735   6.14  0.002540892    2.716    0.632
        21  -8.6174    156.8414      6.0884   6.5796791606e+01   4.4876173079e+01    0.2970183    0.1590144  19.07  0.001258607    3.275    0.695
        22  -9.3615     76.4821      5.8260   8.3335390942e+01   6.2516336397e+01    0.3376006    0.2490056 -12.89  0.002216637    1.401    0.286
        23  -7.3108    175.4457      6.5105   6.3304062915e+01   4.0297316820e+01    0.1319372    0.1086081  80.43 0.0001064196    1.041    0.039
        24  -8.2105    134.1396      3.0928   6.8635811815e+01   5.0549006341e+01    0.2540638    0.1431426  41.86 0.0003366043    1.670    0.401
        25  -8.0794    100.7753      6.2833   7.6769603386e+01   5.7716360053e+01    0.1811513    0.1189642  32.55  0.001049405    1.363    0.267
        26  -8.3793    105.1051      2.0971   7.4210031262e+01   5.7141080588e+01    0.4269773    0.1333776  39.31  0.001651079    3.167    0.684
        27  -9.0001     92.3115      5.4013   7.8615884290e+01   5.9523015448e+01     0.394011    0.1646922  47.58  0.001779581    1.886    0.470
        28  -9.6595     84.8858      5.4502   8.0684989856e+01   6.0976700908e+01    0.2443293    0.1998803   9.54  0.001655019    1.171    0.146
        29  -8.2039    130.5125      5.5110   7.0063773877e+01   5.1195819060e+01    0.2739698    0.1475047  44.25  0.001399577    1.654    0.395
        30  -8.6520    111.4633      4.5091   7.3624862324e+01   5.5576768161e+01    0.2608625    0.1299806  43.94 0.0008812615    1.673    0.402
        31  -8.6457    110.5195      1.5365   7.2793631581e+01   5.6017033829e+01    0.2384098    0.1600501  54.04 0.0007818509    1.220    0.180
        32  -8.5071     56.8368      2.9632   8.8723148658e+01   6.6112917418e+01    0.3003215    0.1240214  35.33  0.001547715    2.074    0.518
        33  -8.3155    143.1339      2.0847   6.6790377645e+01   4.8510127369e+01    0.1886652    0.1568979  62.23 0.0003769836    1.018    0.018
        34  -9.1915    119.2606      6.7785   7.2719035077e+01   5.3661254455e+01    0.2392481    0.1707029  39.68 0.0002047908    1.241    0.194
        35  -7.9987      2.8095      1.3679   1.1233185448e+02   7.2542770713e+01    0.1384767   0.07475431   2.71 0.0005074726    1.685    0.406
        36  -7.8126     93.9797    103.4849   1.1083904412e+02   4.3716736499e+01    0.2218478    0.1454945  36.99 0.0006824057    1.582    0.368
        37 -10.0066    211.9514    249.3973   1.1240871906e+02  -8.9575331347e+00    0.3402984    0.2169242  28.66  0.001970637    1.319    0.242
        38  -7.4590    130.2554     96.9813   9.8620373705e+01   3.7874839495e+01    0.1975162    0.1336588 -43.12 0.0003733782    1.500    0.333
        39  -9.7233     15.8767     95.1106   1.3387660419e+02   5.4874857485e+01    0.3137274    0.2672241 -52.15  0.001176564    1.073    0.068
        40 -10.2153     12.2273     93.7569   1.3479970968e+02   5.5401413742e+01    0.4827887    0.2293243 -28.95  0.002271659    2.549    0.608
        41  -7.9405     83.4722     93.5017   1.1143222698e+02   4.7659240963e+01    0.2460909    0.1376467  23.00  0.001027295    2.271    0.560
        42  -8.6717     44.3955     92.0197   1.2387945867e+02   5.3154620210e+01    0.2466546    0.1723881  -9.76  0.001366937    1.705    0.414
        43  -8.0876     96.6303     90.4164   1.0645775652e+02   4.6048414840e+01    0.4777964     0.248746  17.08  0.001483164    4.205    0.762
        44  -7.9448     56.4978     91.0267   1.1959380350e+02   5.2010938796e+01    0.2137397    0.1183815 -52.00  0.001038541    1.607    0.378
        45  -7.6721    110.4009     90.3965   1.0232037909e+02   4.3419178480e+01    0.2983605    0.1305024  30.53  0.000948559    3.348    0.701
        46  -8.2436      2.0001     89.9961   1.3741574889e+02   5.6775644558e+01    0.1470382    0.1088179 -58.71  0.001014904    1.032    0.031
        47  -8.0836     66.0726     84.7638   1.1473669598e+02   5.2104284540e+01    0.2244235    0.1496689  -7.46  0.001088174    1.940    0.484
        48 -10.3115     37.2041     81.2185   1.2377054311e+02   5.6167745215e+01    0.6804417     0.338772 -16.38  0.002842932    3.304    0.697
        49  -7.4771     20.6616     84.6876   1.3027836916e+02   5.6792544756e+01    0.1296777   0.07216429 -36.12 0.0007046017    1.692    0.409
        50  -7.6478    126.7437     83.4503   9.5678480800e+01   4.1342686873e+01    0.2170275    0.1398229  35.87 0.0009437762    1.620    0.383
        51  -9.9237      8.1180     77.6307   1.3314735879e+02   5.9057948036e+01    0.4199195    0.2061065 -32.27  0.001823772    2.030    0.507
        52  -8.8132     88.0336     78.7740   1.0575655163e+02   4.9921008700e+01    0.4508671    0.2741996  12.14  0.001510747    2.442    0.590
        53  -9.0000     48.9349     77.3536   1.1864106650e+02   5.5762621397e+01    0.4544597    0.2536633  -5.36  0.002015829    2.769    0.639
        54  -7.5782    184.0334     78.0275   8.0906583465e+01   2.8526931206e+01    0.2341874     0.184422  23.60 0.0009430729    1.639    0.390
        55  -7.6287    120.7225     76.2308   9.5167060415e+01   4.4016559870e+01    0.2424127    0.1109156  37.84 0.0008838603    2.372    0.578
        56  -7.7628    105.8095     76.3932   9.9514337494e+01   4.7082253343e+01    0.2123601    0.1316481  31.99  0.000947293    1.707    0.414
        57  -9.1604     29.0351     68.8056   1.2359615212e+02   5.9421916975e+01    0.3531932    0.1620116 -28.09  0.001545244    2.554    0.608
        58  -9.2576     23.7751     73.7568   1.2675275011e+02   5.8841192412e+01    0.5489224    0.1397664 -43.40  0.002138651    3.224    0.690
        59  -7.9678     23.4812     69.4703   1.2582094957e+02   5.9729105374e+01    0.1826604    0.1470539 -37.63 -1.094282e-05    1.022    0.021
        60  -7.8206     74.9871     74.2896   1.0870467062e+02   5.2920952002e+01    0.1882804     0.162332  15.51 0.0003536125    1.153    0.133
        61  -9.4176    238.2736     68.1766   6.9845384208e+01   1.7120951956e+01    0.2647491     0.224875 -49.94 0.0004156462    1.151    0.131
        62  -7.5419    129.3079     69.3407   9.0743972144e+01   4.3339892423e+01    0.1543313    0.1144133  13.20   0.00070433    1.687    0.407
        63  -7.9106    104.8561     68.3130   9.7275844431e+01   4.8748469792e+01    0.3134738    0.1639514 -18.31  0.001077584    3.412    0.707
        64  -9.4389    243.3696     64.1236   6.8308598126e+01   1.6616565184e+01    0.3378846    0.2036769  67.16  0.001181313    1.678    0.404
        65  -9.3736     32.5104     62.4762   1.2057820767e+02   6.0358092369e+01    0.3882136    0.1854622 -58.41  0.001903358    2.230    0.552
        66  -9.7175     36.7879     59.1577   1.1797799384e+02   6.0587169549e+01    0.5907481    0.2270676 -40.37  0.002726781    2.238    0.553
        67  -9.2893     16.8123     63.2988   1.2678524593e+02   6.1422205233e+01    0.3668095    0.1347293 -30.22  0.001554282    3.296    0.697
        68  -7.4549    148.5215     63.5153   8.4276511082e+01   3.9785799236e+01    0.1510607    0.1383113  40.31 0.0006737778    1.070    0.066
        69  -9.7199     62.0799     61.4220   1.0921049510e+02   5.7212019499e+01    0.7334161    0.2556657  26.82  0.002622359    3.833    0.739
        70  -8.9327     26.1755     60.8029   1.2254380039e+02   6.1217575028e+01    0.3443506    0.1456183 -29.07  0.001251322    2.730    0.634
        71  -8.5790     97.3786     58.1841   9.6253466402e+01   5.1944616847e+01    0.6034967    0.3266445  -1.92  0.001787853    5.273    0.810
        72  -8.0439    110.9381     58.8130   9.2431603800e+01   4.9118150100e+01    0.2296114     0.178493  16.91  0.001147678    1.366    0.268
        73  -7.7709     49.5172     58.4981   1.1291790330e+02   5.9342607732e+01    0.1268627    0.1065145 -20.80   0.00018867    1.017    0.017
        74  -8.3993     83.8736     64.0015   1.0249663078e+02   5.3396853052e+01    0.3087227    0.1756277  20.54  0.001005841    2.239    0.553
        75 -10.2187     75.0820     50.3689   1.0088517398e+02   5.7165885521e+01    0.4317839     0.301028   7.91 0.0003585352    1.535    0.348
        76  -8.3191    118.5374     51.1513   8.7819344242e+01   4.8677422076e+01    0.2476099    0.1805293  47.11 0.0005142163    1.272    0.214
        77  -9.0100     45.4261     48.8487   1.1134746160e+02   6.1522098991e+01    0.2730556    0.1700915 -22.27  0.001037515    1.535    0.349
        78  -8.2428    106.3362     48.9480   9.0467963398e+01   5.1606410002e+01    0.3245175    0.1577868  27.44  0.001195508    2.994    0.666
        79  -8.4016     91.5188     45.9933   9.3907830289e+01   5.4966190286e+01    0.4430476    0.1318937 -32.95  0.001515638    3.719    0.731
        80  -9.8083     12.1668     45.6410   1.2388577129e+02   6.5035050361e+01    0.6808124    0.3298316 -17.50  0.002696942    2.304    0.566
        81  -8.6104      1.8627     44.8753   1.2797017826e+02   6.5752826678e+01    0.5276021    0.1212614 -40.61   0.00233197    3.063    0.674
        82  -9.6719      6.7814     33.6341   1.2256919925e+02   6.7453341180e+01     0.547285    0.2158127 -31.75  0.002575831    2.199    0.545
        83  -9.5546      2.0936     30.2374   1.2360182371e+02   6.8287620969e+01     0.534333    0.1772883 -54.16   0.00270391    2.627    0.619
        84  -8.0889     92.2597     37.0755   9.0494434222e+01   5.6083981406e+01    0.3004994    0.1678205  40.92 0.0006624671    1.623    0.384
        85 -10.7054     83.1025     40.1919   9.4538943045e+01   5.7346456248e+01    0.4123406    0.2517799 -10.86 0.0002745297    1.967    0.491
        86  -8.7427     87.6900     37.9914   9.2254780301e+01   5.6820897673e+01    0.2870782    0.1989846   3.95 0.0008045367    1.581    0.367
        87  -7.1803    142.7292     44.6304   7.9863172748e+01   4.4008721744e+01    0.1457654     0.105295  22.50 0.0006998205    1.670    0.401
        88  -8.1574     55.9958     43.4882   1.0539091219e+02   6.1091895351e+01    0.2535304    0.1442013 -17.08  0.001078134    2.009    0.502
        89  -8.1380     58.5234     40.5070   1.0335110511e+02   6.1210960573e+01    0.2120957    0.1317563 -15.59 0.0005767755    1.671    0.402
        90  -7.3137    112.6596     42.6743   8.6572232747e+01   5.1169475016e+01    0.1482823   0.09822642  21.67 0.0004386518    1.730    0.422
        91  -8.7135     35.6818     38.3140   1.1164040998e+02   6.4333865403e+01    0.3200236    0.1368408 -45.30  0.001571544    2.188    0.543
        92  -8.8944     38.5142     35.5080   1.0945082662e+02   6.4477196118e+01    0.2924788    0.1684518  14.02  0.001171726    1.789    0.441
        93  -7.5289    124.1760     39.6465   8.2587157824e+01   4.9025951828e+01    0.1997012    0.1119566  45.02 0.0002940104    1.602    0.376
        94  -9.5291     68.2723     37.3675   9.8593481664e+01   6.0231962327e+01    0.4102042    0.2600309   8.96  0.002192052    1.750    0.429
        95  -8.7070     73.0171     34.6591   9.5899062751e+01   5.9849251845e+01    0.3547842    0.1759876  17.08  0.001415475    3.211    0.689
        96  -8.1104    106.0141     36.7903   8.6369350189e+01   5.3364189439e+01    0.2363148    0.1317822  28.92  0.001068357    2.012    0.503
        97  -8.7303     23.1228     35.8702   1.1611774462e+02   6.5908856245e+01    0.2417157    0.2077448  -8.40  0.001525949    1.225    0.184
        98  -8.4780     19.1722     35.6293   1.1775270502e+02   6.6268820633e+01    0.1938828    0.1196854  -1.89 0.0004041488    1.602    0.376
        99  -9.0153     22.0885     32.1198   1.1525858512e+02   6.6602665077e+01    0.3033862    0.1888526   5.13 0.0002966834    1.573    0.364
       100  -9.6209     57.4121     35.2153   1.0180246008e+02   6.2157783451e+01    0.4457452    0.3021213  35.31  0.001503569    1.531    0.347
       101 -10.4145    197.8014    249.1616   1.1511112282e+02  -6.6170678479e+00    0.4517471    0.3116949  61.74  0.002407925    2.188    0.543
       102  -9.1902     41.7926     27.2646   1.0495264418e+02   6.5330121555e+01    0.2883873    0.1676266 -43.48  0.001024961    1.954    0.488
       103  -8.9645     25.3780     25.4416   1.1133156493e+02   6.7340915931e+01      0.38325    0.1401814 -29.97   0.00177498    2.802    0.643
       104  -8.9241     28.5944     21.0316   1.0815945478e+02   6.7665977522e+01    0.2775649    0.1821621 -20.53  0.001872962    1.234    0.190
       105  -8.5228     61.8163     26.8684   9.6909815853e+01   6.2666248463e+01    0.1875009    0.1390545   6.77 0.0004508172    1.178    0.151
       106  -8.0706    222.0000    248.9663   1.1042232941e+02  -1.0483312212e+01    0.1792105   0.06858157 -38.02 0.0008019647    2.939    0.660
       107  -9.2596    247.3768    102.0037   7.6068098437e+01   9.5150997248e+00    0.2443843    0.1225997 -39.70  0.000660831    1.819    0.450
       108  -7.8559    129.4750     22.2758   7.5674722062e+01   4.9858005775e+01    0.2968311    0.1153942  47.95  0.001205391    2.183    0.542
       109 -10.6773    163.5412    248.3407   1.2176708178e+02  -6.4862230563e-01    0.5189387    0.2353485  33.09  0.002287895    2.193    0.544
       110  -8.4082     92.5916     20.6637   8.4331400528e+01   5.8002933248e+01    0.2664369    0.1506333  31.88   0.00113278    1.675    0.403
       111  -8.2790    140.3489     20.0396   7.2750004996e+01   4.7526060356e+01    0.2215507    0.1545151  50.20 0.0004462606    1.240    0.193
       112  -8.3484     10.1942     19.6381   1.1613034882e+02   6.9459639860e+01    0.2784469    0.1301338   1.85  0.001314505    2.446    0.591
       113  -7.7751    118.6940     24.2939   7.8780458775e+01   5.2102781347e+01    0.1866735    0.1339543  33.05  0.001029407    1.326    0.246
       114  -7.9191      5.0518     18.9870   1.1835384431e+02   6.9906410490e+01     0.131411    0.1242298 -33.53  0.000335297    1.617    0.382
       115  -7.2266    151.6704     17.7153   6.9977870125e+01   4.5029507616e+01    0.1398138   0.08832861  41.32 0.0007008621    1.611    0.379
       116  -8.3017    127.6233     16.8953   7.4316014153e+01   5.0834871398e+01    0.2191367    0.1529772  48.54 0.0003489891    1.211    0.174
       117  -8.3002    109.4986    247.9401   1.3245144028e+02   8.6382389300e+00    0.1664019    0.1233198 -68.48 0.0005023369    1.529    0.346
       118  -8.1960    114.9805    242.6744   1.3075024282e+02   8.7070300069e+00    0.1834328    0.1457113  55.72 0.0007181122    1.026    0.026
       119  -7.3484    189.6832     15.6637   6.3794375954e+01   3.5880485401e+01      0.13329   0.09199967  43.16 0.0007048229    1.698    0.411
       120  -7.1692    202.9784     14.2154   6.1859290460e+01   3.2798339008e+01    0.1728231   0.09144942  72.23  0.000372938    1.617    0.381
       121  -7.5717     33.9733    240.4824   1.4584640714e+02   2.0876994752e+01    0.1239777    0.1031224   2.38 0.0004650347    2.400    0.583
       122  -9.2995    187.9899    233.7250   1.1457085061e+02  -2.5539740582e+00     0.331422    0.1996995 -51.97  0.001663639    2.148    0.534
       123  -9.1746    250.4994    231.9960   1.0220240425e+02  -1.2496663137e+01    0.2417552    0.1352731 -33.31 0.0004232624    1.798    0.444
       124  -7.9623     19.1444    233.3808   1.4795057083e+02   2.3960050710e+01     0.145763    0.1216527  59.98 0.0005429833    1.344    0.256
       125  -7.2044     39.5637    211.4584   1.4253924927e+02   2.6162315681e+01    0.1213742   0.09668256  82.47 0.0001321656    1.048    0.046
       126  -8.4718     12.7965    207.4654   1.4737268409e+02   2.9912870397e+01    0.2338436     0.100546  79.34  0.001160205    2.333    0.571
       127  -7.9435    166.3613    197.2996   1.1277023221e+02   8.1506983254e+00    0.2343884    0.1760316   4.57  0.001045704    1.788    0.441
       128  -7.5322     95.9808    178.7736   1.2598892046e+02   2.5561680586e+01     0.178193    0.1151511  41.08 0.0003447932    1.538    0.350
       129  -8.2293    205.5200    151.9866   9.4813336992e+01   9.1425321249e+00    0.2181411    0.1322239 -17.56 0.0008101261    2.548    0.608
       130  -8.1276    178.6502    148.4165   9.9769948136e+01   1.5797108608e+01    0.2444053     0.187086  35.04 0.0004457645    1.356    0.262
       131  -7.3957    133.5250    147.9697   1.1056462138e+02   2.5779446769e+01    0.2222153    0.1352828 -27.52 0.0008094363    2.487    0.598
       132  -9.5551    224.9906    142.7370   8.8928454339e+01   6.8040211554e+00    0.2943452    0.2723357  45.22 0.0004907596    1.138    0.121
       133  -8.9887     67.3432    144.9483   1.2763338478e+02   3.8089685125e+01    0.4072417    0.2769121  67.15  0.002017408    1.732    0.423
       134  -7.8907      4.9808    133.7646   1.4253302100e+02   4.6925448474e+01    0.1268763    0.1015225  22.65  0.000692267    1.617    0.382
       135  -7.9957     42.9782    129.2393   1.3167937036e+02   4.4792786086e+01    0.1580693    0.1123586  29.74 0.0007717774    1.634    0.388
       136  -8.6038    243.2093    123.8039   8.1524688256e+01   6.5305234760e+00    0.2000866    0.1787663 -55.92  0.000312093    1.095    0.087
       137  -7.5870    153.4167    123.8056   9.9782632171e+01   2.6897643028e+01    0.2268939    0.1532944 -32.19 0.0009416048    1.688    0.408
       138  -7.5299    228.7848    123.0735   8.3786599764e+01   9.6881911128e+00    0.1968467    0.1122407 -41.45 0.0005607973    1.643    0.391
       139  -7.4143    180.6955    120.6354   9.2632521670e+01   2.1174107008e+01    0.1631183    0.1276491   3.13 0.0007036828    1.738    0.425
       140  -8.1223    119.3741    118.9722   1.0746875613e+02   3.5411218010e+01    0.2945676    0.2234173  11.05  0.001315706    1.740    0.425
       141  -7.6698    100.6168    118.6249   1.1269437220e+02   3.9105513155e+01    0.2776141    0.1408821  24.27   0.00095214    3.049    0.672
       142  -8.6308     14.4448    114.2956   1.3745013804e+02   5.0706391032e+01    0.1688671   0.09986516 -77.76 0.0009431357    1.573    0.364
       143  -7.5046    143.0054    111.5140   9.9226401396e+01   3.1948344375e+01    0.2354638     0.137014  25.38 0.0008101407    2.660    0.624
       144  -8.9844      2.5763    109.1952   1.4012384758e+02   5.2573514378e+01    0.3386753    0.1081339 -48.39  0.001562483    2.600    0.615
       145  -8.1604    133.8834    106.5577   1.0028201802e+02   3.5061595249e+01    0.3594076    0.2006988 -36.33  0.001177402    1.964    0.491
       146  -7.9286    109.1450    106.6019   1.0716707478e+02   4.0221762332e+01    0.3044389    0.1930362  24.50  0.001269999    1.984    0.496
       147  -7.0081     76.2753    107.3102   1.1724000738e+02   4.5728164006e+01    0.1425265    0.1038129 -26.12 0.0001929969    1.555    0.357
       148  -9.3385     14.7433    104.9426   1.3591034153e+02   5.2783076490e+01    0.3926042    0.1429818 -42.86  0.001759376    2.676    0.626
