#   1 NUMBER                 Running object number                                     
#   2 MAG_AUTO               Kron-like elliptical aperture magnitude                    [mag]
#   3 X_IMAGE                Object position along x                                    [pixel]
#   4 Y_IMAGE                Object position along y                                    [pixel]
#   5 X_WORLD                Barycenter position along world x axis                     [deg]
#   6 Y_WORLD                Barycenter position along world y axis                     [deg]
#   7 A_WORLD                Profile RMS along major axis (world units)                 [deg]
#   8 B_WORLD                Profile RMS along minor axis (world units)                 [deg]
#   9 THETA_WORLD            Position angle (CCW/world-x)                               [deg]
#  10 FWHM_WORLD             FWHM assuming a gaussian core                              [deg]
#  11 ELONGATION             A_IMAGE/B_IMAGE                                           
#  12 ELLIPTICITY            1 - B_IMAGE/A_IMAGE                                       
         1 -13.7415     79.6361     59.3065   3.0844221980e+01   5.5896914190e+01     5.141293     2.076456  47.23   0.01838134    2.413    0.586
         2 -14.3389     61.2181     75.6798   4.4013998745e+01   5.5931058137e+01     2.301467     1.602237  76.22  0.007280309    2.136    0.532
         3 -14.9501      6.8031     71.2294   6.9802515079e+01   6.3434492646e+01     1.275703    0.8626161 -63.77  0.004858869    1.314    0.239
         4 -14.0862     41.4695      5.2557   2.0166786433e+01   7.2736285774e+01     1.423922    0.8100549  10.70  0.005476893    2.650    0.623
         5 -13.5218      6.1371     43.1199   6.4024942701e+01   7.0454632149e+01      1.82749    0.8479725 -15.92  0.007734915    2.662    0.624
         6 -13.0227      7.9299      2.1831   4.2748828542e+01   7.8780892221e+01    0.6051504    0.5697322  17.91  0.002409476    1.301    0.232
         7 -14.0204     26.7722     13.1604   3.4670468906e+01   7.4347498631e+01    0.8158764    0.5599506   5.83   0.00335062    1.663    0.399
         8 -15.8651     12.0623     21.6619   5.1209398753e+01   7.4724755120e+01     2.003755     1.180431 -28.66  0.009166225    1.733    0.423
         9 -14.3289    189.7446     26.2136   3.5757827625e+02   3.3806248172e+01     2.420985    0.4893433 -40.27  0.008618024    3.350    0.701
        10 -14.0749    122.3778     36.7630   1.0083490544e+01   4.9237346907e+01     1.024978    0.5258601  42.49  0.002619435    2.332    0.571
        11 -13.3747     57.5345     26.9348   2.5460977620e+01   6.6422847374e+01     1.118107    0.3646261  45.78  0.003974853    2.839    0.648
        12 -14.3185    166.8958     29.7329   8.8280245934e-01   3.8805061998e+01     1.010302    0.7742772  83.31  0.003629032    1.238    0.192
        13 -14.3609    147.7021     29.5908   3.3034543310e+00   4.3626582181e+01     1.361555    0.6581022  71.46  0.004372215    1.991    0.498
        14 -12.5042    230.2725      2.5191   3.4937531894e+02   2.7707921860e+01    0.7884849    0.2295211  71.13  0.003629296    3.454    0.710
        15 -13.4720    217.2865     28.7209   3.5597641293e+02   2.7553096721e+01    0.7580935    0.3330801 -62.86  0.003566108    2.374    0.579
        16 -14.5037    216.7570     13.1792   3.5241866009e+02   2.9351842099e+01     1.083463    0.8187073 -38.98   0.00723325    1.234    0.190
        17 -15.2247     99.6877     12.1811   4.9388290292e+00   5.8076804919e+01     1.550719    0.8459023  62.66  0.003425057    1.598    0.374
        18 -11.8833     60.5780     15.7115   1.8029253152e+01   6.7336565575e+01    0.4887712    0.3444747  30.65  0.002564206    1.467    0.318
        19 -11.5959     71.0745     16.4614   1.4585004898e+01   6.4803602569e+01    0.3325051    0.2161757 -18.25  0.001637409    1.779    0.438
        20 -11.4962     74.3229     10.5465   1.0432426766e+01   6.4679217116e+01    0.3324529    0.2197712   1.25  0.001393431    1.933    0.483
        21 -11.5972    175.9540     13.7929   3.5542957611e+02   3.8383729339e+01    0.2229827    0.1632514 -49.51 0.0002294517    1.218    0.179
        22 -11.9903     46.7900     12.9031   2.2503851712e+01   7.0685211214e+01    0.3901314    0.2919089  54.89  0.002182695    1.363    0.266
        23 -12.1395     85.5738     13.8285   8.9561028926e+00   6.1531181194e+01     0.455433    0.3829075 -27.03  0.002325937    1.313    0.238
        24 -11.5878    153.0937      8.3807   3.5591091454e+02   4.4545849471e+01    0.2457653    0.2245704 -66.31  0.000862923    1.107    0.097
        25 -11.7771     48.1937     19.8415   2.5989813611e+01   6.9425293666e+01    0.7337079    0.2767045  50.41  0.002840297    2.613    0.617
        26 -12.3993    194.7682     23.2937   3.5639364719e+02   3.2999769417e+01    0.7419155    0.2889183 -36.80  0.002952716    2.124    0.529
        27 -11.9447    120.0903      3.2458   3.5788596007e+02   5.3540009459e+01    0.5119917    0.2471189 -82.52  0.002108677    2.385    0.581
        28 -10.9854     67.5255      2.9952   8.3283032275e+00   6.7069950643e+01    0.2834707    0.1542255  48.19  0.001367212    1.626    0.385
        29 -12.9018    223.5253     20.9145   3.5377245442e+02   2.7158745067e+01    0.3351888    0.2782789  19.53  0.001545494    1.812    0.448
        30 -11.6218     80.8601      1.7273   4.1047176705e+00   6.3866139267e+01    0.6754581   0.08619126  62.15  0.001964056    4.262    0.765
        31 -11.4084     61.1441      1.4776   9.4555269461e+00   6.8737379730e+01     0.483214    0.1183728  63.08  0.001576277    3.636    0.725
        32 -13.1629     22.3280    180.8904   7.5206570211e+01   3.3684139115e+01    0.5652453    0.4086295 -85.81  0.002020336    1.362    0.266
        33 -14.5166     95.1492    234.3172   6.1504806770e+01   1.3909217897e+01     1.437896    0.7681096  55.21  0.007248498    2.254    0.556
        34 -12.2846     51.2158    248.8960   7.2409942189e+01   1.6487279683e+01    0.4278088    0.3406807  36.79  0.003056735    1.089    0.082
        35 -12.7723     57.3602    246.8007   7.0943725444e+01   1.6186221413e+01    0.5128925    0.3115043  22.46  0.002510387    1.545    0.353
        36 -11.1366     41.5940    249.8105   7.4532182746e+01   1.7344824257e+01    0.2580399    0.1615401  45.72  0.001676449    1.212    0.175
        37 -11.2200     41.0000    245.4868   7.4431656501e+01   1.8183225000e+01    0.2380944    0.1618025 -77.09  0.001572611    1.754    0.430
        38 -13.8250     27.9744    246.5762   7.7294489290e+01   1.9303452917e+01     1.320198    0.6589822  72.57  0.007558292    2.114    0.527
        39 -12.0653      2.7966    249.5220   8.2660206138e+01   2.1084665254e+01    0.3522693    0.2038123  39.70  0.001758047    1.248    0.199
        40 -14.0476      9.4969    245.5342   8.1170464735e+01   2.1223461597e+01    0.9418553    0.4364481  48.97  0.003478047    1.549    0.354
        41 -13.4784     26.7563    225.5373   7.6599960057e+01   2.3444254882e+01    0.6965054    0.3877317 -58.56  0.003909597    2.236    0.553
        42 -14.3658     20.6635    224.3747   7.7952200002e+01   2.4267304495e+01     1.094985    0.7175578 -73.74  0.005896765    1.728    0.421
        43 -11.6571     97.7911    187.6126   5.5299200776e+01   2.2691387480e+01    0.2131266    0.1119921  40.66 0.0009555859    1.696    0.410
        44 -11.9791     48.4766    181.6944   6.7959845671e+01   3.0717880027e+01    0.4769832    0.3146268 -41.04  0.002386992    1.943    0.485
        45 -12.8486    198.1941    180.5967   3.1830254051e+01   8.5278573299e+00    0.3796686    0.3309242 -87.78  0.002338269    2.048    0.512
        46 -10.8903    122.8580    181.7349   4.8072293938e+01   2.0041433708e+01    0.2555936    0.1870905  82.26  0.001228057    2.132    0.531
        47 -12.8863    124.2964    166.4960   4.5084502597e+01   2.2966698427e+01    0.6518868    0.4523932 -72.25  0.003049287    2.008    0.502
        48 -10.3224    101.9867    161.0000   4.9986308705e+01   2.7949459655e+01     0.251359   0.07967701  34.46 0.0008038124    2.952    0.661
        49 -12.2769    237.3407    159.4553   2.1613034881e+01   6.1589700094e+00    0.3987413   0.09741417  37.11  0.001461841    5.197    0.808
        50 -13.5900     40.5878    196.0460   7.1349887855e+01   2.8294217102e+01     0.855283     0.413002  51.75  0.003895923    1.865    0.464
        51 -12.3775     77.1654    157.0519   5.6476377089e+01   3.2847999404e+01    0.5400421    0.3840857  21.95  0.001283694    1.498    0.332
        52 -13.0600     74.0096    153.3019   5.6837153774e+01   3.4248352221e+01    0.7463722    0.4902784  26.23  0.001457315    1.557    0.358
        53 -12.1921    111.7996    155.6833   4.6338785261e+01   2.7484334059e+01    0.6073198    0.3793702  70.94  0.002347851    2.740    0.635
        54 -12.6657    207.0005    155.4979   2.5574222954e+01   1.1105329632e+01    0.3468104    0.2584925  47.04  0.002080388    1.638    0.389
        55 -11.8426     85.5584    152.9852   5.3300061086e+01   3.2533697516e+01    0.5530776    0.3129202 -38.32   0.00224471    2.260    0.557
        56 -11.5852    103.6111    149.6234   4.7446520737e+01   3.0303854093e+01    0.3813468    0.2914595 -15.02  0.001370152    1.685    0.406
        57 -11.4172     55.5094    155.6058   6.2905714601e+01   3.6260848100e+01    0.3932682    0.2750005 -17.75  0.001785535    2.020    0.505
        58 -11.0095     59.5093    148.5105   6.0645255549e+01   3.7537474142e+01    0.1471641    0.1375166  60.64 0.0008105218    1.006    0.006
        59 -10.9655    244.3287    147.3300   1.8382700459e+01   6.8777019984e+00    0.1197033    0.0776334  -6.09 0.0007051427    1.712    0.416
        60 -10.8912     38.1058    145.6898   6.7265163652e+01   4.0918054639e+01    0.1972235    0.1820756  38.59  0.000620871    1.110    0.099
        61 -12.1153     42.7410    138.7979   6.4829465866e+01   4.2200687756e+01    0.3639489    0.2571988  -9.10  0.001705643    1.900    0.474
        62 -12.3294    246.0055    134.2169   1.5669101058e+01   8.4356750109e+00    0.3216043    0.2289327 -70.88  0.001835552    2.655    0.623
        63 -12.2638     43.9858    133.2345   6.3617159034e+01   4.3525340311e+01    0.3097804    0.2072375 -39.51  0.001434514    1.758    0.431
        64 -10.3513     10.8390    133.9102   7.5382630823e+01   4.6536159896e+01    0.1908914    0.1387797  57.40 0.0003838012    1.293    0.227
        65 -11.8900    138.8256    131.4241   3.4247422832e+01   2.7716507253e+01    0.4216226    0.3005363   6.90  0.001862216    1.974    0.493
        66 -10.7256     34.2998    129.6857   6.6576501236e+01   4.5567381768e+01    0.1537716   0.09944942  61.37 0.0001727723    1.610    0.379
        67 -11.9429    223.0013    127.9984   1.7537968281e+01   1.2790125732e+01    0.1956652    0.1459909 -59.16  0.001150627    1.727    0.421
        68 -14.2023    106.2926    121.1665   4.0567172670e+01   3.6485391257e+01     1.742802     1.144901  33.59  0.007636666    1.579    0.367
        69 -14.6691    105.7294    104.9246   3.6627353804e+01   4.0360926723e+01     1.541277     1.384709  22.62  0.007693842    1.199    0.166
        70 -12.8436     28.7599    121.9019   6.7588342290e+01   4.8221693997e+01    0.5481263    0.4102635 -56.25  0.002547696    1.332    0.249
        71 -10.8036     58.9941    124.7189   5.6883942968e+01   4.3800239838e+01      0.26573    0.2000056  78.45 0.0004535689    1.486    0.327
        72 -12.4715    180.9832    120.4002   2.2704855059e+01   2.1480838911e+01    0.3092237     0.277424 -52.89  0.001102265    1.170    0.145
        73 -13.2481      4.9216    117.8981   7.6228280860e+01   5.1179373575e+01     1.124589    0.4885307 -69.15  0.004176226    2.020    0.505
        74 -13.0769     20.7163     86.2192   6.5435785782e+01   5.8529000717e+01     0.819775    0.4883052   3.17  0.001393802    2.013    0.503
        75 -14.1957     18.2350    110.8267   7.0266681258e+01   5.2145008370e+01    0.9515014    0.7663236 -40.27  0.003612445    1.332    0.249
        76 -13.8655     10.6365    103.0163   7.2460089183e+01   5.4801535922e+01    0.8887067    0.6778325  45.45   0.00436124    1.343    0.255
        77 -13.5782      2.4036     96.9385   7.5336014604e+01   5.6905401859e+01    0.9744039     0.397578 -77.35  0.003350925    2.181    0.542
        78 -14.5263     25.2600     93.8680   6.4716733685e+01   5.6092953042e+01      1.71717     1.006986   0.93  0.007526658    2.169    0.539
        79 -12.2168     79.1397    111.1228   4.6861434261e+01   4.4055864921e+01    0.3796335    0.2932046 -76.24  0.001101067    1.453    0.312
        80 -12.9178     84.9544    114.9886   4.5801378508e+01   4.2043377361e+01    0.8675597    0.4249949  29.52  0.002424992    2.346    0.574
        81 -11.7480     88.5207    109.9999   4.3399133860e+01   4.2604779952e+01     0.578217    0.3054484 -61.43  0.002042436    2.171    0.539
        82 -12.1787     36.9340     92.7462   5.9275219171e+01   5.5162392946e+01    0.4822487    0.3383265  12.50  0.001587606    1.612    0.379
        83 -11.2742    194.7962    113.4018   1.8698710190e+01   2.0026922276e+01    0.1788918    0.1256541  36.23 0.0007198174    1.626    0.385
        84 -12.4504    121.5009    111.8823   3.3950631661e+01   3.5477255170e+01    0.3971971    0.3137816  64.25    0.0012055    1.412    0.292
        85 -11.1454     45.8709    110.1047   5.9048221311e+01   4.9460711340e+01     0.287616     0.211572 -47.04  0.001397436    1.402    0.287
        86 -10.5594     42.8061    107.1940   5.9713407707e+01   5.0622366805e+01     0.207399    0.1904626  39.89 0.0004038121    1.106    0.096
        87 -11.9291     62.5995    109.0150   5.2360844488e+01   4.7365740701e+01    0.8038678    0.4203225 -68.73  0.003097681    2.175    0.540
        88 -10.6676     64.6606    101.7125   4.9869432288e+01   4.8915700777e+01    0.2166826    0.1226966 -35.98 0.0002635368    2.265    0.558
        89 -12.0691     60.9739     97.7910   5.0339505664e+01   5.0511699508e+01    0.5820237    0.4102531  66.79  0.001916685    1.746    0.427
        90 -11.0457    222.8179    109.1497   1.3604630425e+01   1.5631621918e+01    0.1714647    0.1400552  -7.95 0.0009296269    1.328    0.247
        91 -12.7653    135.9363    102.9905   2.7900062961e+01   3.4229090573e+01    0.7435624    0.3576238  49.58  0.001665041    2.112    0.526
        92 -13.2284    120.2655    102.3501   3.1762842710e+01   3.7816953715e+01    0.7151388    0.3599633  43.19  0.002754211    1.999    0.500
        93 -12.4732     49.7815     98.9237   5.5139036901e+01   5.1891657746e+01     0.840354    0.5184584  15.59  0.003438019    1.962    0.490
        94 -11.4803     49.1004     93.2672   5.4105597465e+01   5.3458515925e+01    0.4403253    0.3045517  86.13  0.001958704    1.845    0.458
        95 -12.2916    163.5427     97.6040   2.0445683022e+01   2.9163821571e+01    0.3961167    0.3149392  44.56 0.0008417177    1.334    0.251
        96 -11.6612     90.6793     96.7406   3.9163950879e+01   4.5357130368e+01    0.4154148    0.3175642  23.69  0.001910821    1.507    0.336
        97 -11.3027    129.2594     96.0479   2.7657379907e+01   3.7140194690e+01     0.285763    0.2034874  65.73  0.001277395    1.616    0.381
        98 -12.7130    137.2658     95.1173   2.5436036149e+01   3.5513572802e+01    0.4901439    0.3880658  72.14  0.001263864    1.429    0.300
        99 -11.7450     42.9579     90.2702   5.6053127445e+01   5.5066770775e+01    0.4387438    0.2381674 -64.50  0.001203667    1.821    0.451
       100 -13.2840     32.2328    112.3410   6.4856168303e+01   5.0445979758e+01    0.8264429    0.4072423 -57.89  0.003488118    1.890    0.471
       101  -9.9245     78.6659     87.2630   4.0649290328e+01   4.9969972339e+01    0.1562545    0.1199266  70.41 0.0002481792    1.579    0.367
       102 -13.5099    188.3302     84.0548   1.2707370036e+01   2.6113407503e+01    0.6851776    0.3555873  46.75  0.002183515    2.214    0.548
       103 -12.6535    152.3545     83.0576   1.8746693337e+01   3.4311465698e+01    0.8191659    0.3031616  41.12  0.002481067    3.957    0.747
       104 -12.0503    159.3197     65.4961   1.2430949293e+01   3.5641689273e+01    0.8458141    0.2541585 -44.36  0.002747745    3.215    0.689
       105 -13.3681    164.7178     71.0729   1.3082181533e+01   3.3467970798e+01     1.012282    0.4879576  50.34  0.003122326    2.203    0.546
       106 -13.5804    160.5693     80.8527   1.6537219754e+01   3.2796079822e+01      1.17262    0.6714044  25.37  0.002738309    3.593    0.722
       107 -14.2899    169.5444     76.9902   1.3883935077e+01   3.1387872178e+01     1.502027    0.5186731  56.94   0.00537091    2.982    0.665
       108 -12.1248    242.2462     83.7417   5.9333168844e+00   1.5919621207e+01    0.2870753    0.2168729  73.06  0.001733324    1.667    0.400
       109 -12.7387    237.7547     80.0657   5.6159519954e+00   1.7176959749e+01    0.3601319    0.2776837 -81.49  0.002356265    1.564    0.360
       110 -14.3261    101.0973     50.1969   2.0303515376e+01   5.2581709904e+01     1.417676    0.9782076  47.40  0.004322399    1.416    0.294
       111 -11.3338    235.4005    248.3961   3.6314145057e+01  -4.5353108572e+00    0.1996016   0.06969943  18.14 0.0009609675    3.357    0.702
       112 -14.5252    119.9517     54.6729   1.7005865903e+01   4.7141785340e+01    0.9694304    0.6030133  45.90  0.001679649    1.670    0.401
       113 -12.7356    136.2326     50.4869   1.2063117058e+01   4.3692701646e+01    0.5902318    0.5800671  -0.30 0.0009429518    1.156    0.135
       114 -13.8196     74.0193     73.9029   3.8201732167e+01   5.3959321008e+01     1.592177    0.7878562  23.30   0.00484136    3.858    0.741
       115 -13.4450     87.3893     65.2957   3.0277283855e+01   5.2989288982e+01    0.8995225    0.6291222  -0.11   0.00291139    2.362    0.577
       116 -13.3032     55.6171     80.2931   4.7840544096e+01   5.5756161475e+01    0.7052119     0.519114 -40.23  0.001819223    1.412    0.292
       117 -13.7939    170.9087    241.7625   4.6541339096e+01   3.1961857827e+00    0.8387023    0.5140501  16.91  0.005312961    1.355    0.262
       118 -12.8139    135.5016     79.2646   2.1281691211e+01   3.8975848749e+01     0.775547    0.3960357  56.01  0.002499013    1.994    0.499
       119 -10.6102     90.1483     80.7059   3.4545671719e+01   4.9123027934e+01    0.2588453    0.1982383  64.26  0.001194649    1.463    0.317
       120 -12.3294    147.5245    238.8188   5.0766188766e+01   6.4869824170e+00    0.3151355    0.2789114  86.85  0.001771737    1.824    0.452
       121 -14.1584      5.3371     63.5915   6.9251787963e+01   6.5469403618e+01    0.7831231    0.6492445  -6.46  0.004007861    1.277    0.217
       122 -11.9423     42.3474     77.7648   5.3151191257e+01   5.8345407877e+01    0.4877139    0.3128783 -71.43  0.001700156    1.735    0.424
       123 -11.3935     27.3721     76.2076   6.0077337990e+01   6.0518241876e+01    0.3374066     0.250632  81.27  0.001187127    1.584    0.369
       124 -13.8225    198.4735     70.2931   7.8712763089e+00   2.6072443741e+01    0.8886507    0.5088721  42.47  0.003343232    2.293    0.564
       125 -12.0007    114.2296     80.0846   2.6919685862e+01   4.3846442714e+01    0.4576144    0.3486905 -52.80  0.001201889    1.353    0.261
       126 -10.0642     26.3104     70.3300   5.9183274414e+01   6.2123837659e+01    0.1521826   0.09775925 -33.77 0.0007041857    1.668    0.400
       127 -12.7981    134.7775     65.5127   1.7215090396e+01   4.1617341768e+01    0.6612448    0.5819808  59.40  0.002485798    1.128    0.114
       128 -11.8648    100.3628     64.4639   2.5763845606e+01   5.0180065317e+01    0.3993929    0.3324074 -24.55  0.001542208    1.356    0.263
       129 -11.6659     34.6111     60.3017   5.1838448203e+01   6.3635004320e+01    0.4557098    0.2882764 -45.34  0.001361866    1.524    0.344
       130 -11.8279     39.1243     60.1511   4.9380124765e+01   6.3068204897e+01    0.4131025    0.2441832  51.63  0.001792351    2.121    0.528
       131 -12.1580     36.4972     54.3655   4.8768015445e+01   6.4769692701e+01    0.3708044    0.2904695  -4.54  0.001362609    1.405    0.288
       132 -13.5933    177.8555     57.1260   7.2080495799e+00   3.2546852692e+01    0.8236481    0.5350944 -51.36  0.002275281    1.444    0.307
       133 -11.9494     24.7057     59.4063   5.7070633651e+01   6.4998356100e+01    0.5452805    0.3094927 -42.42  0.002536308    1.719    0.418
       134 -12.1787    248.0214     52.5657   3.5891715447e+02   1.8916017387e+01    0.6274613    0.2148681 -32.59  0.002950024    2.358    0.576
       135 -13.5714    214.9066     78.7175   7.8433647198e+00   2.1539305192e+01     0.833793     0.589523  80.61  0.004782277    1.737    0.424
       136 -11.2096     17.6221     54.9948   5.9956640347e+01   6.6747853203e+01    0.3324988     0.219394 -76.15  0.001667487    1.675    0.403
       137 -11.1742    231.9700     55.4898   8.4634928321e-01   2.1437222259e+01    0.1636812    0.1176957  75.51  0.001034986    1.596    0.374
       138 -10.3968     23.5215     50.0147   5.4796162075e+01   6.7360445556e+01    0.1988911    0.1283302 -57.10 0.0004493514    1.483    0.326
       139 -12.1701    144.6127    233.6309   5.0701724820e+01   7.6416388443e+00    0.4133992     0.239259 -38.93   0.00238836    1.974    0.494
       140 -12.7738    236.3274    228.7277   3.3340457363e+01  -2.4815992516e+00    0.2535857    0.2050183  39.85  0.001902273    2.163    0.538
       141 -13.2302     57.6319    203.3328   6.7533586680e+01   2.4713808119e+01      0.89894     0.517107  89.72  0.004447952    2.120    0.528
       142 -12.8509     64.2842    224.0796   6.7691370084e+01   1.9633493804e+01    0.9008654    0.3775535  45.77  0.003846972    2.018    0.504
       143 -12.9938      3.1133     34.4374   6.3632626795e+01   7.2657423445e+01     0.391415    0.3100131 -57.94  0.001170278    1.184    0.156
       144 -12.9454     68.4889    220.9408   6.6422085436e+01   1.9744420710e+01    0.5499827    0.3896932  87.43  0.003252039    1.680    0.405
       145 -12.2365    154.5341     46.5287   7.5923800684e+00   3.9671516350e+01     0.385341    0.2527493  62.84  0.001890848    1.498    0.332
       146 -13.0676    158.5992     43.1548   5.9531623287e+00   3.9131413842e+01    0.7861798    0.4567752  53.34  0.003666609    1.810    0.448
       147 -13.7256     64.0524    214.5254   6.6927547960e+01   2.1576738787e+01    0.5909136    0.4123028  25.94  0.003413575    1.327    0.247
       148 -14.0376    217.7542     41.7737   3.5897251738e+02   2.5912740127e+01    0.9522189    0.4437353  65.91   0.00440347    2.326    0.570
       149 -13.2319    205.3954     40.0447   3.5965409770e+02   2.8693642152e+01    0.7855358    0.3718274 -85.11  0.003379343    2.891    0.654
       150 -11.7838    135.1390     39.7475   8.6827436265e+00   4.5532149434e+01    0.5396628    0.3019392  82.07  0.001632327    2.113    0.527
       151 -12.4649    110.0036     41.8833   1.4761666404e+01   5.1681188663e+01    0.5253008    0.2441341  57.19 0.0009044466    1.992    0.498
       152 -13.1941     59.4984    212.5326   6.7874351761e+01   2.2537508869e+01    0.7265213    0.4249078 -13.45  0.003051495    3.434    0.709
       153 -12.8844    113.6096     37.8942   1.2392022223e+01   5.1342318383e+01    0.4376522    0.3586752  74.48  0.001287227    1.174    0.148
       154 -12.8381    131.4343     33.3465   7.1447886976e+00   4.7345745747e+01    0.5313271    0.4462311  28.91  0.001561306    1.440    0.306
       155 -11.3236    248.6843    225.0117   3.0919012906e+01  -3.2981235432e+00    0.1627631    0.1355049  16.57  0.001348949    1.601    0.375
       156 -12.7443     46.0646     33.5153   3.4507657333e+01   6.7565527049e+01    0.8752784    0.5319813  34.97  0.004220604    1.610    0.379
       157 -12.1408     40.4955     40.2800   4.0802014904e+01   6.7216264626e+01     0.641449    0.4658512  52.25   0.00329047    1.634    0.388
       158 -12.7963     32.8524     40.3459   4.5310468570e+01   6.8355686990e+01    0.6005576    0.3891324 -34.28  0.001778638    1.587    0.370
       159 -13.1987     74.7367     36.9951   2.3369061680e+01   6.1041733961e+01     0.732953      0.34595  55.77  0.001777944    2.141    0.533
       160 -13.0025    242.9961     35.2887   3.5566214611e+02   2.1842066312e+01    0.5201824    0.4610756 -81.93  0.002842081    1.267    0.211
       161 -11.1967    104.6611     36.8294   1.4122048449e+01   5.3784113644e+01    0.3281828    0.1738708 -36.59   0.00139423    1.951    0.488
       162 -12.6048    140.3935     21.4017   1.6324266193e+00   4.6459644138e+01    0.6248782     0.338303  70.92  0.001300537    1.702    0.413
       163 -12.3969    107.7927    247.7527   6.0084879565e+01   1.0071862333e+01    0.5145279    0.3252129  46.94  0.003141079    1.567    0.362
       164 -12.6473     94.2758    218.2138   6.0006016941e+01   1.6978876377e+01    0.3396118    0.2146484  32.44  0.001410607    1.305    0.234
       165 -10.6124      5.5969    219.2570   8.1227234242e+01   2.6665027063e+01    0.1480465    0.1025166 -76.44 0.0007087635    1.610    0.379
       166 -11.4165    109.1182    242.8638   5.9303246911e+01   1.0698756569e+01    0.2821775    0.1764133  38.57  0.001426775    1.333    0.250
       167 -11.0483    157.3159    214.6646   4.5446475620e+01   8.9300257377e+00    0.1166727   0.09488336  54.20 0.0001996258    1.694    0.410
       168 -12.3794    120.4758     26.4955   6.6603970084e+00   5.1060126319e+01    0.6201791    0.3737021  60.73  0.002487839    1.520    0.342
       169 -11.9523     30.4003     25.6223   3.9678468453e+01   7.1627506166e+01    0.3889694    0.2484651  24.02  0.001529966    1.588    0.370
       170 -11.6463     35.8375     23.2473   3.4881759227e+01   7.1177294946e+01    0.3480079     0.247227 -18.98  0.001856956    1.544    0.352
       171 -12.6758      4.8036    211.1875   8.1151150912e+01   2.8412428825e+01      0.45337    0.2329974 -75.46  0.002505182    2.056    0.514
       172 -10.8490    136.5155    210.9477   4.9358434572e+01   1.2457963930e+01    0.1760507    0.1286235 -46.91   0.00097999    1.581    0.368
       173 -11.2373     39.3460    210.7114   7.2726921966e+01   2.5213070713e+01    0.3844328    0.1312985  40.18  0.001688106    2.168    0.539
       174 -12.4119     46.6427    208.8166   7.0773309856e+01   2.4814808521e+01     0.520991    0.2276894  66.80  0.002172077    2.901    0.655
       175 -10.9418     80.8171    208.5817   6.2207498767e+01   2.0668611134e+01    0.2022795   0.09827124  40.33 0.0008202085    1.715    0.417
       176 -12.4136     72.1549    206.5057   6.4151822962e+01   2.2226469060e+01    0.3207089    0.2064484  32.02  0.001729173    1.333    0.250
       177 -10.5027    211.6384     33.2839   3.5748254501e+02   2.8192059610e+01    0.1351918   0.07569029 -61.50 0.0007019089    1.681    0.405
       178 -11.8320     13.5225    205.4863   7.8826601177e+01   2.8882873845e+01    0.3094578    0.1736249 -57.45  0.001420834    2.176    0.540
       179 -13.3926     16.2049    197.0877   7.7762290287e+01   3.0498176488e+01    0.9883152    0.3505003 -52.66  0.003861628    3.891    0.743
       180 -10.9215    150.8257    206.4215   4.5573433864e+01   1.1194685879e+01    0.1930659    0.1082062  20.95 0.0009542176    1.775    0.437
       181 -12.9090      9.2450    149.1299   7.7021447423e+01   4.2688368683e+01       1.0631    0.6196843  61.47  0.005332978    1.597    0.374
       182 -13.9266     30.1278    168.7889   7.2075729199e+01   3.5866306983e+01    0.8230922    0.5469266 -37.41  0.003138845    1.968    0.492
       183 -15.6208      8.6979    179.3690   7.8884338486e+01   3.5240701968e+01     2.166521     1.364504 -79.09   0.01163157    1.562    0.360
       184 -12.8613    164.3572    195.4574   4.0976357812e+01   1.1077081344e+01    0.4002775    0.3036208  79.08  0.002021047    2.732    0.634
       185 -12.2499    201.0206    191.2045   3.3190724005e+01   6.5401871508e+00    0.3203335    0.2246272   5.40  0.001383119    1.347    0.257
