#   1 NUMBER                 Running object number                                     
#   2 MAG_AUTO               Kron-like elliptical aperture magnitude                    [mag]
#   3 X_IMAGE                Object position along x                                    [pixel]
#   4 Y_IMAGE                Object position along y                                    [pixel]
#   5 X_WORLD                Barycenter position along world x axis                     [deg]
#   6 Y_WORLD                Barycenter position along world y axis                     [deg]
#   7 A_WORLD                Profile RMS along major axis (world units)                 [deg]
#   8 B_WORLD                Profile RMS along minor axis (world units)                 [deg]
#   9 THETA_WORLD            Position angle (CCW/world-x)                               [deg]
#  10 FWHM_WORLD             FWHM assuming a gaussian core                              [deg]
#  11 ELONGATION             A_IMAGE/B_IMAGE                                           
#  12 ELLIPTICITY            1 - B_IMAGE/A_IMAGE                                       
         1  -9.4436     61.8074     26.7181   9.2976609914e+01   6.2446659712e+01    0.4481507    0.2433265  -3.10  0.002110443    2.617    0.618
         2 -11.4689     80.3700     23.3747   8.5650793117e+01   5.9695391120e+01    0.5442519    0.2312614  36.97 0.0005564393    2.264    0.558
         3  -9.4622     64.1455     14.1152   8.7095007551e+01   6.3500429658e+01    0.4992426    0.2430678  18.11  0.002307707    2.812    0.644
         4  -7.7154     65.2847      9.3435   8.4754791271e+01   6.3780807547e+01    0.1221681   0.07405266  16.98 0.0001632122    1.641    0.391
         5  -9.3979    133.7128     13.6596   6.9672930029e+01   4.9538233010e+01    0.3684017    0.1836079  54.75  0.000383372    1.665    0.400
         6  -8.5678    121.1768     14.9949   7.2495038255e+01   5.2232645624e+01    0.3287055    0.1573856  30.93  0.001419745    2.744    0.636
         7  -8.4676    125.1103     10.4899   7.0269334190e+01   5.1768131194e+01    0.2395083    0.1655759  12.76 0.0004744853    1.772    0.436
         8  -9.3307     79.3684     12.8240   8.1868924072e+01   6.0969312342e+01    0.4028349    0.2019295  51.70  0.002016685    1.868    0.465
         9  -9.3969     74.4899     13.5049   8.3577244675e+01   6.1786459801e+01    0.3711558    0.2206688  12.03  0.001663914    1.889    0.471
        10  -8.0000    113.0482     11.2160   7.2924302338e+01   5.4352090744e+01    0.3106399    0.1466632  26.08  0.001309731    3.071    0.674
        11  -8.9833    105.3721     13.8464   7.5526563645e+01   5.5745684394e+01     0.265384    0.1552428  20.07  0.001356856    2.083    0.520
        12  -8.2084     88.0089     13.3093   7.9652453648e+01   5.9294422593e+01    0.2190808    0.1442717  19.50 0.0007267285    1.547    0.354
        13  -8.2503     96.8431     12.1096   7.6938955408e+01   5.7659106447e+01    0.2279121    0.1524063  15.68  0.001323033    1.617    0.382
        14  -9.1223     31.5992     10.9717   9.7979199886e+01   6.8508201118e+01    0.4133379    0.2005472  11.48  0.001765661    2.688    0.628
        15  -9.7610     32.0140      6.2554   9.5683752832e+01   6.8982578535e+01    0.3235957    0.2006793  18.78 0.0003674991    1.388    0.280
        16  -8.8501    129.9205      9.5877   6.9095400164e+01   5.0767213550e+01    0.2577517    0.1772957 -38.81  0.001167236    1.681    0.405
        17  -7.6109    142.8125      9.6579   6.6914029396e+01   4.7812362888e+01    0.3722394          nan  55.55 0.0009424078    6.347    0.842
        18  -8.8002     70.4420      9.2031   8.3079446383e+01   6.2909121836e+01    0.3210868     0.125226  43.47  0.001582738    2.141    0.533
        19  -9.0819     40.8428      6.2004   9.2078801664e+01   6.7832363879e+01    0.3021915    0.1637887  -5.39  0.001113147    1.994    0.498
        20 -10.1528      7.6046      5.4890   1.0647855786e+02   7.1654871012e+01     0.514351    0.2152934  10.46  0.002636825    3.149    0.682
        21  -9.0082    119.2234      6.9429   7.0251721306e+01   5.3374846554e+01    0.2112934    0.1503879  53.41 0.0002396962    1.171    0.146
        22  -9.8674     84.8300      5.3844   7.7478477701e+01   6.0604263054e+01     0.288868    0.2097378  10.43  0.001873871    1.370    0.270
        23  -9.3255     76.4757      5.7475   7.9904889972e+01   6.2137006214e+01    0.3806391    0.2127316 -21.55   0.00156522    1.901    0.474
        24  -9.3850     46.8093      6.2616   8.9827746814e+01   6.6981727256e+01    0.2934753    0.1696077  21.80  0.001145194    1.568    0.362
        25  -8.5602    101.0721      5.9269   7.3713190060e+01   5.7326682097e+01    0.2541326    0.1603031  32.82  0.001483817    1.494    0.331
        26  -9.2032     92.5181      5.3489   7.5517007047e+01   5.9106556582e+01     0.412641    0.1573902  50.00   0.00181301    2.067    0.516
        27  -7.2069    179.6974      5.2923   6.0681753114e+01   3.9572221470e+01     0.127272   0.08294647 -73.45 0.0005839232    1.571    0.364
        28  -8.9765    110.8905      3.7055   7.0829567039e+01   5.5440809222e+01    0.3131594     0.203617 -37.28  0.001380145    1.840    0.457
        29  -8.3358    105.5537      1.4847   7.1171089233e+01   5.6741348078e+01    0.2881472    0.1069771  62.49  0.001002561    2.452    0.592
        30  -7.9416    134.0314      3.2656   6.6442555309e+01   5.0367527568e+01    0.1732081    0.1358479  60.69 0.0003431879    1.062    0.059
        31  -8.3589     56.1977      3.3916   8.5228307674e+01   6.5815943158e+01    0.2537433    0.1188856  43.01  0.001428807    1.845    0.458
        32  -7.5517    155.8537      7.1962   6.4235959602e+01   4.4995797198e+01    0.1698351    0.1284616  49.15 0.0003704012    1.297    0.229
        33  -8.1319    143.1873      2.1659   6.4672044395e+01   4.8365739964e+01    0.1793102    0.1410045  54.00 0.0003090211    1.139    0.122
        34  -8.2974      2.8467      1.7495   1.0714273351e+02   7.2515109403e+01    0.1627002    0.1013622 -11.17 0.0004726183    1.235    0.190
        35  -9.2954    248.6372    103.7073   7.4543661723e+01   9.6600925998e+00    0.3355062    0.1826681 -52.51  0.001562588    1.715    0.417
        36 -10.9107    200.3186    249.4089   1.1244200705e+02  -7.3614418332e+00    0.7699646    0.2028415  40.67  0.002847724    3.345    0.701
        37  -7.2880    140.3517     99.3125   9.3872542441e+01   3.5067970731e+01    0.1588499    0.1240421   8.76 0.0006381937    1.726    0.421
        38  -8.5600    243.7005     97.4126   7.3867006497e+01   1.1766643007e+01    0.2549399    0.1359557  64.35  0.001153604    2.174    0.540
        39  -9.0837      7.8210     96.7551   1.3322822275e+02   5.5327932565e+01    0.2399991    0.1134186 -25.71 0.0007715724    2.830    0.647
        40  -9.6768     15.6050     94.7573   1.3036938737e+02   5.5248957306e+01    0.2812566    0.1812164 -57.31  0.001023056    1.218    0.179
        41  -8.7823     12.4648     93.5089   1.3114457278e+02   5.5738160632e+01    0.3043019    0.1397471 -50.44  0.001120114    1.672    0.402
        42  -7.4869    150.7949     95.4036   9.0300439292e+01   3.3460956377e+01    0.2249969    0.1421195  40.06 0.0009479172    1.724    0.420
        43  -7.8929     83.3074     93.6554   1.0817096056e+02   4.7589773070e+01    0.2788355    0.1745436  10.80  0.001167686    2.465    0.594
        44  -8.9755     43.3266     92.5040   1.2076060614e+02   5.3282858937e+01    0.3311768    0.1806183 -34.54   0.00160661    1.922    0.480
        45  -8.0333    110.0227     91.1467   9.9558718910e+01   4.3227275665e+01    0.2474312    0.1740931  10.43  0.001080398    2.018    0.504
        46  -8.3789     96.3964     90.3442   1.0326736688e+02   4.6003779060e+01    0.3195857    0.2153521   9.71  0.001393486    2.160    0.537
        47  -7.9567    140.5607     86.4453   9.0217758950e+01   3.7568744413e+01       0.3377    0.2329199   8.68  0.001349892    2.387    0.581
        48 -10.2457     37.4315     81.0092   1.1989873865e+02   5.6337371207e+01    0.6423241    0.3403049 -13.64  0.002803731    3.027    0.670
        49  -7.9585     65.8876     84.6431   1.1120784971e+02   5.2146903965e+01     0.242486    0.1642281 -35.97 0.0006288565    1.383    0.277
        50  -8.0003    126.5457     83.9588   9.2999934135e+01   4.1182461351e+01    0.3257156    0.1793514  31.01  0.001238479    2.445    0.591
        51  -9.7683      7.7647     77.9242   1.2957241352e+02   5.9347872772e+01    0.5048562    0.2037416 -30.80  0.002345517    2.882    0.653
        52  -8.8103     88.1321     78.8412   1.0237485542e+02   4.9782439914e+01    0.4352065    0.2562779  16.88  0.001790874    2.571    0.611
        53  -7.8230    184.0778     78.1554   7.8765391560e+01   2.8716578640e+01    0.2189558    0.1984134  33.93 0.0006317931    1.285    0.222
        54  -8.3823     48.0483     77.9225   1.1536953491e+02   5.5820305579e+01    0.2201077    0.1348784 -25.91  0.001127614    1.770    0.435
        55  -7.4811    104.3498     77.3225   9.7068800261e+01   4.7055189342e+01    0.1508798    0.1110257   3.86 0.0004778964    1.747    0.428
        56  -7.2860    120.3335     76.2992   9.2345290506e+01   4.3956083625e+01    0.1497825    0.1137529  11.97 0.0007032432    1.651    0.394
        57 -10.1743     23.6332     74.1393   1.2304146310e+02   5.8999282299e+01     0.986838    0.3569044 -29.82  0.003452019    4.639    0.784
        58  -8.5187     23.7154     69.5505   1.2183023763e+02   5.9911329636e+01    0.4136377    0.1801703  29.40  0.002101642    2.613    0.617
        59  -8.9846    234.3201     74.7558   7.0150400290e+01   1.7614268133e+01    0.2274425    0.2131578 -65.45 0.0002703996    1.160    0.138
        60  -7.9140     74.9524     74.2968   1.0517752825e+02   5.2848637141e+01    0.1864186    0.1626311  11.74 0.0003636595    1.146    0.127
        61  -8.3512     49.8082     71.5650   1.1293066236e+02   5.6873397831e+01    0.2907955     0.119589  33.88  0.001295345    2.637    0.621
        62  -7.4543    129.3721     69.3119   8.7913376419e+01   4.3207869862e+01    0.1542135    0.1114952  18.74 0.0007033611    1.778    0.438
        63  -8.3557    105.3820     67.9110   9.3842238366e+01   4.8550383746e+01    0.3435605    0.2121556  -5.83  0.001366447    2.758    0.637
        64  -8.6644     83.2635     64.5721   9.9413031538e+01   5.3259020125e+01    0.4341507    0.2748289  -5.32  0.001957499    2.293    0.564
        65  -8.9300     17.4632     62.8591   1.2239232706e+02   6.1708283784e+01    0.4119702    0.1719094 -22.80  0.001714513    3.622    0.724
        66  -9.7101     36.9044     60.0115   1.1416910090e+02   6.0508759447e+01    0.5001262    0.2182903 -38.07  0.002422431    2.036    0.509
        67  -8.4048     57.9648     62.2218   1.0715193302e+02   5.7579551286e+01    0.2674226    0.1747115  46.64  0.000854172    1.969    0.492
        68  -9.2955     62.7639     61.3669   1.0518946686e+02   5.7062392656e+01    0.4231819    0.2165392  24.97  0.001965363    2.279    0.561
        69  -8.5490     97.0269     58.7683   9.3292471391e+01   5.1726809777e+01    0.6035992    0.3287164  -4.63  0.001873233    4.972    0.799
        70  -7.9510    110.8992     58.8965   8.9425747380e+01   4.8925564812e+01    0.3659798    0.2008811  19.56  0.001302905    3.448    0.710
        71  -9.0756     27.5077     60.0347   1.1775300484e+02   6.1416877924e+01    0.2224229    0.1489306  -8.07  0.001279228    1.581    0.367
        72  -8.3799    118.5400     51.1791   8.4938110727e+01   4.8479056461e+01    0.2452096    0.1752692  49.75 0.0004584098    1.323    0.244
        73  -9.8669     75.1404     50.0218   9.7124394174e+01   5.7039424730e+01    0.3055229    0.2372536  12.76  0.000290526    1.253    0.202
        74  -9.0561     45.5928     48.9524   1.0725566728e+02   6.1466507476e+01    0.3885297     0.227599  -3.21  0.001546318    2.210    0.547
        75  -7.9959    106.8200     48.5860   8.7134786790e+01   5.1337768817e+01    0.2654667    0.1796776  22.27  0.001278549    1.702    0.413
        76  -9.5611     12.5865     45.8301   1.1941702448e+02   6.5196131823e+01    0.5957258    0.2647168 -19.82  0.002218612    2.881    0.653
        77  -9.2254     56.7620     42.6561   1.0085470059e+02   6.0996713916e+01    0.6166519    0.3091178  -8.41   0.00220767    4.485    0.777
        78  -8.9204      3.0118     45.5465   1.2331844494e+02   6.5872978002e+01    0.2616791    0.2202368  49.31   0.00186694    1.837    0.456
        79  -8.7536     91.9822     37.2243   8.7345691087e+01   5.5851372858e+01    0.5904155    0.2628174 -33.87  0.002379544    2.320    0.569
        80 -10.7415     83.2043     40.0345   9.0981286647e+01   5.7108588758e+01    0.3634468    0.2491999  -6.09 0.0002208039    1.619    0.382
        81  -8.5866     87.6546     37.6996   8.8786177673e+01   5.6607578175e+01    0.2466654    0.1938485  11.92 0.0007001595    1.235    0.190
        82  -8.0318    113.1910     42.2125   8.3343407077e+01   5.0887835248e+01    0.2379492    0.1309313  22.24 0.0009517063    2.826    0.646
        83  -8.0696     35.3063     41.3316   1.0858925061e+02   6.3894269947e+01    0.1954019    0.1023214 -38.25  0.000766221    1.652    0.395
        84  -8.2397     35.6677     37.7043   1.0712894555e+02   6.4424113759e+01    0.2120401    0.1585324  -9.07 0.0006489481    1.143    0.125
        85  -8.9779     38.7174     35.4152   1.0505186566e+02   6.4423102465e+01    0.2741169    0.1625952  19.29   0.00117153    1.697    0.411
        86  -7.7643    123.9947     39.9122   7.9985554636e+01   4.8830652315e+01      0.21573    0.1507644  22.94 0.0005806585    1.683    0.406
        87  -9.4298     71.6283     35.2225   9.2913894040e+01   5.9766210006e+01    0.5018729    0.2320013  23.73  0.002029521    3.200    0.687
        88  -7.9088    105.9187     37.0152   8.3449052953e+01   5.3095224704e+01    0.2171871    0.1455789  20.50 0.0008679843    1.711    0.416
        89  -9.7417     22.7273     35.6211   1.1172863485e+02   6.6066247873e+01    0.4588561    0.2036602  23.46  0.002504649    2.379    0.580
        90  -9.1764     21.9847     32.2684   1.1082234595e+02   6.6656997329e+01    0.2794052    0.2054373  35.80  0.001155157    1.829    0.453
        91  -8.7252     55.6641     35.0417   9.8412161752e+01   6.2266043823e+01    0.2771342    0.1896985 -27.85  0.001005028    1.357    0.263
        92  -8.8849      1.9253     27.5400   1.1804786443e+02   6.8963703370e+01    0.4019368   0.08011979 -40.84  0.001720654    3.425    0.708
        93  -9.7020      6.5026     33.9112   1.1817518408e+02   6.7639154351e+01    0.3128178    0.2131996 -30.87  0.002217134    1.094    0.086
        94  -8.3621      3.3096     31.6820   1.1884571728e+02   6.8212844138e+01    0.1809195    0.1514054 -55.05 0.0006608681    1.565    0.361
        95  -7.3273    133.3405     31.7018   7.5346166091e+01   4.7725979591e+01    0.1333503    0.1013679 -79.43 0.0007034222    1.664    0.399
        96  -7.6048     94.2438    103.3908   1.0752135138e+02   4.3608334318e+01      0.20029    0.1383277  50.39  0.000941341    1.621    0.383
        97  -9.3016     41.5473     26.6822   1.0052555594e+02   6.5318669371e+01    0.3479979    0.1833504 -44.29 0.0007131614    2.292    0.564
        98  -8.4696    228.0338     25.8494   6.0228160388e+01   2.6136486419e+01    0.2428731    0.1619561 -44.74  0.001123911    1.464    0.317
        99  -7.5432    110.5136     26.4965   7.8695659334e+01   5.3377827312e+01    0.1314078    0.1124304  35.49 0.0008101332    1.044    0.042
       100  -7.9714     66.6142    104.9432   1.1630819999e+02   4.7646352102e+01    0.2490736    0.1610182   4.68  0.001124741    2.301    0.565
       101  -8.9202     69.6969     25.9096   8.9986302717e+01   6.1268010872e+01    0.1691217     0.143638   3.48  0.000669094    1.065    0.061
       102  -8.8819     25.6096     22.8428   1.0559974351e+02   6.7675752611e+01     0.370829    0.1611352 -36.76  0.002064105    2.011    0.503
       103  -8.8158     28.9418     21.0527   1.0343144284e+02   6.7561888738e+01    0.2991608    0.1836681 -19.88  0.001356268    1.404    0.288
       104  -8.0737    102.3012     25.3169   8.0306458043e+01   5.5225482151e+01     0.133004    0.0871062  24.99 0.0004311737    1.618    0.382
       105  -8.5863    144.8757     23.2742   7.0581847025e+01   4.5992347808e+01      0.20099    0.1875839  15.50 0.0003389624    1.211    0.174
       106  -7.9359    128.8786     22.6416   7.3401352614e+01   4.9749386341e+01    0.2145176    0.1348132  45.22  0.000704875    1.453    0.312
       107  -9.0684     45.8177     20.4865   9.6320187769e+01   6.5553021233e+01    0.3007734    0.2152695 -31.70  0.001800715    1.479    0.324
       108  -8.5784     92.6721     20.9314   8.1239306166e+01   5.7630082891e+01    0.2358507    0.1446457  30.86 0.0008597912    1.576    0.365
       109  -8.4528    140.3556     19.9480   7.0393297517e+01   4.7394652025e+01    0.2334033    0.1608499  54.21   0.00035683    1.264    0.209
       110  -8.4792      9.7775     19.5519   1.1141058244e+02   6.9597857878e+01     0.241243    0.1388061   0.67 0.0009865134    1.698    0.411
       111  -8.5144      5.1433     18.8754   1.1332489064e+02   7.0053091781e+01    0.1476058    0.1184299 -21.08 0.0002989759    1.206    0.171
       112  -7.9265    108.2892    247.1029   1.3016093945e+02   8.3045508117e+00     0.228845    0.1051619 -53.34  0.001075864    2.514    0.602
       113  -7.5499    231.3400    246.7136   1.0620720854e+02  -1.1693832289e+01    0.1069021   0.09430114  53.10 0.0002687723    1.637    0.389
       114  -8.4034    127.6637     16.9002   7.1819962999e+01   5.0602438268e+01    0.2124394     0.148439  48.71 0.0003844413    1.251    0.201
       115 -12.0514    246.4093    238.0714   1.0201323032e+02  -1.2649235032e+01    0.2451158    0.2136834   2.09 0.0001119556    1.167    0.143
       116  -7.2615    188.7056     16.2990   6.2313943419e+01   3.6333025567e+01    0.1314485   0.08558582 -72.01 0.0005778435    1.568    0.362
       117  -8.7841     11.8060    235.4798   1.4699181903e+02   2.3767211522e+01    0.1936444    0.1540215 -77.17 0.0004713656    1.403    0.287
       118  -9.7784    187.9894    233.8995   1.1230780974e+02  -2.8711546537e+00     0.279727    0.2247655 -47.26  0.001135188    1.430    0.301
       119  -6.9534    124.7069    225.3499   1.2398141779e+02   9.8381942424e+00    0.1415884   0.09838866  74.20 0.0004508229    1.674    0.403
       120 -10.1559    159.1318    216.2646   1.1525816912e+02   5.4721107498e+00    0.2253654    0.2204443  53.71 0.0002313024    1.062    0.058
       121  -7.7421    160.8865    201.5194   1.1228435730e+02   8.1121894250e+00    0.2122553    0.1366391  42.43 0.0003536566    1.477    0.323
       122  -7.7541    177.1455    166.8099   1.0178471847e+02   1.2210082917e+01    0.2067899    0.1799668 -11.55 0.0004123157    1.300    0.231
       123  -8.6412    250.5987    159.9613   8.6216927949e+01  -7.9034227086e-01    0.2001868    0.1169386 -38.74 0.0003071424    1.497    0.332
       124  -7.8578    251.0000    154.8985   8.5097743314e+01   3.8594864596e-02    0.2247866   0.06900131 -40.25 0.0004363134    2.840    0.648
       125  -9.9959    219.9651    148.5149   8.9095233953e+01   7.1038684936e+00    0.2724927     0.261751  80.31 0.0005043295    1.144    0.126
       126  -9.1551     67.0683    144.8174   1.2463545600e+02   3.8079789485e+01    0.4977042    0.2989269  67.20  0.002169804    2.258    0.557
       127  -7.7411    139.6710    138.6872   1.0413384104e+02   2.6528555125e+01    0.1588851    0.1281383  -5.00 0.0007043321    1.671    0.402
       128  -7.2183    125.3666    136.2657   1.0717988795e+02   3.0074922221e+01    0.1549937    0.1257334   0.87 0.0003000049    1.653    0.395
       129  -8.2463      4.6996    134.1581   1.3964632464e+02   4.7047527583e+01    0.2223247    0.1273091 -36.66  0.001230377    2.139    0.532
       130  -8.8204    238.7193    130.3409   8.1838267611e+01   6.8156590455e+00    0.2416885    0.2172212 -30.52 0.0002564813    1.121    0.108
       131  -7.2614    225.9947    130.7357   8.4049254156e+01   9.3125017775e+00    0.2685948    0.1461468 -67.26 0.0009006935    3.518    0.716
       132  -7.4890     40.3449    129.3251   1.2925490474e+02   4.5121599070e+01     0.139198   0.08906187 -38.07 0.0007050437    1.741    0.426
       133  -7.4432    131.8446    125.3740   1.0287174218e+02   3.1258964637e+01    0.2279597    0.1485452  33.25 0.0009482719    1.776    0.437
       134  -7.9235    153.2637    123.9789   9.7238234816e+01   2.6880432228e+01    0.2035816    0.1357164 -46.44 0.0005130246    1.470    0.320
       135  -7.4532     85.5174    121.5015   1.1460583230e+02   4.0946939730e+01    0.1483335    0.1351085 -43.85 8.881373e-06    1.070    0.065
       136  -7.6569    119.5039    118.5543   1.0438419292e+02   3.5378538397e+01    0.2259594    0.1492427  33.08 0.0009697788    1.720    0.418
       137  -7.3214    158.6945    117.6868   9.4373193886e+01   2.7016498920e+01    0.1565001    0.1279267   1.58 0.0007023755    1.619    0.383
       138  -8.5532     21.5017    113.5050   1.3197157242e+02   5.0589393855e+01    0.1283613    0.1013957 -57.65 -9.837596e-05    1.043    0.041
       139  -8.6292      2.4533    109.5261   1.3693683929e+02   5.2816259781e+01    0.2784489     0.113297 -42.86  0.001360749    2.384    0.581
       140  -7.9159    123.2997    107.6813   1.0052452689e+02   3.7017562276e+01    0.3144593    0.1891741  23.47  0.001170075    2.559    0.609
       141  -8.0469    133.8425    106.2434   9.7391903620e+01   3.5065830027e+01    0.2982142    0.2064723 -16.71  0.001213185    2.090    0.522
       142  -7.9795    109.0826    106.7345   1.0415266928e+02   4.0104455791e+01    0.2875913    0.1944708 -20.13  0.001209775    2.056    0.514
       143  -7.4364     76.5706    107.1732   1.1379824280e+02   4.5684803268e+01    0.2036943    0.1222238 -42.57  0.000469618    1.586    0.370
       144  -9.2792     14.2529    105.3428   1.3274127524e+02   5.2994004107e+01    0.3353933     0.148232 -40.80  0.001625823    2.256    0.557
