#   1 NUMBER                 Running object number                                     
#   2 MAG_AUTO               Kron-like elliptical aperture magnitude                    [mag]
#   3 X_IMAGE                Object position along x                                    [pixel]
#   4 Y_IMAGE                Object position along y                                    [pixel]
#   5 X_WORLD                Barycenter position along world x axis                     [deg]
#   6 Y_WORLD                Barycenter position along world y axis                     [deg]
#   7 A_WORLD                Profile RMS along major axis (world units)                 [deg]
#   8 B_WORLD                Profile RMS along minor axis (world units)                 [deg]
#   9 THETA_WORLD            Position angle (CCW/world-x)                               [deg]
#  10 FWHM_WORLD             FWHM assuming a gaussian core                              [deg]
#  11 ELONGATION             A_IMAGE/B_IMAGE                                           
#  12 ELLIPTICITY            1 - B_IMAGE/A_IMAGE                                       
         1 -13.8515    217.8145      8.3091   3.6517472583e+01   2.9843724699e+01      2.05972      1.23731  41.68   0.01051841    2.249    0.555
         2 -13.1067    176.9296     53.3499   5.3922187901e+01   3.4256214809e+01     1.673545     1.071862  26.64  0.004650588    2.173    0.540
         3 -13.4827    191.8463     40.2593   4.7774823049e+01   3.2365446828e+01     1.091949     1.034221  -0.78  0.004079068    1.196    0.164
         4 -12.8782    196.9714     34.2395   4.5411216449e+01   3.1876877031e+01    0.7386008    0.6611351 -21.70  0.001519606    1.243    0.196
         5 -10.3709    189.3938     14.4584   4.0967570854e+01   3.6019194341e+01    0.2567794    0.2140054 -64.89 0.0008993351    1.166    0.142
         6  -9.0237     44.5251    230.4468   1.2135366058e+02   2.1059835928e+01    0.1186952   0.08441589  66.71   0.00080549    1.108    0.097
         7 -12.4888    247.8780    247.0153   8.4714744495e+01  -1.1036943211e+01    0.8981396    0.4278557 -36.30  0.005096925    2.432    0.589
         8 -19.5344     18.6581    145.2216   1.1963940283e+02   4.2330857274e+01     19.42502      4.77502 -75.58   0.06661306    3.844    0.740
         9  -9.5095     48.4385    217.5607   1.1963576546e+02   2.3138931466e+01    0.1966079      0.10557  36.45  0.000612915    1.854    0.461
        10  -9.5075    184.7676    213.0852   9.0780864448e+01   3.0398611379e+00    0.2591234    0.1876473 -53.04  0.001423414    1.802    0.445
        11  -9.4703     56.8022    209.5426   1.1727058121e+02   2.3771993893e+01    0.2392687    0.1402183 -70.98  0.001363905    1.650    0.394
        12  -8.3927     43.7821    210.2323   1.1996373095e+02   2.5180700941e+01    0.1437422    0.1024894  75.62 0.0002726297    1.179    0.152
        13 -11.6609     33.2734    207.1475   1.2181147401e+02   2.6985586525e+01     0.326907    0.1514154  61.13  0.001159799    2.010    0.502
        14 -11.1467     65.9314    204.5245   1.1487912093e+02   2.3666109664e+01    0.2975897    0.1742464 -62.25  0.001007953    1.734    0.423
        15  -8.8441     70.4528    199.5634   1.1337895875e+02   2.4128674313e+01    0.1516533     0.119543  30.39 0.0003224408    1.468    0.319
        16  99.0000     42.1259    205.9133   1.1994384715e+02   2.6270973265e+01    0.2635683    0.2047333 -22.87   0.00161223    2.217    0.549
        17  -8.7823     93.7299    205.4172   1.0900627156e+02   1.9579320277e+01    0.1850481    0.1595164 -11.64  0.001103519    1.619    0.382
        18  -9.5122     96.2936    201.8727   1.0799357454e+02   1.9933509292e+01     0.235431    0.1779606 -74.75 0.0008778391    1.375    0.273
        19  -8.8659     58.5175    228.9022   1.1860849577e+02   1.9673989787e+01    0.1454663    0.1028063 -84.60 0.0004094108    1.357    0.263
        20 -10.9682    193.0308    194.9693   8.5831029956e+01   4.6456199021e+00    0.9329444    0.4970714 -61.80  0.002981973    5.295    0.811
        21  -9.0862     60.9009    188.1389   1.1422116933e+02   2.7887934509e+01    0.1872969    0.1579612  85.04 0.0003179501    1.035    0.034
        22 -12.0473     56.9301    196.9533   1.1603080267e+02   2.6438161733e+01    0.7770423    0.2649182 -51.82  0.003030615    3.678    0.728
        23 -10.3178     35.0968    197.4141   1.2068488965e+02   2.8853817934e+01    0.1575333    0.1137933  55.40 0.0003968118    1.252    0.201
        24  -9.2203     81.8190    194.7557   1.1030449845e+02   2.3596563935e+01    0.1839397      0.17244  65.40  0.001120705    1.124    0.111
        25  -8.4255     78.2132    192.7079   1.1086078620e+02   2.4556697421e+01     0.124844   0.08859193  77.81 0.0006710788    1.439    0.305
        26 -11.4385    149.4640    188.0668   9.3897522797e+01   1.3825646124e+01    0.4426407    0.3364006  89.35  0.001600738    1.908    0.476
        27  -9.8412     96.5365    190.5207   1.0640214975e+02   2.2330615856e+01    0.2289221    0.1917412  85.55   0.00055523    1.185    0.156
        28 -10.3092     94.4062    187.0810   1.0640655606e+02   2.3416514617e+01     0.321048    0.2582165  68.67  0.001409149    1.214    0.176
        29 -11.2026     98.9017    181.4311   1.0451834004e+02   2.3974706543e+01    0.4847341    0.3342903 -32.22  0.002272666    2.015    0.504
        30  -9.9663    210.4049    188.2052   8.1043538663e+01   2.7286288418e+00    0.1865843    0.1261122 -44.74 0.0009509326    1.699    0.411
        31 -11.0783    124.0203    185.7787   9.9313043250e+01   1.8838404662e+01    0.3402802    0.1876974 -54.98  0.001534065    1.920    0.479
        32 -10.6689    128.3519    184.8821   9.8157273840e+01   1.8272431341e+01    0.2773577     0.136263 -61.61  0.001100232    2.526    0.604
        33 -11.5029    143.4931    177.7322   9.3360820709e+01   1.7042483884e+01    0.4426295    0.2830805 -47.68  0.001157246    1.636    0.389
        34 -10.1231    188.2383    176.7312   8.3231984331e+01   8.7703626918e+00    0.3658892    0.3155115 -51.49  0.001537341    1.361    0.266
        35 -10.0481    149.4662    177.2557   9.1891678952e+01   1.6026508846e+01    0.2409491    0.2222821  49.09 0.0002420746    1.092    0.084
        36  -9.9615     58.7353    176.4802   1.1337157834e+02   3.0815320722e+01    0.2126545    0.1861354 -87.98 0.0003171159    1.051    0.048
        37 -10.4055     50.4310    224.6983   1.1981631476e+02   2.1480196675e+01    0.1952148    0.1164383  81.99 0.0006694624    1.600    0.375
        38  -9.5016     84.0390    173.6981   1.0693082597e+02   2.8019083475e+01    0.1862216    0.1684839  59.07 0.0003547741    1.086    0.079
        39 -11.8909     63.3209    249.9030   1.1935576385e+02   1.5201944539e+01    0.2571986    0.1369119  54.14  0.001577765    1.494    0.331
        40  -8.9035    194.0925    171.7054   8.0967521386e+01   8.5871394936e+00    0.2072504    0.1776107  23.97 0.0007048918    1.109    0.099
        41  -8.5431     63.6215    172.3133   1.1168970606e+02   3.1166085198e+01    0.1458632   0.08889835  67.13 0.0007027084    1.800    0.445
        42 -10.6626    138.9976    170.8224   9.3099855579e+01   1.9351731433e+01    0.3712188    0.2583867  42.61  0.001062021    1.387    0.279
        43  -9.3404    185.5083    169.9812   8.2409687222e+01   1.0556171230e+01    0.2178809    0.1416335 -39.64 0.0006530632    1.553    0.356
        44 -10.1377    240.4639    169.4868   7.1608744345e+01   5.8291820391e-01    0.1365332    0.1146316  -9.66 -3.364935e-05    1.008    0.008
        45 -10.6622    230.5168    167.1406   7.2894326858e+01   2.6746605099e+00    0.3036297    0.2252115 -61.60  0.001510788    2.163    0.538
        46 -10.7774     54.7859    222.2391   1.1877980723e+02   2.1438624290e+01    0.1946288    0.1293084  53.13 0.0006037407    1.265    0.210
        47  -9.2821    187.5654    162.3698   8.0343158454e+01   1.1606262638e+01    0.2755473      0.14023 -46.03 0.0006800154    2.083    0.520
        48 -10.9995     89.4799    157.9035   1.0304927124e+02   3.0919102796e+01    0.2754629    0.2609648 -33.73 0.0004739617    1.192    0.161
        49 -10.9165    133.8345    145.7264   8.9173328752e+01   2.5921642228e+01     1.298311    0.3227354 -54.26  0.002935462    6.164    0.838
        50 -11.6162     95.4479    151.2444   1.0029728870e+02   3.1566637748e+01    0.6383006    0.5219372 -29.69  0.002850953    1.446    0.309
        51 -10.0253    187.0835    151.8048   7.8096493009e+01   1.3748877741e+01    0.2692201    0.2160598 -34.02 0.0008866449    1.217    0.178
        52  -9.6241    112.9601    150.9404   9.5643767025e+01   2.8646095860e+01    0.2462519    0.1826692  79.86 0.0009188961    1.737    0.424
        53  -9.5385    174.8366    149.0785   8.0148371184e+01   1.6815508429e+01    0.2303191     0.213533 -77.10 0.0007050507    1.276    0.217
        54  -9.6320    109.0867    147.3233   9.5926431572e+01   3.0188698229e+01    0.2647279     0.211954 -67.77 0.0003262938    1.290    0.225
        55  -9.6122     87.3099    144.2118   1.0116313772e+02   3.4559374234e+01    0.3914832    0.2184158  67.09  0.001457364    2.908    0.656
        56 -11.0359    107.4204    137.6843   9.4351216602e+01   3.2778638914e+01    0.5389423    0.3993339 -43.86  0.002606281    1.353    0.261
        57 -10.7389    105.8665    130.6811   9.3230700728e+01   3.4729221567e+01    0.3961025    0.3383591 -59.30  0.001123001    1.146    0.127
        58 -11.6736     95.2897    137.1894   9.7581546271e+01   3.4985098944e+01    0.3032629    0.2641741 -44.62  0.000491639    1.152    0.132
        59  -9.8773    135.7820    128.8194   8.4729170128e+01   2.9366111694e+01    0.4749789    0.1231934 -44.68  0.001289875    3.820    0.738
        60 -10.5160    114.4355    129.0270   9.0479313746e+01   3.3546253032e+01     0.350605    0.2740343 -34.59 0.0006363565    1.348    0.258
        61  -9.4621    160.8955    128.1140   7.8328506310e+01   2.4161373470e+01    0.2492063    0.2249883 -78.75  0.001247237    1.287    0.223
        62 -10.4651    102.2355    124.5791   9.2853317844e+01   3.6834532458e+01    0.2954153    0.2443772 -19.91 0.0005610505    1.395    0.283
        63 -10.2676    120.1581    122.6040   8.7358412807e+01   3.3945137037e+01    0.4365079    0.2712918 -13.42  0.001501693    3.098    0.677
        64  -9.0484    135.0000    119.9456   8.2702734943e+01   3.1525999776e+01    0.2644449   0.08856724 -45.56  0.000799906    2.925    0.658
        65  -9.4749    109.9522    118.0923   8.9087119367e+01   3.6961715572e+01    0.2232355    0.2149127 -42.31 0.0002956025    1.004    0.004
        66  -9.7366     56.8310    218.6672   1.1807744373e+02   2.1900352019e+01     0.411144    0.1898129  64.08  0.002003052    2.304    0.566
        67 -10.0520    231.1723    113.6912   6.0667347078e+01   1.1641276565e+01    0.2787707    0.2627206  48.54 0.0007685564    1.195    0.163
        68 -10.1316    134.4813    104.7451   7.8764690029e+01   3.4987130534e+01    0.5217614    0.1538461 -43.51  0.001508351    3.314    0.698
        69  -9.2233    167.7000    112.6801   7.2755739024e+01   2.5855045692e+01    0.3272636    0.2355237 -78.02  0.001332029    2.142    0.533
        70 -11.1521    118.3789    110.4836   8.4736672364e+01   3.7082205437e+01     0.668478    0.4323886  61.67  0.002724169    2.089    0.521
        71  -9.4689    205.5589    110.2037   6.4283838582e+01   1.7734759223e+01    0.2622185    0.2150571  50.59  0.000633108    1.305    0.234
        72  -8.5299    155.2940     82.2994   6.7032141147e+01   3.4745760045e+01    0.1567059    0.1223779  11.35 0.0002119051    1.568    0.362
        73  -9.0615     58.6443    250.2241   1.2020818891e+02   1.5727719172e+01    0.1270674   0.09419112 -71.50 0.0002975431    1.522    0.343
        74  -8.0952     75.5881    247.5572   1.1695586429e+02   1.4033683514e+01    0.1127227   0.09090646  59.25 0.0003175463    1.054    0.052
        75 -10.2603     71.8900    245.1483   1.1743510846e+02   1.4946097423e+01    0.2177952    0.1470808 -73.90  0.001445633    1.587    0.370
        76  -9.5304    157.4803    233.4971   9.9485674000e+01   4.2242982600e+00    0.1277941    0.1069434  35.01 3.561669e-05    1.021    0.021
        77  -8.9138    167.7765    231.0110   9.7073103767e+01   2.9618466612e+00     0.167098    0.1507733  15.55 0.0004227939    1.105    0.095
