#   1 NUMBER                 Running object number                                     
#   2 MAG_AUTO               Kron-like elliptical aperture magnitude                    [mag]
#   3 X_IMAGE                Object position along x                                    [pixel]
#   4 Y_IMAGE                Object position along y                                    [pixel]
#   5 X_WORLD                Barycenter position along world x axis                     [deg]
#   6 Y_WORLD                Barycenter position along world y axis                     [deg]
#   7 A_WORLD                Profile RMS along major axis (world units)                 [deg]
#   8 B_WORLD                Profile RMS along minor axis (world units)                 [deg]
#   9 THETA_WORLD            Position angle (CCW/world-x)                               [deg]
#  10 FWHM_WORLD             FWHM assuming a gaussian core                              [deg]
#  11 ELONGATION             A_IMAGE/B_IMAGE                                           
#  12 ELLIPTICITY            1 - B_IMAGE/A_IMAGE                                       
         1 -11.6872    215.0502     51.5726   2.8737491997e+01   2.5780323927e+01    0.4658072    0.2866902 -26.17  0.002525578    1.522    0.343
         2 -13.0935     45.0575     23.4522   6.1048829060e+01   6.9547761673e+01     1.158666    0.8631558 -64.06  0.005910067    1.834    0.455
         3 -10.9828     75.5977     25.8218   4.7596859935e+01   6.2920256757e+01    0.4282049    0.2800743  -1.43  0.001835392    2.249    0.555
         4 -11.3293    173.0702     20.8578   2.4907597293e+01   3.8811383671e+01    0.3706314    0.2302054  66.12  0.001185258    1.590    0.371
         5 -11.5676     78.1179     13.8764   4.0501032480e+01   6.4015161377e+01    0.4844679    0.3058124  -5.87  0.002187472    2.060    0.515
         6 -10.1437     20.9801     13.8793   7.2661513396e+01   7.4927296707e+01    0.4177441    0.1738852 -37.34  0.001720519    2.564    0.610
         7 -12.4080    156.0577     11.7498   2.3938860451e+01   4.4010545100e+01    0.6115993    0.4873328 -72.19  0.003243344    1.200    0.167
         8 -13.3098    167.3689     11.0638   2.2503915607e+01   4.1222386289e+01    0.9773738    0.5507588  55.12  0.004748809    1.846    0.458
         9 -13.3385    164.1767      2.9915   2.0275865808e+01   4.2768144910e+01     1.880189    0.3754879  73.24  0.005800179    4.332    0.769
        10 -11.2909    131.3425      3.9307   2.4228336733e+01   5.1196622147e+01    0.7260189    0.2259261  59.50  0.002650913    2.696    0.629
        11 -10.5608     71.0861      5.8217   3.8423226267e+01   6.6677367081e+01     0.441445    0.2167501  58.81   0.00192066    1.875    0.467
        12 -10.8642    204.2091      4.8036   1.7787081397e+01   3.3135276424e+01    0.2876048    0.1610669  83.78  0.001549952    1.808    0.447
        13 -10.3792    208.2610      4.5834   1.7481567093e+01   3.2268222035e+01    0.2016676    0.1928323  -4.77 0.0009159123    1.274    0.215
        14 -10.8665    121.3296      4.3735   2.5855548359e+01   5.3820549771e+01    0.4538557    0.3745905  83.81  0.002537708    1.135    0.119
        15 -10.2438    106.6539      5.1838   2.8756818243e+01   5.7650912162e+01    0.3332561    0.1637239  89.84   0.00124447    2.743    0.635
        16 -11.7277     84.0310      3.6907   3.3218222172e+01   6.3688770568e+01    0.8891696    0.3336527  65.93  0.003254133    2.527    0.604
        17 -10.3109     61.7702      1.9922   3.9553718415e+01   6.9309872432e+01    0.4173639    0.1704484  44.27  0.001678932    2.291    0.564
        18 -10.8150     39.3424      8.2272   5.5319871919e+01   7.3183460073e+01    0.3837385    0.2253941 -21.18  0.001806189    2.024    0.506
        19 -10.2164     26.5015    180.5098   1.0049335744e+02   3.3544912968e+01    0.1261601    0.1037971  51.59  2.11552e-05    1.014    0.013
        20 -10.4987    101.0256    175.9553   8.0113207817e+01   2.5726791184e+01    0.1908603    0.1673328  31.15  0.001149609    1.002    0.002
        21 -10.2830    171.8690    163.2916   6.1361903646e+01   1.7016777129e+01    0.2618282    0.1562277  38.74  0.001235189    1.630    0.386
        22 -10.1153     14.6191    160.2226   1.0268586368e+02   3.9105899481e+01    0.1738858     0.107418 -71.12  0.000951794    1.652    0.395
        23 -10.5895    173.0445    158.9637   6.0302846035e+01   1.7536457173e+01    0.2204149      0.14876   0.17  0.001139091    1.708    0.415
        24 -11.4034    220.2296    155.9945   5.1139375081e+01   1.0703902803e+01    0.3761648    0.2664281  43.16  0.002352119    1.713    0.416
        25  -9.9495     20.6952    155.9397   1.0066671021e+02   3.9638916998e+01    0.1850297    0.1546848  74.76 0.0007726581    1.102    0.093
        26 -10.8701    163.4632    151.1767   6.0794104938e+01   2.0445600998e+01    0.4430239    0.3072079 -23.35  0.002341766    1.514    0.339
        27  -9.6764    173.4709    144.5124   5.7349515546e+01   1.9868249749e+01    0.1350137     0.120921   2.07 0.0001011395    1.023    0.022
        28  -9.8420     53.8370    143.6571   8.9284721416e+01   3.9337051262e+01    0.2383267    0.1852418 -59.09  0.001081908    1.354    0.261
        29 -12.6760     10.7150    139.8585   1.0278413469e+02   4.4257041709e+01    0.5638701    0.3035964  70.64  0.002808354    1.779    0.438
        30 -10.0611     40.4099    141.2282   9.3311478953e+01   4.1413737106e+01    0.1956891    0.1247822  87.56 0.0009606606    1.664    0.399
        31  -9.9744    165.2590    135.2849   5.7119327982e+01   2.2913044851e+01    0.3250173    0.1972889 -52.37  0.001498372    2.064    0.515
        32 -13.5578    240.6572    125.1137   4.2074144687e+01   1.1767892025e+01     1.041957    0.8911752  48.30  0.007416224    1.530    0.346
        33 -13.6938    244.6174    110.1654   3.8528361081e+01   1.3065445393e+01     1.726617     0.876394 -38.95  0.009528197    1.760    0.432
        34 -10.6877     18.0701    127.5001   9.9514270616e+01   4.6828339971e+01    0.1965786    0.1273717  22.82 0.0008112321    1.575    0.365
        35 -11.7608     11.4997    124.6428   1.0158598962e+02   4.8002134521e+01    0.3425584     0.205613 -74.58  0.001222904    1.560    0.359
        36 -10.7409      4.7685    124.8665   1.0393080359e+02   4.8345878777e+01    0.2762603    0.1194578  46.54  0.001249921    2.115    0.527
        37  -9.3702    208.9648    123.2848   4.6350035846e+01   1.7076171113e+01    0.1771763    0.1559654  -2.93 0.0009280583    1.056    0.053
        38 -11.7422    189.5239    115.7341   4.7978259315e+01   2.1699587219e+01    0.8155864    0.4197126 -14.39  0.003003896    3.392    0.705
        39  -9.3163    197.3020    116.3613   4.6760406590e+01   2.0167370970e+01    0.1390401   0.09668229   0.87  0.000621836    1.723    0.420
        40 -11.2484    212.7444    112.5242   4.3410178872e+01   1.7981190248e+01    0.4926702    0.2726126 -36.98  0.002547536    1.632    0.387
        41 -10.0075    224.5238    112.0126   4.1569349552e+01   1.6041569783e+01    0.2750556     0.137466 -32.33  0.001255229    1.716    0.417
        42 -11.4415    222.9496    107.2272   4.0753680338e+01   1.6961195684e+01    0.4369074    0.2684841  43.57  0.002429496    1.812    0.448
        43 -10.7160    148.7284    110.9259   5.5176639330e+01   3.0572541358e+01    0.4250918    0.2417973 -38.16  0.001861661    1.772    0.436
        44 -10.9667     17.1714    104.3597   9.7764726495e+01   5.2858886509e+01    0.4131795    0.2426597  41.35  0.002040518    1.676    0.403
        45  -9.4208    162.3012    106.3212   5.1021819097e+01   2.8633852296e+01     0.146628    0.1103109   4.23 0.0006764003    1.627    0.386
        46 -10.0309     30.6883    102.2798   9.2057746710e+01   5.2335162200e+01    0.3011198    0.1699891 -38.04   0.00132857    2.070    0.517
        47  -9.5946    208.7868     94.2529   3.9847047570e+01   2.1318207026e+01    0.1808573    0.1437552  -1.15 0.0007411409    1.355    0.262
        48 -10.0494    178.8001     92.7191   4.4351006893e+01   2.7514781614e+01    0.2949196    0.1852006 -44.22  0.001421241    1.588    0.370
        49 -10.3873     12.9378     89.5635   9.7955609742e+01   5.7004423605e+01    0.2761275    0.1645318 -57.96  0.001371239    1.558    0.358
        50 -11.5570      2.4177     86.8701   1.0235329798e+02   5.8224410724e+01    0.8932269    0.2473196 -80.57   0.00313671    3.233    0.691
        51 -12.4981      5.1418     76.5727   1.0013913078e+02   6.0795908959e+01    0.8430948     0.423227  57.60  0.003805232    2.207    0.547
        52 -13.1418     14.8081     73.1844   9.4932658167e+01   6.1183410250e+01     1.109547    0.6659175  29.96  0.005546347    1.730    0.422
        53 -10.5534     20.2839     88.6363   9.4576013418e+01   5.6768326465e+01    0.2635374    0.1622923  88.77  0.001259738    1.686    0.407
        54 -10.6030    192.2453     86.9874   4.0616301101e+01   2.5629701590e+01    0.5315307    0.2018217  53.49  0.002107209    2.809    0.644
        55 -12.5315     42.4883     80.8157   8.3068097379e+01   5.6714027890e+01     1.134781    0.7937918  -9.36  0.005387092    1.784    0.440
        56  -9.7418    145.2435     81.0064   4.7955228320e+01   3.6877501036e+01    0.2255556    0.1641828  28.04  0.001048352    1.615    0.381
        57  -9.8435    215.2126     79.9097   3.5579691995e+01   2.2092094375e+01     0.247099    0.1324173 -39.68  0.001241063    1.651    0.394
        58  -9.8198    220.9586     78.0075   3.4407374165e+01   2.1258350410e+01    0.2039726    0.1372225 -57.30 0.0008355596    1.729    0.422
        59 -10.2199    169.7939     76.5305   4.1693901032e+01   3.2060943202e+01    0.3199649    0.2632586 -46.21  0.001578876    1.200    0.167
        60  -9.8157    227.1741     71.7472   3.2223150182e+01   2.0908738419e+01    0.1953491    0.1529201 -65.83  0.001214135    1.478    0.324
        61  -9.0733    170.6173     71.2946   4.0092522356e+01   3.2697630732e+01    0.1487758    0.1080172 -71.70 0.0007018534    1.760    0.432
        62 -10.3039     75.0790     69.3421   6.5673490995e+01   5.4516932623e+01    0.3674818    0.2727075  36.23  0.001451101    1.341    0.254
        63 -11.8582    214.8954     67.2243   3.2580201929e+01   2.3836355885e+01    0.4124179    0.2089546 -30.35  0.002022707    1.743    0.426
        64  -9.6446     83.5073     69.0390   6.2302980477e+01   5.2951711478e+01    0.2358651    0.1507797 -47.11  0.001032297    1.588    0.370
        65 -11.1820     25.3960     65.5488   8.8047270601e+01   6.2385262292e+01    0.5062942    0.2585597 -62.41  0.002135545    1.765    0.434
        66  -9.2964    240.3107     66.6519   2.9684215657e+01   1.9163121202e+01    0.1266659   0.07612238 -51.88 0.0007045334    1.712    0.416
        67  -9.7323    179.0146     66.4850   3.7350631872e+01   3.1527614491e+01    0.2082824    0.1389676  61.38  0.001033492    1.597    0.374
        68 -11.1725    232.9622     64.3005   2.9893055345e+01   2.0766581151e+01    0.2680387     0.212315  36.77  0.001734971    1.528    0.346
        69 -11.9515    210.1693     59.3056   3.1196153631e+01   2.5808391713e+01    0.5150618    0.3004714 -24.81  0.002636863    1.665    0.399
        70 -10.7643    218.5513     61.7737   3.0841208407e+01   2.3814511959e+01    0.2129372    0.1856163  66.11  0.001387743    1.308    0.236
        71 -11.0797    228.6927     60.3182   2.9412716554e+01   2.2043619683e+01    0.2515246    0.1571994 -87.05  0.001336442    2.278    0.561
        72  -9.2824     76.3191     59.3498   6.1723048259e+01   5.6481938165e+01    0.1575507    0.1191043  -5.78 0.0007048176    1.738    0.425
        73  -9.8216    199.9868     63.7111   3.3574232887e+01   2.7344875096e+01    0.1827399    0.1726154 -53.01  0.001014004    1.065    0.061
        74 -10.9728    159.4821    231.9618   7.4511714036e+01   8.4455929913e+00    0.1480955    0.1095349 -33.84  0.001034003    1.596    0.373
        75  -9.2612    138.1698     55.6400   4.1676335972e+01   4.2889889236e+01    0.2222355    0.1294507  47.77 0.0008674291    1.733    0.423
        76  -9.8506    164.5230     54.0378   3.6140712564e+01   3.6708037071e+01     0.220802    0.1371198 -31.56 0.0006047077    1.581    0.367
        77 -10.1645     34.9454     52.8333   7.9441477714e+01   6.4603835178e+01    0.2579646    0.1943952  27.33   0.00136011    1.360    0.264
        78 -10.8983     85.1380     47.7595   5.3843482675e+01   5.6969076406e+01    0.5389972    0.3766611  56.54  0.002510933    1.510    0.338
        79 -11.1080     82.4891     41.5531   5.2242591679e+01   5.8705615113e+01    0.5778862     0.313951 -24.18  0.002200386    2.544    0.607
        80 -10.6819     80.4991     38.0177   5.1451760786e+01   5.9781809465e+01    0.3439445    0.2835405 -36.71  0.001790831    1.254    0.203
        81 -10.1529    220.7407     48.4122   2.7387736477e+01   2.5015195381e+01    0.1585569    0.1150846  53.95 0.0007156719    1.588    0.370
        82 -11.6049      3.3944     41.0778   9.6083682147e+01   6.9936575738e+01    0.4981845    0.4278724  62.42  0.002576473    1.312    0.238
        83 -10.8420      6.1237     35.3245   9.2921393352e+01   7.1239036536e+01    0.3714426    0.1924572  29.93  0.001805792    2.083    0.520
        84  -9.5418    242.3170     43.3303   2.4309419104e+01   2.1483926449e+01    0.1115784   0.08679929  10.89 0.0007046713    1.684    0.406
        85 -10.6555    197.0087     43.5216   2.8651383862e+01   3.0595049113e+01    0.1942635    0.1288082  67.87   0.00103729    1.609    0.378
        86 -12.1436    191.0385     38.5168   2.7977280450e+01   3.2542484465e+01    0.7496168    0.1418166 -34.37  0.002433503    3.706    0.730
        87 -11.1006    181.2655     40.2341   2.9635799007e+01   3.4588150170e+01    0.3930858    0.1860132 -44.80  0.001717533    1.995    0.499
        88 -11.2140    185.0054     40.7598   2.9316945658e+01   3.3651919818e+01    0.3664319     0.209442 -66.66  0.001651764    2.164    0.538
        89 -11.2298    197.8710     53.2363   3.1121991005e+01   2.9181899369e+01    0.5684593     0.410607  13.42   0.00295355    1.887    0.470
        90  -9.7477     97.3133     36.6800   4.5118469342e+01   5.6059349250e+01    0.1515178    0.1169674 -75.09 0.0005838445    1.651    0.394
        91 -10.6703    198.0233     34.1789   2.6046486637e+01   3.1481651468e+01    0.2435979    0.1798888 -32.82  0.001402317    1.253    0.202
        92 -10.7170     86.0938     31.3785   4.6428188042e+01   5.9600682750e+01    0.2500109     0.209466 -11.32  0.001037213    1.316    0.240
        93 -11.8363     40.0435     29.4091   6.7153722262e+01   6.9200475435e+01    0.5655057      0.32083 -47.88  0.002654938    1.748    0.428
        94 -10.9270      3.7025    230.0443   1.0763668384e+02   2.5614493012e+01    0.2539631    0.1019235  34.49  0.001490625    1.727    0.421
        95 -10.3640    146.1685     28.1961   3.0854958100e+01   4.4744693101e+01    0.3848967    0.2004364 -74.27  0.001411497    2.938    0.660
        96  -9.6614     67.0000     28.9629   5.2713373511e+01   6.4305665108e+01    0.2331476   0.08225413 -38.35  0.000800811    2.931    0.659
        97  -9.8850     90.1524     28.1483   4.3598552037e+01   5.9120149701e+01    0.2330386    0.2009726  27.08  0.001124331    1.201    0.167
        98 -11.6411    248.7804    224.3658   5.8091594413e+01  -6.8951321263e-01    0.3652392    0.2225423 -19.98  0.002790113    1.404    0.288
        99 -11.9837    178.6142     23.8858   2.5205293159e+01   3.7139111466e+01    0.4262751    0.3918907  79.16  0.002356646    1.118    0.106
       100  -9.9459     31.5072    227.4565   1.0158766383e+02   2.3745052623e+01    0.1143167   0.08626722  42.56 0.0005488351    1.009    0.009
       101  -9.1780    102.6709     25.6999   3.8852088278e+01   5.6340873515e+01    0.1540775    0.1074079  31.35 0.0007030876    1.643    0.391
       102  -9.6153    224.4824     22.9801   2.0947111898e+01   2.7078162578e+01    0.1898868   0.06115535 -45.54 0.0008101524    2.535    0.605
       103 -10.1945    187.4091     19.2157   2.2979023556e+01   3.5554133456e+01    0.2460675    0.1816164  79.67  0.001409451    1.359    0.264
       104 -10.4769    128.3921     18.3253   3.0234969913e+01   5.0537226549e+01    0.3254752    0.2851585  89.63  0.001412615    1.106    0.096
       105 -10.0289    116.0433     16.7572   3.1923626627e+01   5.3971501851e+01    0.3220846    0.1443955 -50.55   0.00119027    2.731    0.634
       106  -9.8558     94.2588     17.0012   3.7152421806e+01   5.9607809338e+01    0.2977842    0.1775967 -86.98  0.001165867    2.621    0.618
       107 -10.1556    228.6009     15.7312   1.8959112108e+01   2.6979151355e+01    0.2007686    0.1102938 -55.30  0.001131266    1.626    0.385
       108 -13.0691    203.3027    221.1690   6.4929954395e+01   4.5649985493e+00    0.7241063    0.4041817  16.48  0.004575945    1.514    0.340
       109 -11.1949    158.3530    225.3939   7.3893953965e+01   9.4768218106e+00    0.1944779    0.1485585 -37.39  0.001351361    1.591    0.372
       110 -10.9450     50.6055    218.5674   9.6823705440e+01   2.3517475930e+01    0.2456007    0.2061574  30.52  0.001724867    1.142    0.124
       111 -10.3048     66.9911    217.0086   9.2925972795e+01   2.2053670524e+01    0.2071781    0.1127152  51.78  0.001144361    1.733    0.423
       112 -10.6914     76.4640    220.6619   9.1040913177e+01   2.0326953415e+01    0.3055374   0.09148745  28.49  0.001272075    2.662    0.624
       113 -13.2840    182.9712    216.8333   6.7972620904e+01   7.5561279812e+00    0.6232327    0.3597999 -19.27   0.00372047    1.861    0.463
       114  -9.9054    141.4897    206.4808   7.4845518916e+01   1.4480399095e+01    0.2259859    0.1226826 -47.02  0.001214031    2.176    0.540
       115 -11.6113    243.8586    202.3289   5.5478617318e+01   2.1009531715e+00     0.452868    0.3343473 -22.39  0.003494616    1.410    0.291
       116  -9.8027    123.9635    205.9971   7.8637218302e+01   1.6930604643e+01    0.1751368    0.1430351  22.25            0    1.022    0.022
       117 -10.1773    202.5135    196.9839   6.1368311948e+01   7.6697776111e+00    0.2097928    0.1542013 -15.58  0.001283993    1.226    0.184
       118 -11.1985    204.2707    192.6347   6.0348427641e+01   8.0096921807e+00    0.3596306    0.1918813  20.06  0.002006935    1.798    0.444
       119 -11.6339    195.7184    185.2519   6.0650753960e+01   1.0153640017e+01     0.349327    0.3055969 -31.21  0.002430892    1.445    0.308
       120  -9.9575     37.5109    185.4820   9.7896272576e+01   3.1445466351e+01    0.2151093    0.1169624  10.09  0.001031787    2.295    0.564
       121  -9.7890    129.6210     12.8496   2.7917215233e+01   5.0800328147e+01    0.2886451    0.1598008  47.09  0.001046197    1.880    0.468
