#   1 NUMBER                 Running object number                                     
#   2 MAG_AUTO               Kron-like elliptical aperture magnitude                    [mag]
#   3 X_IMAGE                Object position along x                                    [pixel]
#   4 Y_IMAGE                Object position along y                                    [pixel]
#   5 X_WORLD                Barycenter position along world x axis                     [deg]
#   6 Y_WORLD                Barycenter position along world y axis                     [deg]
#   7 A_WORLD                Profile RMS along major axis (world units)                 [deg]
#   8 B_WORLD                Profile RMS along minor axis (world units)                 [deg]
#   9 THETA_WORLD            Position angle (CCW/world-x)                               [deg]
#  10 FWHM_WORLD             FWHM assuming a gaussian core                              [deg]
#  11 ELONGATION             A_IMAGE/B_IMAGE                                           
#  12 ELLIPTICITY            1 - B_IMAGE/A_IMAGE                                       
         1  -9.9640     97.4841     12.9617   2.1781419093e+01   5.8015461233e+01    0.2670797    0.1286494 -13.87  0.001210129    2.789    0.641
         2 -10.8440     40.9670     13.8723   4.1055180206e+01   6.8344297622e+01    0.2057305    0.1546144  15.94 0.0002686997    1.122    0.108
         3  -8.9096     67.4968      1.3588   2.5326384878e+01   6.5145062311e+01    0.1194406   0.09291328  35.85  0.000792946    1.049    0.046
         4 -11.0066    167.3326    247.6916   6.2639618121e+01  -1.3722546051e+00    0.2002076    0.1675161  38.56  0.001288785    1.126    0.112
         5 -10.5019     53.9441    248.9313   8.5777158866e+01   1.5425106640e+01    0.4018044    0.2923295   7.57  0.002252253    2.557    0.609
         6 -10.2655     20.5133    249.6461   9.2116124854e+01   1.9324792169e+01    0.2123993    0.1410136  85.43  0.001440491    1.273    0.215
         7  -9.5333     13.4715    250.4803   9.3426228384e+01   1.9930362191e+01    0.2053969   0.06258018  46.37 0.0009594828    2.330    0.571
         8  -9.7680    107.1847    247.5724   7.4935104765e+01   8.0708953820e+00    0.2679564     0.148677 -83.06  0.001238906    2.753    0.637
         9  -8.8702    247.5437    247.5114   4.7619834284e+01  -1.2554214892e+01    0.1116881   0.08888852   0.12 0.0001622305    1.082    0.076
        10  -9.3449     73.5594    243.9507   8.1451065368e+01   1.3750982274e+01    0.1755485    0.1163763 -73.13  0.001026705    1.597    0.374
        11 -10.4672     28.7553    243.2828   9.0213138233e+01   1.9657861034e+01    0.2445723    0.1694833  84.62  0.001105509    1.229    0.186
        12 -11.3639    167.0747    242.0159   6.1863498918e+01  -3.9564287018e-01    0.2709184    0.1613666  35.27  0.001192607    1.454    0.312
        13  -9.3523     97.6397    241.6958   7.6255111543e+01   1.0659593671e+01    0.1210624    0.1009315   1.51 0.0007038612    1.726    0.421
        14  -9.6238    108.1645    238.8299   7.3713112602e+01   9.5952412099e+00    0.2901958    0.1470479 -35.11  0.001081182    4.255    0.765
        15  -9.9103    231.0456    234.2332   4.8324521354e+01  -8.6626085996e+00    0.2036332    0.1566983 -19.80 0.0008879619    1.192    0.161
        16 -11.0564     90.8537    230.5800   7.6443869106e+01   1.3938005223e+01    0.3849828     0.199304 -51.46  0.001834122    2.307    0.566
        17 -11.0611     87.9726    227.3345   7.6697029116e+01   1.5055245499e+01    0.3141723    0.1672671  36.16  0.001086981    1.785    0.440
        18  -9.9110    237.8568    230.0409   4.6411900418e+01  -8.9775642265e+00    0.2220328    0.1485411 -24.01  0.001384488    1.360    0.265
        19 -11.1190    162.3774    225.4320   6.0297689463e+01   3.2710382171e+00    0.4038495    0.2985974  13.46  0.002195669    1.520    0.342
        20  -9.7778    116.5239    227.0799   7.0427559771e+01   1.0598102245e+01    0.1870336    0.1341276 -62.72 0.0007493552    1.550    0.355
        21 -11.5247     98.6730    225.3357   7.4119468096e+01   1.3823249259e+01    0.4312591    0.3110012  48.81  0.001720893    1.208    0.172
        22 -10.1811     99.7807    217.8383   7.2924225214e+01   1.5244842133e+01    0.3718348     0.215954 -62.24  0.001468671    1.837    0.456
        23 -11.3614     95.5389    217.7460   7.3866911010e+01   1.5938694149e+01    0.4352932    0.3810733  62.23  0.001309655    1.011    0.011
        24 -11.2755    126.3221    220.9902   6.7424607988e+01   1.0212606238e+01    0.3711429    0.2701131  77.67  0.000880081    1.709    0.415
        25  -9.9973    108.6716    222.6504   7.1568217587e+01   1.2788788697e+01    0.1981782    0.1642497 -10.88 0.0007933525    1.698    0.411
        26  -9.4560    169.4230    224.4813   5.8670203163e+01   2.2707874808e+00    0.3559055    0.1811262  60.21  0.001195193    4.449    0.775
        27  -8.8520    157.5267    221.4653   6.0696467045e+01   4.8240036533e+00    0.1362025     0.122297  27.15 0.0001673405    1.035    0.033
        28  -9.9517    115.0577    220.9236   6.9916228486e+01   1.2104189218e+01    0.2022726    0.1680244  -7.23 0.0007564648    1.645    0.392
        29  -9.8276     74.8921    219.1877   7.8651724287e+01   1.8758520994e+01    0.2165256    0.1550786  63.29 0.0007670759    1.254    0.202
        30  -9.2417    143.5866    216.7809   6.2977298910e+01   8.1187459466e+00    0.1802478    0.1355219 -68.33  0.000946493    1.601    0.375
        31 -10.3511    170.4948    215.2607   5.6923068804e+01   3.7801190379e+00    0.2627514    0.2270523  25.08 0.0008496371    1.069    0.065
        32  -8.9936    151.5006    216.4959   6.1200409884e+01   6.8097024116e+00    0.1383696    0.1258134  27.28  0.000810093    1.054    0.051
        33  -9.0872    131.2989    214.3397   6.5328149507e+01   1.0732849193e+01      0.13665    0.1096575  -8.75 0.0003998184    1.664    0.399
        34  -9.9965     77.2481    211.2361   7.7213374531e+01   2.0186393809e+01     0.242333    0.1613044  37.85 0.0009905437    1.477    0.323
        35 -10.8914    212.9207    207.6931   4.7051747200e+01  -1.8947439771e+00     0.332373    0.2022201  40.81  0.001738645    1.697    0.411
        36 -10.3193    124.0179    205.9755   6.5693031569e+01   1.3765422831e+01    0.2032706    0.1855528  55.56            0    1.009    0.009
        37  -8.8302    130.3202    201.3301   6.3494792995e+01   1.3665534471e+01    0.1431287    0.1142517  -8.41 0.0004214312    1.691    0.409
        38 -11.7162    172.7422    195.6928   5.2985189281e+01   7.1548190322e+00     0.485261    0.3263564 -48.49  0.001717672    1.565    0.361
        39 -10.7758    180.8031    199.8268   5.2034070150e+01   4.9068350861e+00    0.2600331    0.2170113  53.62 0.0002920324    1.338    0.253
        40 -11.3556    177.8664    196.8768   5.2110133099e+01   5.9985705340e+00    0.3396832    0.2867548  -1.30 0.0009330796    1.266    0.210
        41 -11.3028    167.0023    197.7456   5.4603579796e+01   7.7854983994e+00    0.3982795    0.2094217 -44.84  0.001740358    1.980    0.495
        42 -10.8381    162.5925    193.8363   5.4856883026e+01   9.3844011582e+00    0.3889511     0.265888  70.93  0.001517308    2.226    0.551
        43  -8.8326    144.3740    197.7949   5.9664228015e+01   1.1896097302e+01    0.2025179    0.1329823 -40.47 0.0009455033    1.699    0.412
        44  -9.5529    105.2012    197.5305   6.8814138586e+01   1.8884636415e+01    0.2674206    0.1769799 -44.02 0.0008028331    1.788    0.441
        45 -10.4519    126.0185    196.9834   6.3784005712e+01   1.5386722385e+01    0.3905755    0.2034528  31.17  0.001353721    2.130    0.530
        46  -9.5925    113.0185    194.2429   6.6428585646e+01   1.8298780410e+01    0.2016464    0.1784282  50.97 0.0003631377    1.065    0.061
        47 -10.4779     14.6551    193.4451   8.9657301874e+01   3.2054215629e+01     0.287643    0.2216032 -27.90  0.001590551    2.032    0.508
        48 -10.5184    179.8350    191.4431   5.0676138672e+01   6.7072568088e+00    0.2881387    0.1926933 -62.69  0.001312327    1.985    0.496
        49  -9.1364    154.7641    191.0372   5.6093259518e+01   1.1417364155e+01    0.1959226    0.1854319 -55.99 0.0005890871    1.110    0.099
        50 -11.3691    204.6040    187.5931   4.4889489523e+01   3.0282124580e+00    0.4097163     0.292767 -52.44  0.002136881    1.583    0.368
        51  -9.5212    138.5413    189.0199   5.9466561714e+01   1.4873682165e+01    0.2221937    0.1463087 -54.68 0.0008573724    1.595    0.373
        52  -9.6508     66.7376    194.8985   7.7702895203e+01   2.5508660642e+01    0.2684256    0.1723078  83.20  0.001211192    1.654    0.396
        53 -11.6273     10.4395    186.8207   9.0098522957e+01   3.3995176096e+01     0.555143    0.2183649  51.60  0.002622969    2.365    0.577
        54  -9.0384    165.3253    186.6388   5.2905018574e+01   1.0364393477e+01    0.1497896    0.1162555  82.29 0.0007041921    1.786    0.440
        55 -10.3610    109.8539    185.1390   6.5712232583e+01   2.0969058785e+01    0.3611536    0.2807572  31.94  0.001830151    1.369    0.269
        56  -9.8268    228.6627    184.6570   3.9822333593e+01  -4.8043437912e-01    0.1397347   0.09551626  -5.67 0.0007049681    1.769    0.435
        57 -11.4486     98.0063    188.0458   6.9107744435e+01   2.2310922255e+01    0.5684721    0.2975118  54.13  0.001557555    2.037    0.509
        58 -10.6399    174.7970    183.7281   5.0271696519e+01   9.1843419782e+00    0.3650109    0.2440222  75.72  0.001474899    2.716    0.632
        59 -11.1148     20.1744    181.3513   8.7402586682e+01   3.4370306162e+01    0.4079241    0.2129419 -81.18  0.001988039    1.662    0.398
        60 -11.1489     94.6318    182.6214   6.9098095814e+01   2.4172483937e+01    0.4940378    0.3882314 -89.06  0.001905023    1.314    0.239
        61 -10.2452     44.5410    180.4435   8.1403662822e+01   3.1929314219e+01    0.4942334     0.111692 -67.49  0.001592031    3.807    0.737
        62  -9.9096    147.6613    179.7082   5.5600572123e+01   1.5214253530e+01    0.2877029    0.1846091 -75.25  0.001159035    2.349    0.574
        63  -9.4108    138.6057    179.5929   5.7719164978e+01   1.6971572828e+01    0.3228815    0.1999425 -87.95  0.001146952    3.123    0.680
        64 -10.7789     10.0067    180.0293   8.9672087246e+01   3.5633691524e+01    0.1923968    0.1517991  88.78 0.0003514728    1.024    0.023
        65 -10.6993     14.0086    178.4944   8.8610894919e+01   3.5638071754e+01    0.2686333    0.1625252 -77.57  0.001105966    1.377    0.274
        66 -11.2892      3.3508    177.9428   9.1049667721e+01   3.6694865585e+01    0.3404166    0.2454468  26.67  0.002163196    1.724    0.420
        67  -9.5514     88.7358    176.9664   6.9698013899e+01   2.6517472417e+01    0.2778254     0.174825  53.58  0.001275663    1.598    0.374
        68  -9.8823     77.4568    175.6234   7.2396721545e+01   2.8624844277e+01    0.2935739    0.1770514  76.79 0.0009954252    2.116    0.527
        69  -9.9205    204.7805    175.3897   4.2445776567e+01   5.2794032822e+00    0.1966619    0.1300444  30.05 0.0005296295    1.647    0.393
        70 -10.1777    148.8409    174.7001   5.4351259536e+01   1.6098964282e+01    0.2387322    0.1907253  22.80 0.0008361561    1.403    0.287
        71  -9.6514    105.7852    175.2079   6.5037966766e+01   2.4057121280e+01    0.2642893    0.1531112  73.74 0.0009544207    2.799    0.643
        72  -9.5465     24.4888    174.5448   8.5728701180e+01   3.5585759777e+01    0.1320714    0.1065754  84.50 0.0001951602    1.035    0.033
        73 -11.3435    206.8367    169.0367   4.0758553831e+01   6.1132595296e+00    0.4073893    0.1889789 -45.37  0.001685077    2.092    0.522
        74 -10.3680    121.8760    169.5048   5.9911222823e+01   2.2490616050e+01    0.3950285    0.2842027  78.15  0.001403388    1.765    0.433
        75 -10.6039    177.5907    169.6522   4.6847250977e+01   1.1551437891e+01    0.4357928    0.3448244 -55.17  0.002217393    1.335    0.251
        76 -11.7580    219.3508    165.5855   3.7712709668e+01   4.4993774157e+00    0.4048537     0.343576  42.59  0.001985347    1.292    0.226
        77 -10.0477    139.5958    165.2444   5.4671756080e+01   2.0062509740e+01    0.4505691    0.2941035  80.15  0.001723262    2.538    0.606
        78  -9.5638    134.9881    171.0640   5.6956761319e+01   1.9618273025e+01    0.2528072    0.1867298  78.67  0.001135387    1.740    0.425
        79  -9.8742     80.4628    164.4547   6.9832814861e+01   3.0946309039e+01    0.3493971    0.1940262  83.63  0.001255465    2.952    0.661
        80 -10.0085    149.5021    163.7886   5.1989291105e+01   1.8419341554e+01    0.2996681    0.2161735  41.63  0.001398783    1.380    0.275
        81  -9.4607     36.4819    164.4952   8.1590695488e+01   3.6803912276e+01    0.1357013    0.1156998 -85.17 -2.024172e-05    1.024    0.024
        82 -12.0508    248.2082    157.8199   3.1261220824e+01   9.7040514609e-01    0.8127012     0.270673 -36.26   0.00310176    2.824    0.646
        83 -11.6232    247.8318    149.4675   2.9651225170e+01   2.4643690432e+00    0.3990239    0.3403928 -13.51   0.00248914    1.219    0.180
        84 -10.0270     93.1188    160.3541   6.5708491326e+01   2.9907498958e+01    0.3130809    0.2124812  67.16  0.001304267    1.717    0.418
        85 -10.2226    146.7947    159.3992   5.1717010248e+01   1.9963148088e+01    0.2686066    0.2514088  88.99 0.0004781696    1.101    0.091
        86 -10.2275    142.4956    158.4886   5.2565399872e+01   2.1042614719e+01    0.3789119    0.1472126  44.84  0.001266914    2.564    0.610
        87  -9.4728     22.6668    160.6658   8.4764338104e+01   3.9165769654e+01    0.1328744    0.0879439 -46.36 0.0007052231    1.734    0.423
        88 -13.0242    206.0648    153.4966   3.7656020780e+01   9.2572618738e+00     0.953885    0.7392311 -79.36  0.004750159    1.774    0.436
        89 -10.5392    188.4517    156.7857   4.1845509116e+01   1.2062481931e+01    0.3412601    0.2414283 -59.44  0.001085557    1.608    0.378
        90  -9.9311    167.9765    157.3465   4.6361856371e+01   1.6093207491e+01     0.280553    0.2146571 -75.88  0.001092265    1.660    0.398
        91  -9.9584    105.1989    157.4172   6.1909082527e+01   2.8515459797e+01    0.3174818     0.237929 -84.21 0.0008805409    1.524    0.344
        92  -9.5228    119.4443    154.7686   5.7610475340e+01   2.6494454905e+01    0.3112211    0.2184085 -81.78  0.001256685    1.825    0.452
        93 -10.0640     82.1126    154.4582   6.7651115975e+01   3.3202503583e+01    0.3324712    0.2138917  74.49   0.00141716    2.011    0.503
        94 -10.7686     68.3915    153.9172   7.1383868737e+01   3.5427580271e+01     0.460869    0.2901146  76.65  0.001559692    2.006    0.502
        95  -9.8644     49.6097    154.8445   7.6768811839e+01   3.7703518040e+01    0.2874178    0.1867998  75.93  0.001015974    1.713    0.416
        96 -10.5811    133.5188    152.9830   5.3620444347e+01   2.4140913821e+01     0.525672    0.3365395  79.64  0.001934453    2.653    0.623
        97  -9.9596    183.6096    151.2786   4.1654652498e+01   1.4178924797e+01    0.3889308    0.2611384 -68.49  0.001660275    2.047    0.511
        98  -9.3134     98.3522    150.6667   6.2438514520e+01   3.1417334975e+01    0.2291729    0.1558436 -76.72 0.0007533844    1.700    0.412
        99 -11.7387    189.1032    148.8896   3.9994591179e+01   1.3549987479e+01    0.7069629    0.4002171 -60.47  0.002771947    2.358    0.576
       100  -9.7987     99.1698    165.9390   6.5107881552e+01   2.7481247219e+01    0.3259952    0.1641944  58.49  0.001173374    2.616    0.618
       101 -10.4269    197.1559    157.6936   4.0280849387e+01   1.0159989061e+01    0.2669294    0.1942932 -52.65  0.001150631    1.419    0.295
       102  -9.1162    142.5181    148.5056   5.0402005462e+01   2.3346166984e+01    0.1577971    0.1491056  87.40 0.0002625917    1.067    0.062
       103  -9.8319     39.5032    147.3228   7.8522288299e+01   4.0781991794e+01    0.3559301     0.156729  55.90  0.001382821    2.904    0.656
       104 -11.2032    149.3533    143.8061   4.7684081110e+01   2.2992835315e+01    0.8728111    0.4894422 -63.72  0.003223352    2.380    0.580
       105 -10.4023     56.3780    145.7222   7.3438783455e+01   3.9160513399e+01    0.5318959    0.2768177  64.32  0.002063925    2.732    0.634
       106  -9.0110    175.5184    145.9952   4.2203539228e+01   1.6970748210e+01     0.217933    0.1310763 -67.04 0.0008092282    2.487    0.598
       107 -10.2930    107.0001    144.8053   5.8857827212e+01   3.1295352254e+01    0.5459017    0.3246135  81.59  0.001808555    3.334    0.700
       108  -9.0752     77.6906    146.6528   6.7466838951e+01   3.5873370950e+01    0.1521618    0.1125131 -31.27   0.00070447    1.707    0.414
       109  -9.3595    177.7049    160.5881   4.4922909450e+01   1.3426538671e+01    0.2571282    0.1860263 -67.17  0.000993315    1.729    0.422
       110  -9.3868    165.9766    144.0031   4.3858115419e+01   1.9417792568e+01    0.2524137    0.1922543 -87.26  0.001129725    1.741    0.426
       111  -9.2193    138.3233    144.6683   5.0588060361e+01   2.5107955148e+01    0.1636739    0.1238113  85.21 0.0007050225    1.703    0.413
       112 -10.6519    125.0295    142.5266   5.3517276787e+01   2.8338493749e+01    0.5892258    0.3476603 -78.04  0.002002862    3.011    0.668
       113  -9.8661     88.1287    143.8651   6.3947605208e+01   3.4885491213e+01    0.3340636    0.2101012  74.93  0.001327564    2.305    0.566
       114  -9.6180    182.4688    141.5063   3.9715649895e+01   1.6455752224e+01    0.3309782    0.2276843 -83.38  0.001124853    2.322    0.569
       115 -10.4459     69.1959    140.1670   6.8720992730e+01   3.8798735733e+01    0.3907105     0.220336  84.67  0.001411404    3.010    0.668
       116 -10.9703    249.4639    135.9754   2.6676872040e+01   4.5172496979e+00    0.3291255    0.1607017 -44.98  0.001432053    1.772    0.436
       117  -9.9175    188.5813    123.5260   3.4321574493e+01   1.8844618173e+01    0.3613037     0.216686 -54.67  0.001332743    1.755    0.430
       118  -9.8653    187.0507    129.0079   3.5907830869e+01   1.8063029974e+01    0.3910259    0.1889163 -51.16  0.001264452    2.152    0.535
       119  -9.5602     81.4420    139.2603   6.4955066785e+01   3.7144491122e+01    0.2111847    0.1404393 -72.21 0.0007622739    1.602    0.376
       120 -10.0507     23.5977    138.1947   8.1833796351e+01   4.4657048234e+01    0.4346693    0.2007205  74.23  0.001634006    3.388    0.705
       121 -10.9065    197.7335    136.8297   3.5597955036e+01   1.4220010831e+01    0.3735506    0.2911491 -38.12   0.00190377    1.237    0.192
       122  -9.6897    172.3307    137.6618   4.0998378783e+01   1.9430135872e+01    0.3469578    0.2263912 -71.14  0.001304996    2.198    0.545
       123  -9.9232    203.3328    136.6710   3.4499765149e+01   1.3100323215e+01    0.2647762    0.1853595  44.52  0.000569617    1.540    0.351
       124  -9.3783    162.8295    136.1289   4.2756984871e+01   2.1817021013e+01    0.2492966     0.209829 -84.34  0.001212921    1.355    0.262
       125 -11.0189     41.2662    132.8055   7.5793341442e+01   4.4244535811e+01    0.6155063    0.3267122 -80.23  0.002254173    2.098    0.523
       126  -9.7017    179.8846    133.6095   3.8445938586e+01   1.8659060065e+01    0.3198495    0.1964784 -60.50  0.001313161    1.948    0.487
       127 -10.8939    132.3220    131.0161   4.8956157881e+01   2.9548972491e+01    0.6037287    0.3642086 -71.41  0.002031913    2.478    0.597
       128  -9.6042    112.5000    132.9718   5.4725038360e+01   3.3130281537e+01    0.3136294     0.231813 -83.46  0.001070936    1.693    0.409
       129 -11.5293    111.7801    128.4724   5.3876109434e+01   3.4354231190e+01    0.5310964    0.4467455  -9.24  0.002571297    1.497    0.332
       130 -11.0555    116.6890    122.9191   5.1176528876e+01   3.4690740829e+01    0.8680363    0.4411405 -56.51  0.003261748    2.112    0.527
       131 -10.8158     83.4530    131.3516   6.2726282167e+01   3.8796224185e+01    0.4865668    0.3120619 -85.54  0.001462475    2.188    0.543
       132 -10.1070    226.7454    132.5967   2.9499845095e+01   9.2429381517e+00    0.1850028    0.1352655  65.79 0.0009550138    1.679    0.404
       133  -9.6431    143.0096    131.4841   4.6362913532e+01   2.7157323656e+01    0.3128182    0.2196574 -65.24  0.001016515    1.630    0.386
       134 -11.0798    247.6890    129.5752   2.5628650013e+01   5.9338816030e+00    0.2874083    0.2049919 -83.08  0.001492169    2.060    0.514
       135 -10.7547    188.2300    135.6144   3.7194146588e+01   1.6457823127e+01    0.5434045     0.227124 -49.10  0.001945585    2.432    0.589
       136  -9.9833    168.9885    129.2038   3.9746267077e+01   2.1969520659e+01    0.3848181    0.2453463 -60.07  0.001290498    1.793    0.442
       137 -10.2113    153.0704    128.7529   4.3269805120e+01   2.5577554717e+01    0.5139557    0.2747146 -59.97   0.00186497    2.363    0.577
       138 -11.6518     98.7912    125.8636   5.6970521511e+01   3.7463787291e+01     1.027123    0.4571924 -61.29   0.00349861    2.675    0.626
       139  -9.4809     13.2360    129.6640   8.3767213496e+01   4.7616367949e+01    0.3107294    0.1296359  64.16  0.001135232    3.898    0.743
       140  -9.9489     73.1210    128.9645   6.5337487394e+01   4.1032016934e+01    0.3197451     0.206431  75.33   0.00130032    2.211    0.548
       141 -10.8684     59.8984    124.2988   6.8478937977e+01   4.4096130481e+01    0.5981323     0.332242  74.12  0.002133248    3.390    0.705
       142 -10.4275    249.5665    124.7033   2.4359740447e+01   6.4440920264e+00    0.2155524    0.1624862 -87.61   0.00119656    1.771    0.435
       143  -9.6500    180.0389    124.5366   3.6281724018e+01   2.0513136896e+01    0.3290295    0.2304377 -68.83  0.001449585    1.758    0.431
       144 -10.1890    181.2177    119.7135   3.4887614074e+01   2.1242680303e+01    0.3543527    0.2347788 -31.43  0.001556818    1.704    0.413
       145 -11.0656     44.0725    122.5661   7.3153765373e+01   4.6489627750e+01    0.7240057     0.381332  81.64   0.00259603    3.553    0.719
       146 -10.4722    105.3317    123.3950   5.4492824926e+01   3.6826440968e+01     0.281043    0.2510143  65.48 0.0005421411    1.161    0.139
       147 -10.7959     28.6646    122.3631   7.8001161030e+01   4.8122047342e+01    0.5186733    0.2794587  70.96  0.002210353    2.716    0.632
       148  -9.8098    158.6319    121.1438   4.0116268553e+01   2.6007063007e+01    0.3650847    0.2562267 -71.61   0.00123533    1.809    0.447
       149  -9.4874    172.8481    121.1436   3.6973986664e+01   2.2816677626e+01    0.2467879    0.2072032 -76.99   0.00094585    1.300    0.231
       150 -10.8797    141.7431    118.5103   4.3491167488e+01   3.0355895148e+01    0.7265514    0.3350097 -57.86  0.002392586    2.832    0.647
       151 -10.5356    130.8175    118.1213   4.6178178777e+01   3.2833631237e+01    0.5557838     0.337826 -74.21  0.001966419    2.750    0.636
       152 -10.1968     71.1812    119.6819   6.3951958993e+01   4.3626159713e+01    0.3177402    0.2260672  85.74   0.00136355    1.841    0.457
       153 -10.0603    249.5040    118.4660   2.3086814000e+01   7.5274419193e+00    0.1332882    0.1124348 -46.56 0.0001544635    1.007    0.007
       154 -10.0580    103.0600    118.5390   5.3969508961e+01   3.8419829029e+01    0.2310661    0.1524194  40.56 0.0005481679    1.555    0.357
       155  -9.6727    231.6914    117.3158   2.5426620107e+01   1.1067841777e+01    0.1407584   0.09967576 -67.90 0.0007030031    1.632    0.387
       156  -9.8090      3.1945    117.0574   8.5215451941e+01   5.1349410593e+01    0.2126559    0.1209299  77.45  0.001086216    2.033    0.508
       157  -9.8117    186.0453    115.1101   3.2818181256e+01   2.1096051644e+01    0.3555372    0.2018159 -47.21  0.001504458    1.688    0.408
       158 -11.3798    108.6909    112.3815   5.0786792083e+01   3.8760257615e+01    0.8200594    0.3432504 -56.91  0.002709525    2.843    0.648
       159  -9.4376     12.4844    116.4665   8.2225887778e+01   5.0882582074e+01    0.1289516    0.1057108 -65.79 0.0002012553    1.024    0.023
       160 -11.0877     79.3197    112.7014   5.9769521242e+01   4.4041354647e+01    0.5615288    0.3537132 -84.89  0.002132427    2.592    0.614
       161  -9.3129    193.0417    114.0377   3.1220955227e+01   1.9754133415e+01    0.2416102    0.1758052 -71.72   0.00081608    1.627    0.386
       162 -11.0101     92.5467    110.8380   5.5188897353e+01   4.2200497381e+01    0.9086551    0.3465262 -57.90  0.002926267    3.093    0.677
       163 -10.3176    122.1635    111.5424   4.6796103791e+01   3.6174072804e+01    0.5506009    0.2787577 -53.98  0.001947801    2.108    0.526
       164 -10.8054     14.7988    111.5587   8.0755919979e+01   5.1898676396e+01    0.5381775     0.243416  80.23  0.001871407    4.377    0.772
       165 -11.0539     17.3054    104.5161   7.8784677591e+01   5.3396800167e+01    0.6186618    0.2943858 -36.19  0.002802987    2.394    0.582
       166  -9.8552    174.8629    111.0904   3.4085280398e+01   2.4431487476e+01    0.3925881    0.2017453 -52.11  0.001516477    2.042    0.510
       167  -9.7315    159.2145    111.2901   3.7514594419e+01   2.7972651709e+01    0.3516609    0.2056564 -46.64  0.001282994    1.681    0.405
       168 -11.0208     66.2662    109.6606   6.3260391711e+01   4.6789148218e+01    0.4926875    0.2556516 -69.90  0.001880707    2.504    0.601
       169 -10.0484    133.4422    108.9243   4.3122238899e+01   3.4308672045e+01    0.4100304    0.2609198 -64.44  0.001657796    1.962    0.490
       170  -9.0403     22.6744    110.3495   7.7964726578e+01   5.1577672611e+01    0.1339289   0.09234334  72.19 0.0007048944    1.754    0.430
       171  -9.3191    182.8577    108.7493   3.1898422019e+01   2.3079426097e+01    0.3021923    0.1624372 -51.38  0.001216938    1.889    0.471
       172 -11.3343    248.5460    104.8754   2.0407430682e+01   1.0019123001e+01    0.5515062    0.2207918 -58.66  0.001812303    4.247    0.765
       173  -9.3156    189.3851    106.7681   3.0162791829e+01   2.1989277888e+01    0.2965253    0.1334452 -45.40  0.001126062    2.107    0.525
       174 -10.2235    139.7572    103.6220   4.0118238489e+01   3.4035581916e+01    0.5192813    0.2814451 -53.23  0.002023427    1.988    0.497
       175 -11.2717     45.7707    102.0962   6.8467684090e+01   5.1273956542e+01    0.7200465    0.3871315  69.64  0.002443018    4.389    0.772
       176  -9.4992    166.8376    103.4958   3.3853097682e+01   2.7814696602e+01    0.3218138    0.1925294 -58.44  0.001288706    1.909    0.476
       177 -10.4851    150.1820    101.4363   3.7026522775e+01   3.2102705109e+01    0.7081592    0.2580656 -50.66  0.002205014    3.125    0.680
       178 -10.7347    128.7098    100.7067   4.2151474277e+01   3.7131860557e+01    0.6190893    0.3364888 -49.76  0.002474037    1.879    0.468
       179 -10.8155     22.6992    101.2899   7.6355207462e+01   5.3739150316e+01    0.6049699    0.3054958  68.82  0.002282704    3.945    0.746
       180  -9.3870    175.5056    101.0709   3.1445169657e+01   2.6281664732e+01    0.2402557    0.1451956 -44.51   0.00103406    1.603    0.376
       181  -9.3546    159.9941    100.7733   3.4628473693e+01   2.9956600116e+01    0.2918008    0.1892311 -56.50  0.001002289    1.649    0.394
       182 -10.9829    108.8952     98.4496   4.7006558978e+01   4.1850361820e+01    0.6752215    0.4526716  77.86  0.002542441    2.420    0.587
       183  -9.8520    107.5052     92.5034   4.5739672962e+01   4.3414261280e+01    0.3096617    0.2365083 -15.95  0.001229005    1.663    0.399
       184  -9.9978     81.9248     99.2285   5.5523504184e+01   4.6757278722e+01    0.4428605    0.2513364 -69.55  0.001683485    2.653    0.623
       185 -10.9916    249.2065     98.7482   1.9052893398e+01   1.0924555457e+01    0.2912987    0.1850686 -83.05  0.001440554    2.179    0.541
       186 -11.1697     64.0144     95.9249   6.0652883930e+01   5.0338866744e+01    0.5283681    0.3484276  84.73  0.002059649    2.700    0.630
       187 -10.4497     94.9556     94.5069   5.0091205367e+01   4.5462438689e+01    0.7184073    0.2523811 -45.50  0.002427329    2.798    0.643
       188  -9.1456    165.0047     93.9915   3.1774182463e+01   3.0122041062e+01    0.2496077    0.1818254 -76.69 0.0008218456    1.671    0.402
       189 -10.3985    247.8203    112.6050   2.2107033340e+01   8.8383878811e+00    0.1724744     0.125415  76.36 0.0009517873    1.715    0.417
       190  -9.3663    176.9911     92.7851   2.9045395616e+01   2.7529286920e+01    0.2872206    0.1802852 -54.87  0.001261212    1.645    0.392
       191 -10.1833    138.7074     90.8203   3.6878790605e+01   3.6911500989e+01    0.5608454    0.2674232 -49.54  0.002097838    2.222    0.550
       192 -10.9750    124.8203     89.3570   4.0005996736e+01   4.0356711134e+01    0.7462012    0.3661397 -48.32  0.002880447    2.112    0.527
       193  -9.6774     43.4739     92.4560   6.7067795478e+01   5.3785102089e+01    0.1351697    0.1198909 -44.75 4.543237e-05    1.006    0.006
       194  -9.0901    157.7787     91.0276   3.2530066266e+01   3.2403782691e+01    0.2097605    0.1236625 -42.65 0.0008786215    1.691    0.409
       195 -10.5198     34.5102     88.3142   6.9386086238e+01   5.5683867592e+01    0.5621518    0.2289272 -66.62  0.002209977    2.799    0.643
       196  -9.2644    150.9977     88.6441   3.3385411150e+01   3.4467495946e+01    0.3282239    0.1469926 -50.69  0.001165727    2.464    0.594
       197 -11.2453    249.4648     81.6056   1.5479760116e+01   1.3680232093e+01    0.4248719    0.1673758 -51.51  0.001805584    2.336    0.572
       198 -10.7914     86.8228     86.6081   5.0411620430e+01   4.8672678446e+01    0.4521236    0.3277676  86.04  0.001654114    2.220    0.549
       199  -9.6201     64.3277     87.3219   5.8250939906e+01   5.2224184730e+01    0.1467251    0.1037367 -19.83 0.0007048417    1.689    0.408
       200  -9.0716    179.5111     85.0278   2.6581310042e+01   2.8372003684e+01    0.2245081    0.1136659 -59.53 0.0008102859    2.577    0.612
       201 -11.0564    104.7683     82.2467   4.3542750049e+01   4.6093509925e+01     0.685703    0.3554873 -56.72  0.002611975    2.494    0.599
       202 -10.6188     48.5677     84.0841   6.3090905372e+01   5.5068556021e+01    0.3793895    0.2614283  81.34  0.001767809    2.468    0.595
       203 -11.2379    243.2411     82.0670   1.6311353871e+01   1.4826871954e+01    0.5563035    0.1234686 -35.72  0.001518249    5.653    0.823
       204  -9.4669    116.7080     83.5747   4.0521199418e+01   4.3300782719e+01    0.2696298    0.1800218 -31.94 0.0006055085    1.673    0.402
       205  -9.9967    140.7514     82.0814   3.3918866469e+01   3.8134873070e+01    0.4548506    0.1946436 -44.09  0.001665246    2.362    0.577
       206  -9.3396    158.4721     82.0478   2.9947802016e+01   3.3935660309e+01    0.2359979    0.1465014 -42.52  0.001038024    1.614    0.381
       207 -10.3096    239.3898     81.1706   1.6590908944e+01   1.5743881899e+01    0.1985122    0.1026902 -49.32 0.0009485884    1.666    0.400
       208 -10.0922    119.2561     79.4645   3.8601375750e+01   4.3544547421e+01    0.4158647    0.2361449 -51.01  0.001690746    1.926    0.481
       209  -9.8785     74.5061     80.0487   5.2597416424e+01   5.2188716571e+01    0.3202642     0.137246 -54.72  0.001194042    2.678    0.627
       210 -10.1543     24.3635     80.1496   7.1347038936e+01   5.8446399620e+01    0.3155585    0.2009687  86.54  0.001428233    2.511    0.602
       211  -9.6508    150.1371     79.3232   3.0990577237e+01   3.6427990454e+01    0.3656644    0.1794139 -49.67  0.001408514    2.187    0.543
       212  -9.3836      8.3222     80.6743   7.7683759544e+01   5.9490526923e+01    0.1168694   0.08911811  72.02 0.0007047784    1.685    0.407
       213  -8.9864    174.6389     77.8249   2.5616060505e+01   3.0819783555e+01    0.2215254    0.1262718 -50.21 0.0009467026    1.764    0.433
       214  -9.0753    183.9883     76.7741   2.3667389425e+01   2.8773247817e+01    0.2244111    0.1456611 -60.35 0.0006902819    1.632    0.387
       215  -8.7563    167.6441     77.3074   2.6807393664e+01   3.2590236807e+01    0.1583337    0.1117392 -79.25 0.0007041947    1.724    0.420
       216  -9.4286    157.5613     75.3393   2.8292413542e+01   3.5366259105e+01    0.2884916     0.139254 -43.49    0.0011393    2.071    0.517
       217  -9.5847     49.6896     76.6454   6.0627184696e+01   5.6537354953e+01    0.1438888   0.09331563 -24.90 0.0007043791    1.728    0.421
       218 -10.7681    248.7077     74.2737   1.4056717193e+01   1.4988676169e+01    0.2891138    0.1257087 -43.89 0.0008042121    1.901    0.474
       219 -11.3219    249.3029     66.3115   1.2361145956e+01   1.6101073452e+01    0.3757336    0.2468304 -18.13  0.001849507    2.608    0.617
       220  -8.5722    211.6431     75.7153   1.9053952078e+01   2.2558390946e+01    0.1317717    0.1105085  27.56 0.0005181193    1.672    0.402
       221  -8.4096    189.3276     75.6860   2.2486384852e+01   2.7697671453e+01    0.1537522    0.1049712 -73.81  0.000607285    1.671    0.401
       222  -9.8664    140.4750     74.2802   3.1736259646e+01   3.9638792523e+01    0.3888957    0.2024222 -44.66  0.001592016    1.966    0.491
       223 -10.0626     10.0251     74.2017   7.5677760109e+01   6.0806980642e+01    0.1990577    0.1465443 -54.39 0.0003107144    1.118    0.106
       224  -8.7358    228.4908     74.4780   1.6504534965e+01   1.9086599555e+01    0.1388628     0.113766 -65.49 0.0001710657    1.055    0.052
       225 -11.2475     82.5312     72.4476   4.7522398185e+01   5.2333616868e+01    0.4799033    0.3095753 -67.30  0.001959326    2.431    0.589
       226 -11.2258    244.2385     71.1402   1.3908184098e+01   1.6365157389e+01    0.3783522    0.1034273 -46.64  0.001393691    3.022    0.669
       227 -10.4024    105.7429     70.6595   3.9686386284e+01   4.8122031834e+01    0.4512598    0.1838887 -47.66  0.001635904    2.720    0.632
       228 -10.4445     95.0640     69.9387   4.2671930012e+01   5.0439322388e+01    0.5988312    0.2388612 -51.36  0.002063157    3.218    0.689
       229  -9.4136     42.4184     72.2127   6.2180001737e+01   5.8352040158e+01    0.1845241    0.1209452 -63.35 0.0009528531    1.726    0.421
       230  -9.1293    162.6335     70.8259   2.6026835566e+01   3.4926960533e+01    0.2140381    0.1301733 -49.09 0.0009489462    1.670    0.401
       231 -10.6196     51.4750     69.1786   5.7739950307e+01   5.7853080513e+01    0.4538932    0.2356313 -64.89  0.001826907    3.039    0.671
       232  -9.8206      5.0017     91.5082   8.0892661046e+01   5.7240273767e+01    0.1658874   0.08396281  47.13 0.0008106031    2.611    0.617
       233  -8.8206    170.4764     70.5105   2.4449058986e+01   3.3083765164e+01     0.147226    0.1362214 -87.16 2.913604e-05    1.008    0.008
       234  -9.5423     16.4911     69.9912   7.2084400502e+01   6.1270953150e+01    0.1628617    0.1034779 -89.82 0.0008099262    2.488    0.598
       235 -10.5097    128.0871     73.7678   3.4583144971e+01   4.2619983134e+01    0.6555463    0.2745726 -43.15   0.00243022    2.442    0.591
       236 -10.0598    239.0000     68.0733   1.3857215160e+01   1.7905865157e+01    0.2125234   0.06580847 -38.74 0.0007945749    2.888    0.654
       237  -9.8987    146.9844     67.1183   2.8198510705e+01   3.9336418061e+01    0.3981671    0.1894059 -42.86  0.001592662    2.139    0.533
       238  -9.6201    234.7036     66.3355   1.3980916460e+01   1.9065829160e+01    0.1409955   0.08517128 -65.33 0.0005171649    1.649    0.393
       239 -10.2006    138.6019     65.2880   2.9519472746e+01   4.1648446619e+01    0.3918128    0.1715799 -42.51  0.001507294    2.342    0.573
       240  -9.9716    121.7443     64.7261   3.3431085673e+01   4.5667652031e+01    0.4651636     0.180256 -44.45  0.001675837    2.749    0.636
       241  -9.7990    115.5652     71.3670   3.7138111970e+01   4.5875903326e+01    0.3541321    0.1455051 -38.44   0.00129483    2.559    0.609
       242  -9.8293     37.3928     63.9098   6.1770191138e+01   6.0619911630e+01    0.2471121    0.1839415 -82.52    0.0013363    2.087    0.521
       243  -9.9818     17.9078     62.1916   6.9500341881e+01   6.2792473194e+01    0.2605235    0.1097522 -39.16  0.001115595    2.141    0.533
       244 -10.1643    110.2200     62.4202   3.5778538626e+01   4.8627515679e+01    0.5603707    0.2512068 -41.02  0.002238029    2.306    0.566
       245 -10.1775    100.1750     58.7610   3.7455919346e+01   5.1387621012e+01    0.5660325    0.2333894 -46.05  0.002148092    2.734    0.634
       246 -10.6212     73.1917     57.3707   4.5751297129e+01   5.6781435829e+01    0.7575945    0.2400529 -43.33   0.00273621    3.169    0.684
       247  -9.1171    234.3185     59.6688   1.2597281251e+01   2.0165395682e+01     0.141531    0.0836953 -66.55  0.000704788    1.690    0.408
       248  -9.3009    203.5571     66.3044   1.7988678628e+01   2.5930135547e+01    0.2695244    0.1193852 -43.68   0.00112535    2.076    0.518
       249  -9.9308    130.5036     56.5634   2.8735385949e+01   4.4985699969e+01     0.293651    0.1427106 -36.78  0.001211335    2.168    0.539
       250 -10.9451      7.0507     56.5094   7.2754698098e+01   6.4697245234e+01     0.274066    0.1393273 -66.22  0.001444193    2.039    0.510
       251 -10.1797    119.4340     55.6471   3.1142666289e+01   4.7691135849e+01    0.3098608    0.2196292 -70.48  0.001254399    1.950    0.487
       252  -9.4793    139.5849     54.7528   2.6139515860e+01   4.3113033807e+01    0.2707684    0.1448308 -31.15  0.001151238    2.123    0.529
       253 -10.8198     62.7313     53.7424   4.8314329863e+01   5.9145042554e+01    0.4262094    0.1461037 -44.52  0.001644674    2.911    0.657
       254 -10.1506     53.7859     52.5183   5.1354784305e+01   6.0706428362e+01    0.5440153    0.1930447 -54.51  0.001718847    5.039    0.802
       255 -11.7836     45.4028     49.4289   5.3682843953e+01   6.2401548495e+01    0.4297268    0.2160271 -35.53 0.0009850098    1.923    0.480
       256 -10.6808     92.1340     48.8101   3.6463508079e+01   5.4646891501e+01    0.5877052    0.2116841 -43.99  0.002165886    3.163    0.684
       257  -9.8019     31.0272     51.0317   6.0420739663e+01   6.3795126809e+01    0.1778588    0.1549566  83.28   0.00104786    1.754    0.430
       258 -10.0673     81.8460     45.7556   3.8643076714e+01   5.7133952140e+01    0.3490165    0.1709994 -40.59   0.00157881    2.148    0.535
       259  -9.1742    129.6961     47.4546   2.6068144829e+01   4.6554739768e+01    0.2493911    0.1307469 -32.92  0.001088037    2.084    0.520
       260  -9.8188    122.3183     44.6733   2.6879670218e+01   4.8676780320e+01    0.2611729    0.1325885 -39.42  0.001145565    2.092    0.522
       261  -9.9941    123.5097     40.4714   2.5233119455e+01   4.8982147230e+01    0.3160711    0.1890751 -10.06  0.001232377    2.600    0.615
       262  -9.7688    105.6094     52.4089   3.3757678639e+01   5.1269028832e+01    0.3450986    0.1576208 -50.50   0.00129778    2.969    0.663
       263  -9.8919     16.4351     42.8870   6.4416986721e+01   6.6655993083e+01    0.4173454   0.07314335 -50.81  0.001505013    4.004    0.750
       264 -10.0443    237.0000     43.0012   8.8041874808e+00   2.2013163959e+01    0.1994988   0.06393825 -37.30  0.000793742    2.899    0.655
       265 -10.2286     58.2902     42.2969   4.5827915583e+01   6.1757054911e+01     0.242411    0.1533291 -58.39  0.001166509    2.551    0.608
       266 -10.2189    246.4989     47.0159   8.7229441592e+00   1.9493144726e+01    0.1888429   0.07288563 -55.85 0.0008093974    2.461    0.594
       267 -10.9960      4.8719     40.3554   6.9211849637e+01   6.7955439228e+01    0.3898387    0.1495363 -63.78  0.001718383    3.292    0.696
       268 -10.5276    105.8101     39.4683   2.9259873822e+01   5.3124434512e+01    0.4192193    0.1784682 -32.76  0.001742949    2.539    0.606
       269 -10.1224     68.9539     40.1523   4.0999456506e+01   6.0330281902e+01    0.3606465    0.1602951 -41.91  0.001608451    2.414    0.586
       270 -10.2658     95.4413     36.6026   3.1099273140e+01   5.5734790768e+01    0.3450028    0.1680982 -31.37  0.001562764    2.219    0.549
       271  -9.0367    228.5656     36.7900   8.3167039432e+00   2.4657662909e+01    0.1840775   0.09644193 -50.64 0.0009240965    1.647    0.393
       272  -9.3600    224.0000     37.0332   8.8209069029e+00   2.5618440167e+01    0.1995958   0.06663247 -36.14 0.0007971755    2.906    0.656
       273 -10.0555    113.4928     41.7147   2.8048173699e+01   5.1107832640e+01    0.2893215    0.1962946  -7.47 0.0008563085    1.993    0.498
       274  -9.5136     26.3921     36.2414   5.7320833756e+01   6.6902048303e+01    0.1602361    0.1060925 -51.92 0.0009530419    1.713    0.416
       275  -9.4126    217.7388     34.7425   8.9584431490e+00   2.7308362359e+01    0.2125537   0.07625361 -47.26 0.0008957141    2.440    0.590
       276  -9.9868      6.4306     33.7629   6.6287696449e+01   6.9044869736e+01    0.1645383    0.0807903 -41.94 0.0006940871    1.610    0.379
       277  -9.6949     60.4160     32.2362   4.1055133880e+01   6.2929031514e+01    0.1664193    0.1150762 -41.85 0.0009492168    1.646    0.393
       278  -9.7998    119.4132     32.7310   2.3611330338e+01   5.0935453424e+01    0.2438461    0.1253515 -36.78 0.0008778567    2.098    0.523
       279  -9.9751    111.7995     33.6351   2.5710541317e+01   5.2559107753e+01    0.3575744    0.1685983 -38.84  0.001587198    2.305    0.566
       280  -9.5806    101.5369     28.2676   2.6402419347e+01   5.5490284869e+01    0.2366199    0.1243209 -35.07 0.0009843047    2.070    0.517
       281  -9.5174     81.4964     27.0155   3.1650629063e+01   5.9796644310e+01    0.1695396    0.1052063 -54.08 0.0008097401    2.495    0.599
       282  -9.5008     91.4058     25.6193   2.8167821325e+01   5.7959297058e+01    0.2420087    0.0969985 -43.79 0.0009579872    3.289    0.696
       283  -9.4379    110.4219     24.7215   2.2944359748e+01   5.3933985008e+01    0.1714757     0.127173  -4.86 0.0009480887    1.630    0.387
       284  -9.4536     44.2610     25.1981   4.4681373328e+01   6.6398252706e+01    0.1770751    0.1356815   1.05 0.0005066645    1.160    0.138
       285  -9.0849    118.5104     24.5177   2.1052946910e+01   5.2112439170e+01    0.1339663    0.1168333  51.47 0.0008100969    1.034    0.033
       286  -8.6669     84.7035     21.3221   2.8441081414e+01   5.9825947354e+01    0.1172142    0.1001673 -75.88 0.0003593518    1.620    0.383
       287 -10.2865     12.9254     20.9545   5.8023684267e+01   7.0660551509e+01    0.2160011    0.1424068  18.86  0.000796414    1.497    0.332
       288  -9.2476     63.3156     20.6309   3.5151847319e+01   6.3949555421e+01    0.1130151   0.09904732 -72.99 0.0007036399    1.781    0.438
       289  -9.0695     73.5039     18.9890   3.0965456465e+01   6.2280321722e+01    0.1622658    0.1010828 -51.95 0.0008100189    2.511    0.602
       290  -8.9639     30.3788     19.2948   4.8419108975e+01   6.9058159882e+01    0.1234115   0.07550807  -0.67 0.0007022001    1.750    0.429
       291  -9.0492     50.6632     15.6327   3.7786052516e+01   6.6658558418e+01    0.1298991   0.07919148  10.80 0.0001104468    1.838    0.456
       292 -10.4865    161.4905    248.9937   6.3998181348e+01  -6.7875906671e-01    0.1713863    0.1268843 -46.76 0.0008305951    1.589    0.371
       293  -9.7412      3.9814    249.2387   9.5040388002e+01   2.1162821615e+01    0.1810364    0.1038379  62.94  0.001072345    1.283    0.221
