#   1 NUMBER                 Running object number                                     
#   2 MAG_AUTO               Kron-like elliptical aperture magnitude                    [mag]
#   3 X_IMAGE                Object position along x                                    [pixel]
#   4 Y_IMAGE                Object position along y                                    [pixel]
#   5 X_WORLD                Barycenter position along world x axis                     [deg]
#   6 Y_WORLD                Barycenter position along world y axis                     [deg]
#   7 A_WORLD                Profile RMS along major axis (world units)                 [deg]
#   8 B_WORLD                Profile RMS along minor axis (world units)                 [deg]
#   9 THETA_WORLD            Position angle (CCW/world-x)                               [deg]
#  10 FWHM_WORLD             FWHM assuming a gaussian core                              [deg]
#  11 ELONGATION             A_IMAGE/B_IMAGE                                           
#  12 ELLIPTICITY            1 - B_IMAGE/A_IMAGE                                       
         1 -14.6361    146.6453     60.4533   9.2364310216e+01   4.0256281510e+01     1.393371     1.224708   6.80   0.00112911    1.240    0.193
         2 -14.6747    157.4062     45.2698   8.5113382459e+01   4.0051156381e+01     1.346525     1.045042 -28.03  0.003727526    1.264    0.209
         3 -14.6927    169.6148     13.0673   7.1710447692e+01   4.1001480227e+01      1.44573     1.089535  35.91  0.004817522    1.375    0.273
         4 -13.2278    188.5050     13.4419   6.9243390544e+01   3.5927034316e+01     0.713102     0.411848 -57.27  0.002947771    2.052    0.513
         5 -14.6318    152.2282    144.9892   1.1206547774e+02   2.4128064199e+01    0.7232203    0.5442142 -47.22  0.004207015    1.456    0.313
         6 -14.0394    196.6109    234.8445   1.1783842440e+02   4.8410743936e+00    0.3272141    0.2981706 -42.25  0.002014118    1.570    0.363
         7 -14.2513    190.3490    248.6166   1.2034627965e+02   4.4411648867e+00    0.6075267    0.3900463  27.01  0.004647778    1.489    0.329
         8 -12.5698    181.3695    250.1582   1.2181646722e+02   5.5661062777e+00    0.2570721    0.1573772  49.09  0.001947735    1.327    0.246
         9 -20.0082     93.2224    227.9329   1.3317488085e+02   2.0423791310e+01     6.951056     4.633479  57.52   0.05303598    1.099    0.090
        10 -13.3501    134.5923    109.0770   1.0840301301e+02   3.3990932054e+01     1.521243    0.1869604 -45.19   0.00329794    8.249    0.879
        11 -14.5681    143.4186    144.0610   1.1365148486e+02   2.5926422158e+01    0.9880674    0.5432433 -58.09  0.004724886    2.214    0.548
        12 -11.7252    192.1420    153.3119   1.0616869927e+02   1.5239438234e+01    0.2293436    0.1908913 -40.47  0.000842567    1.373    0.272
        13 -13.8986    174.2127    149.7846   1.0874965283e+02   1.9182187435e+01     0.576906    0.3613113 -52.37  0.003001465    1.966    0.491
        14 -10.4419     17.5690    153.9701   1.4111968078e+02   4.1443290433e+01    0.1822748    0.1300769 -53.43 0.0005999929    1.907    0.476
        15 -11.4029     17.9888    150.0477   1.4077095201e+02   4.2157022849e+01    0.2491669     0.132494 -64.00  0.001363333    1.897    0.473
        16 -10.9813    218.3086    220.0981   1.1269258776e+02   3.0027923100e+00    0.2070094    0.1225608 -38.65  0.001389144    2.288    0.563
        17 -13.0824     11.4534    206.0180   1.4487617685e+02   3.2880470722e+01    0.3444922    0.1977925  35.82  0.002193333    1.982    0.496
        18 -12.1383    151.1543    238.8508   1.2514724890e+02   1.1056390865e+01    0.2429563    0.1535503  32.46 0.0008913751    1.599    0.374
        19 -11.4994      7.9864    149.1743   1.4273616350e+02   4.3175540551e+01    0.1869477     0.116882 -86.05  0.001374129    1.262    0.207
        20 -12.6854    174.8719    141.8911   1.0710695669e+02   2.0271527554e+01    0.2878874    0.2053113  40.19 0.0009999033    1.302    0.232
        21 -14.1241    135.8938    128.0959   1.1217718557e+02   3.0182361935e+01     1.929486    0.3223963 -50.70  0.004389699    8.537    0.883
        22 -11.3180     28.0834    137.9962   1.3770353495e+02   4.3598921608e+01    0.1657127    0.1281696  82.73 0.0003831866    1.019    0.019
        23 -11.0947     28.2956    237.4165   1.4358579851e+02   2.6532467688e+01    0.1143036    0.0792212  73.43 0.0003037501    1.159    0.138
        24  -9.9006     13.3182    135.2817   1.4069996708e+02   4.5451786208e+01   0.09504778   0.07261854 -58.87   0.00031484    1.582    0.368
        25 -11.5083    139.5151    148.8353   1.1528176336e+02   2.5812137301e+01    0.3298077    0.1943263  52.66 0.0004263095    1.593    0.372
        26 -13.5566    160.5458    128.1665   1.0709081198e+02   2.5354962197e+01    0.4388345    0.4036209 -76.32   0.00171613    1.195    0.163
        27 -10.7189     22.9162    156.1541   1.4020342829e+02   4.0540653329e+01    0.1635059    0.1053857  70.56 0.0004398777    1.223    0.183
        28 -13.2706     37.9543    124.2676   1.3408915842e+02   4.5431210516e+01    0.4218264    0.2313441  30.95  0.002460431    2.232    0.552
        29 -12.4108    142.0257    121.3953   1.0948926245e+02   3.0232113242e+01    0.4740962    0.2560431  68.75  0.001743811    3.246    0.692
        30 -10.4252     29.3692    201.0902   1.4174976939e+02   3.1962265211e+01     0.132171    0.1053961  68.57 0.0006436519    1.222    0.182
        31 -11.5690     20.0445    196.2962   1.4305575879e+02   3.3664337797e+01    0.1469644    0.1088837 -84.88 0.0005097805    1.365    0.267
        32 -13.0750     43.9979    116.3750   1.3167238391e+02   4.6453616641e+01     0.354888    0.2044341  43.12  0.002112147    1.796    0.443
        33 -12.0897     21.7281    235.3542   1.4445365719e+02   2.7471528215e+01    0.1458163   0.09329685  85.24  0.001309408    1.367    0.269
        34 -11.2572      2.8978    112.6894   1.4136196887e+02   5.0832028510e+01    0.1872584     0.116457 -73.15  0.000709787    1.326    0.246
        35 -10.8609    205.4328    110.1577   9.4594065656e+01   1.8721410315e+01    0.3038455     0.187925  41.68 0.0008647692    1.569    0.363
        36 -11.9090     31.5131    104.4673   1.3330263520e+02   5.0249247564e+01     0.287226    0.2053858   8.25  0.001799922    2.238    0.553
        37 -11.6934     96.5109     96.4768   1.1468643670e+02   4.3515485456e+01    0.2721134    0.1308049  44.14 0.0009883606    2.168    0.539
        38 -10.1594     13.3148    236.1993   1.4568786456e+02   2.8149553865e+01   0.07046227   0.05534034  52.94 0.0002948098    1.468    0.319
        39 -10.2706      4.8321    233.5029   1.4680711024e+02   2.9308880753e+01    0.1020867   0.05999849  54.71 0.0003011587    1.223    0.183
        40 -11.4799     12.7671    240.9657   1.4591929233e+02   2.7527287869e+01    0.1485833    0.1077877 -83.93  0.001441013    1.583    0.368
        41 -11.3291     42.0360     92.4495   1.2868358151e+02   5.1806792318e+01    0.2713867    0.1559377 -78.96 0.0009266395    1.640    0.390
        42 -12.5320     52.3787     91.5465   1.2561552200e+02   5.0859727950e+01    0.3023986    0.2698315 -65.78  0.001160672    1.142    0.124
        43 -19.0989     78.3777     91.8492   1.1846162726e+02   4.7355457370e+01     16.53955    0.7294207 -55.49   0.02439389   19.094    0.948
        44 -12.7904    166.1415    172.7170   1.1420567137e+02   1.7244123283e+01    0.3079333    0.2236428  65.80  0.001584492    1.584    0.369
        45 -10.2938    106.0556     82.4947   1.0877930751e+02   4.4709436666e+01      0.19341    0.1373543  48.20 0.0003586418    1.476    0.323
        46 -10.9574    142.0991     80.9600   9.9541432798e+01   3.7684110364e+01    0.2226631    0.2154709 -34.54 0.0005357454    1.030    0.029
        47 -12.4766    230.3316    167.1235   1.0238718224e+02   6.4896330909e+00    0.3287721    0.1796117 -38.90  0.001776365    2.223    0.550
        48 -10.3423     15.5975    247.0741   1.4572135946e+02   2.6418310775e+01    0.1178482   0.05547476  76.65 0.0009434544    1.687    0.407
        49 -13.2263    161.2957     36.3681   8.1321453250e+01   4.0340065565e+01    0.5142959    0.4365296 -20.37 0.0008333098    1.166    0.142
        50 -10.2578     50.5565     64.8480   1.2049820548e+02   5.6871201924e+01    0.2123234   0.09416211  30.65 0.0009714562    2.853    0.650
        51 -11.1411     13.4116     59.8686   1.3196089068e+02   6.1401736878e+01    0.1685499    0.1431803  78.22 0.0004454301    1.261    0.207
        52 -15.0560    133.8806    146.6473   1.1604025296e+02   2.7202978380e+01     1.498803    0.6411816 -56.58   0.00586941    2.829    0.646
