#   1 NUMBER                 Running object number                                     
#   2 MAG_AUTO               Kron-like elliptical aperture magnitude                    [mag]
#   3 X_IMAGE                Object position along x                                    [pixel]
#   4 Y_IMAGE                Object position along y                                    [pixel]
#   5 X_WORLD                Barycenter position along world x axis                     [deg]
#   6 Y_WORLD                Barycenter position along world y axis                     [deg]
#   7 A_WORLD                Profile RMS along major axis (world units)                 [deg]
#   8 B_WORLD                Profile RMS along minor axis (world units)                 [deg]
#   9 THETA_WORLD            Position angle (CCW/world-x)                               [deg]
#  10 FWHM_WORLD             FWHM assuming a gaussian core                              [deg]
#  11 ELONGATION             A_IMAGE/B_IMAGE                                           
#  12 ELLIPTICITY            1 - B_IMAGE/A_IMAGE                                       
         1 -12.9428    190.1673     26.1406   7.1699441634e+01   3.4607695381e+01     1.859615     1.305136 -11.46  0.006882484    1.731    0.422
         2 -12.5909    196.8991     20.1643   6.9057755436e+01   3.3528531971e+01     1.488818    0.9351817 -40.42  0.005988948    1.576    0.365
         3 -12.1074    203.5890     12.5888   6.6118314334e+01   3.2612885425e+01    0.7647547    0.6125692   6.32  0.001380994    1.593    0.372
         4 -10.7180     10.7100      9.6378   1.1933499091e+02   7.2529655130e+01    0.2747471    0.1344076 -24.06  0.001559993    2.084    0.520
         5 -10.8349    214.7790      2.0611   6.2149909277e+01   3.0818058074e+01    0.7153536    0.2345651  73.22  0.002119637    2.786    0.641
         6  -8.7398      1.6649      9.3462   1.2418683100e+02   7.3171251899e+01   0.09262708   0.08193406 -87.74 0.0007048987    1.771    0.435
         7 -10.6720     39.9168    245.9406   1.4741118771e+02   2.1441916867e+01    0.4571275    0.1248781  56.88  0.002277126    2.826    0.646
         8 -10.4689    249.5210    248.0282   1.1220002787e+02  -9.9248375511e+00    0.3114434    0.2163597  20.74   0.00228881    1.067    0.063
         9 -12.6023     46.1704    227.5442   1.4528901736e+02   2.3862399915e+01    0.5985641    0.3464014 -86.86  0.001848368    1.570    0.363
        10 -14.3343     54.5787    212.8956   1.4275421897e+02   2.5514604111e+01     5.573025     1.077411  48.72   0.02219198    3.679    0.728
        11  -9.7960     26.9413    221.7351   1.4821101747e+02   2.7091180747e+01    0.3579288    0.1167085  51.40  0.001728253    2.236    0.553
        12  -9.8574     20.9983    222.0264   1.4922350293e+02   2.7666543990e+01    0.2112362    0.1157004  84.79 0.0008611354    1.464    0.317
        13  -8.8936     32.9583    229.4939   1.4763476360e+02   2.5045544222e+01    0.1693791    0.1152901  82.44 0.0004076031    1.184    0.156
        14  -9.0326     35.2840    226.0437   1.4704753756e+02   2.5396576528e+01    0.1847138    0.1592764 -84.68 0.0008290873    1.473    0.321
        15  -8.6766     50.1163    246.0746   1.4578862601e+02   2.0208497300e+01    0.1469344    0.1165514  64.36 0.0005820006    1.241    0.194
        16  -9.8092    184.4984    194.7446   1.1499274249e+02   7.4869820789e+00    0.2280505    0.1917874  37.93 0.0003888945    1.028    0.028
        17 -10.8709     70.0948    193.0777   1.3798255108e+02   2.7347751540e+01    0.3449769    0.2397541 -53.23  0.001263668    1.829    0.453
        18 -10.8274     74.9084    186.0424   1.3623714709e+02   2.8112529046e+01    0.2719974    0.2269877 -61.61 0.0004892236    1.419    0.295
        19  -8.0342    192.3223    194.6431   1.1347553603e+02   6.0379650125e+00    0.1289405    0.1036063  78.36 0.0007045252    1.766    0.434
        20  -8.0541    240.2765    191.6505   1.0425795028e+02  -2.1837388264e+00    0.1096994    0.1016775 -66.04 0.0005316834    1.638    0.389
        21 -12.1681     88.3086    165.7342   1.3071982251e+02   3.0435623635e+01     2.176157    0.6541036  52.97  0.001755277    4.240    0.764
        22 -10.2813     83.4019    174.5033   1.3301861192e+02   2.9296359820e+01    0.2413351    0.2091431  72.61 0.0004072465    1.065    0.061
        23 -12.3861     71.1578    171.6090   1.3535601742e+02   3.1679368101e+01    0.4377801    0.2781489 -46.69  0.001496398    2.092    0.522
        24  -8.2408     45.7765    174.3695   1.4116065726e+02   3.4318296418e+01    0.1455703    0.1122998  32.00 0.0009414783    1.657    0.397
        25 -12.3884     67.6442    145.5642   1.3269146806e+02   3.7939625979e+01     1.111619    0.5954136  85.26  0.002640995    2.551    0.608
        26  -9.3447    229.7954    167.7873   1.0141378176e+02   3.0138126805e+00     0.204234     0.162883 -79.41  0.001061652    2.141    0.533
        27 -11.9057     27.0057    249.0547   1.4957746919e+02   2.2382977022e+01     1.682281    0.2758007  48.89  0.007870831    3.182    0.686
        28  -9.3848    101.8587    149.8503   1.2500855221e+02   3.1728682694e+01    0.3036187    0.2763588 -54.37 0.0008342506    1.226    0.184
        29  -8.9027    103.9921    146.0504   1.2381253652e+02   3.2207659298e+01    0.2920951    0.1865147 -46.11  0.001025765    1.746    0.427
        30 -11.8554     28.3382    145.8298   1.4222783261e+02   4.2387133230e+01    0.4763291    0.2531953  31.66  0.002690087    2.206    0.547
        31 -11.1963     90.6104    149.1781   1.2762320186e+02   3.3734911427e+01    0.2654364    0.2501511 -51.51  0.000492817    1.260    0.206
        32  -8.9496    129.5783    141.1272   1.1664303884e+02   2.8524984392e+01    0.2513293    0.1984071  40.81 0.0003334625    1.291    0.225
        33  -9.0362    112.0088    135.7806   1.1985105505e+02   3.3067970016e+01    0.2928255    0.2294831   0.66  0.001409448    1.969    0.492
        34 -11.5491     57.5887    132.0882   1.3321991737e+02   4.2331758631e+01    0.5954832    0.3471861 -87.04  0.002941133    1.890    0.471
        35 -11.5055     54.5276    122.0222   1.3244292216e+02   4.5031642268e+01    0.8602605    0.3333235 -77.10  0.002953654    3.829    0.739
        36  -8.6544    194.2050    131.0459   1.0002011681e+02   1.6516997754e+01    0.2147166    0.1937861  10.30 0.0002946393    1.155    0.134
        37 -10.4386     43.3880    127.5747   1.3627747970e+02   4.5006531016e+01    0.2609538    0.2014303  62.53  0.001289152    1.308    0.236
        38  -8.6010    126.8583    126.0581   1.1403110248e+02   3.2350076874e+01    0.2095652    0.2034564  88.68 0.0002784019    1.033    0.032
        39 -10.5772    240.1302    122.6719   8.9742219396e+01   7.8566658920e+00    0.2692905    0.2554659  14.68 0.0004202173    1.072    0.068
        40  -8.3039    108.0286    123.4750   1.1827346699e+02   3.6567159982e+01    0.1997991     0.142548  43.96  0.000296335    1.431    0.301
        41 -11.0001     26.6600    240.8096   1.4924200167e+02   2.3788565534e+01     0.348644    0.1604068  63.11  0.002318031    1.593    0.372
        42  -9.8053    167.9043    113.7046   1.0127239407e+02   2.5887071094e+01    0.3550614    0.2899685 -78.99 0.0008895841    1.476    0.322
        43  -9.6775     99.3421    132.9807   1.2250640038e+02   3.5956617896e+01    0.2724496    0.2264438 -31.17 0.0004885796    1.507    0.336
        44  -8.1020    186.3935    108.7986   9.6078411833e+01   2.2435483686e+01    0.2064828    0.1484226 -24.96 0.0002659405    1.545    0.353
        45  -9.2140     40.9953    108.9552   1.3409240883e+02   4.9546195064e+01    0.2075112     0.129023 -45.08  0.001130697    1.715    0.417
        46  -9.0204     74.6229    234.8732   1.4090577491e+02   1.8938492899e+01    0.2727396    0.1302936  70.53  0.001228889    2.228    0.551
        47  -8.4572    243.1366    103.1859   8.4655298882e+01   1.0247031990e+01     0.196998    0.1633243 -61.87 0.0006049032    1.373    0.271
        48  -7.7262    156.0052     65.0110   8.9989399041e+01   3.7941268971e+01    0.1824523    0.1708685 -35.37            0    1.082    0.076
        49  -8.4054    193.6342     60.8948   8.1429147928e+01   2.8891797213e+01    0.2050439    0.1822543 -42.37 0.0005239318    1.117    0.105
        50  -8.5052    134.0461     50.1874   9.0165363708e+01   4.5829558219e+01    0.2158091    0.1905306  19.65 0.0003124978    1.180    0.152
        51  -9.5743    248.5273     46.8788   7.0152247179e+01   1.7266692674e+01    0.2265926    0.2055505  73.76 0.0003435855    1.176    0.149
        52 -12.6562     10.8039    207.3126   1.5020721920e+02   3.1389254977e+01    0.6083614     0.531425  63.03  0.002411355    1.436    0.304
        53  -9.2733    143.9106    249.1679   1.3017280496e+02   6.3218528663e+00    0.1804589    0.1277575  58.03 0.0006242375    1.270    0.213
        54  -9.4244     63.5858    247.2513   1.4367335280e+02   1.8331042256e+01    0.1797562    0.1334905  60.91 0.0003282243    1.118    0.105
        55 -10.3493    143.1800     26.4614   7.9689724286e+01   4.6915008280e+01    0.2495444    0.2307323  18.11 0.0002965135    1.107    0.097
        56  -8.7713     68.1408    234.6182   1.4200849119e+02   1.9851742487e+01    0.2759691    0.1033592  43.53   0.00117436    2.137    0.532
        57 -10.4516     54.6417    230.4531   1.4403130496e+02   2.2312125179e+01    0.3985383    0.2167219  68.21  0.001621425    1.523    0.343
        58 -14.5927      4.6199    236.0531   1.5245658060e+02   2.6849232635e+01     8.769795    0.5160154 -74.06   0.03130571    7.604    0.868
