#   1 NUMBER                 Running object number                                     
#   2 MAG_AUTO               Kron-like elliptical aperture magnitude                    [mag]
#   3 X_IMAGE                Object position along x                                    [pixel]
#   4 Y_IMAGE                Object position along y                                    [pixel]
#   5 X_WORLD                Barycenter position along world x axis                     [deg]
#   6 Y_WORLD                Barycenter position along world y axis                     [deg]
#   7 A_WORLD                Profile RMS along major axis (world units)                 [deg]
#   8 B_WORLD                Profile RMS along minor axis (world units)                 [deg]
#   9 THETA_WORLD            Position angle (CCW/world-x)                               [deg]
#  10 FWHM_WORLD             FWHM assuming a gaussian core                              [deg]
#  11 ELONGATION             A_IMAGE/B_IMAGE                                           
#  12 ELLIPTICITY            1 - B_IMAGE/A_IMAGE                                       
         1 -13.8971     61.6540    118.6670   4.9691879359e+01   4.5219480062e+01      3.25454     2.142285 -25.75   0.01360726    2.098    0.523
         2  99.0000     80.0135     58.8874   2.6828342112e+01   5.5404113270e+01      2.65633     2.366688  42.20   0.01507926    1.126    0.112
         3 -14.8500     14.7343     24.7044   4.6703619110e+01   7.3054342668e+01     3.021564     2.626333 -24.68   0.01996756    1.166    0.142
         4 -11.9627    123.5835     10.2573   2.0895433019e-01   5.2052089362e+01     0.365321    0.2443065  74.92 0.0005214829    1.249    0.200
         5 -14.7852     64.1277     38.0346   2.5110868118e+01   6.2385419203e+01     2.696545     1.904999  17.19   0.01329395    2.016    0.504
         6 -13.1752     50.2321     38.0943   3.1159275060e+01   6.5144323319e+01     1.309026    0.9647521  17.12  0.006945901    1.628    0.386
         7 -12.1089     65.4103     17.4617   1.5919188965e+01   6.5032910755e+01    0.7194253    0.3409787  55.95  0.001801064    1.765    0.433
         8 -12.5640    241.7485     23.0298   3.5310687455e+02   2.6373137329e+01    0.5715725     0.322945 -82.03  0.004026612    1.640    0.390
         9 -12.0914    234.7145     20.6256   3.5305653177e+02   2.7811771337e+01    0.5319352    0.2391756 -80.82  0.003143898    2.262    0.558
        10 -11.9119    207.9796     17.4845   3.5404413436e+02   3.2947943475e+01    0.3692347    0.2034539 -57.79  0.001184624    1.395    0.283
        11 -12.1381    245.0903     14.6189   3.5147063813e+02   2.6755649163e+01    0.3532309     0.271204  85.14  0.001785436    1.467    0.318
        12 -10.6202    202.2057     11.2694   3.5314612326e+02   3.4734785791e+01    0.2032041    0.1379137 -66.34 0.0004121041    1.098    0.089
        13 -11.6215    184.3918     10.4988   3.5417687442e+02   3.8377956762e+01    0.6364279    0.3075727 -56.42  0.003309967    1.694    0.410
        14  -9.9175    178.3980      8.2870   3.5411513648e+02   3.9859854495e+01    0.2674189    0.1375833  67.89 0.0006373049    1.896    0.472
        15 -11.2094    250.0980      6.5262   3.4987167999e+02   2.6807534289e+01    0.4062613    0.1124689 -34.27  0.002010781    3.454    0.711
        16 -10.9791    174.5469     13.2335   3.5556311263e+02   4.0147495782e+01    0.2870273    0.2068768 -88.86  0.001002975    1.165    0.142
        17 -11.7167    148.8729      6.9236   3.5629393199e+02   4.6480332237e+01    0.4675278    0.2391455 -71.16  0.001292522    1.865    0.464
        18 -11.6885    137.7764      4.4890   3.5676046245e+02   4.9278717750e+01    0.3503562    0.2376899 -74.81 0.0007658815    1.266    0.210
        19  -9.6163    200.0253      5.0838   3.5200152399e+02   3.5810782122e+01    0.2000723   0.08900715 -62.76  0.001129467    1.826    0.452
        20 -10.4012    244.0386      3.5193   3.4959961429e+02   2.8093519601e+01    0.1373166   0.08102354 -89.27 0.0006657599    1.575    0.365
        21 -10.8559    215.5452      2.2685   3.5061837370e+02   3.3162516963e+01    0.1921462    0.1315792 -69.17 0.0004775581    1.059    0.056
        22 -14.9739     91.9119      7.6437   4.6573529889e+00   5.9923796711e+01     3.302639     1.388709  64.97   0.01524023    1.910    0.477
        23  -9.3959     26.9982      3.5649   2.6608019850e+01   7.4535419274e+01    0.1856391    0.1020772  44.26 0.0005587298    1.525    0.344
        24  -9.9184    235.9316      1.4829   3.4956904530e+02   2.9648300933e+01    0.1424052   0.08179112 -88.94 0.0007205093    1.577    0.366
        25  -9.0524    191.5380      1.3788   3.5171600960e+02   3.7866498008e+01    0.1145205   0.08114874 -72.04  0.000796422    1.041    0.040
        26 -10.2439     20.7818    116.5885   6.5765836568e+01   5.0773735182e+01    0.2156812    0.1231238  33.07 0.0009548564    1.671    0.402
        27 -12.2974    191.5094    248.8099   3.7941748323e+01  -1.8907458205e-01    0.5494186     0.222325  23.11  0.002994912    2.268    0.559
        28 -12.2345     16.5105    100.4472   6.5376436993e+01   5.5441347529e+01    0.5349016    0.4407038 -33.98  0.002073838    1.245    0.197
        29 -12.9820    123.2964    128.0856   3.2389093104e+01   3.1954669513e+01    0.9016492    0.4122357  48.98  0.003463728    2.303    0.566
        30 -12.2823      4.4014     96.0256   7.0491442321e+01   5.7439381548e+01    0.9050895    0.4830741 -44.94  0.004122966    1.850    0.459
        31  -9.3524     54.6366     95.5235   4.7372914869e+01   5.2152924028e+01    0.2424099    0.1433465 -59.65 0.0008316171    1.758    0.431
        32 -11.0324    203.7246     93.0693   9.7726610680e+00   2.3452066678e+01     0.502554    0.2904567  75.56  0.002647581    2.327    0.570
        33 -12.1710    144.0901     91.5661   1.9134238754e+01   3.5251894399e+01    0.3576981    0.3279428  45.74 0.0009787759    1.238    0.192
        34 -10.3622    163.8110     92.2409   1.5563446706e+01   3.1072502201e+01    0.2726237    0.2006851  53.77 0.0009021582    1.445    0.308
        35  -9.6157    157.4463     88.0099   1.5717370439e+01   3.3114362828e+01    0.1937595    0.1703106  78.79 0.0001892295    1.113    0.102
        36  -9.4801    152.7149     87.7807   1.6534328471e+01   3.4136752037e+01    0.2258336    0.1841754  71.56  0.000635402    1.215    0.177
        37 -11.8446    249.2232     84.6684   3.3718668583e+00   1.7486981518e+01    0.4355948    0.2077334 -45.13  0.001917797    1.551    0.355
        38 -11.0631    245.5312     79.3955   2.7805223980e+00   1.8739329755e+01    0.2815183      0.18362  54.25  0.001384343    2.046    0.511
        39  -8.9011    163.5076     86.5395   1.4312790893e+01   3.2128766772e+01    0.1337348    0.1201249 -72.71 -1.222846e-05    1.023    0.022
        40 -12.0185      4.0002    125.6820   7.3673142431e+01   4.9549045100e+01    0.7317224    0.2242214  29.17  0.002646548    2.832    0.647
        41 -10.9499      5.2868     84.2007   6.8478901146e+01   6.0443341179e+01    0.4316095    0.2946332  10.46  0.002246847    1.476    0.323
        42  -9.1721    170.6975     80.6893   1.1802066668e+01   3.1658365163e+01    0.2087725    0.1891243  35.58 0.0007255846    1.443    0.307
        43 -10.8714    174.9227     81.6143   1.1361736203e+01   3.0658987164e+01    0.3257276      0.21055 -55.22 0.0003957507    1.416    0.294
        44  -9.9053    177.9247     78.4486   1.0212108993e+01   3.0577029071e+01    0.2043896    0.1529531 -68.17 0.0003973774    1.250    0.200
        45 -10.9641    128.3711     80.8433   1.9823803582e+01   4.0634491488e+01    0.6633947    0.3569557  57.14  0.002927263    1.829    0.453
        46 -12.1873    119.0308     71.7188   1.9531677942e+01   4.4387354966e+01    0.9253492    0.6717772 -79.15  0.004605465    1.580    0.367
        47  -8.7828    145.3369     81.3312   1.6379853490e+01   3.6850943797e+01    0.1336468    0.1127497  15.23 0.0007052078    1.736    0.424
        48 -11.8090    234.5511     74.9650   2.9708234908e+00   2.1017692649e+01    0.3996084    0.2297774 -61.63  0.001094994    1.610    0.379
        49 -10.1426    205.7794     75.4641   6.0003357662e+00   2.5779619274e+01    0.3812334    0.2038319 -74.18  0.001852051    2.575    0.612
        50 -10.3425    198.6196     75.8421   6.9156827030e+00   2.7023066455e+01    0.2760628     0.205468 -43.11  0.001333492    1.280    0.219
        51 -10.3581     18.9801     76.5059   5.9881637263e+01   6.1345389152e+01    0.2713281    0.1972084  81.82  0.001375068    1.673    0.402
        52  -9.3109    213.0061     76.3399   5.3729984912e+00   2.4379114956e+01    0.1544666     0.129168 -66.67 0.0006920216    1.074    0.069
        53 -10.1859    103.4380     75.1696   2.4569518594e+01   4.7216605471e+01    0.4828595    0.2735087 -58.17  0.001599916    2.040    0.510
        54 -11.2823     96.0502     71.4585   2.5630747232e+01   4.9553082182e+01    0.4022804    0.2886808  38.64 0.0005424793    1.498    0.332
        55 -10.9759    249.8754     74.1568   1.5043033112e+00   1.8803163190e+01    0.2230732     0.156683 -73.72  0.001060908    1.422    0.297
        56 -10.0425    217.5028     75.0038   4.6371214057e+00   2.3801107885e+01    0.2605629    0.1601445 -57.85  0.001300365    1.396    0.284
        57  -9.3730    218.7725     71.4185   3.8165029452e+00   2.4096338830e+01     0.196303    0.1691614  75.99 0.0008089108    1.344    0.256
        58 -12.0182    104.7402     64.1159   2.0950598673e+01   4.8984076450e+01    0.8174065    0.5354583 -58.24  0.003162307    1.677    0.404
        59  -9.6719     29.3456     70.4000   5.2918094495e+01   6.1720545946e+01    0.2398913    0.1614318  36.07 0.0006081646    1.436    0.304
        60 -11.2022      1.5858     67.0862   6.7833880946e+01   6.4909237380e+01     0.481271    0.1544654 -74.68  0.001753867    3.250    0.692
        61  -9.4056    209.9601     68.3626   4.1208720910e+00   2.6066650593e+01    0.1549322    0.1305403 -76.86 0.0004085389    1.129    0.114
        62  -9.3415    202.0224     68.2424   4.9552126762e+00   2.7522543766e+01    0.1628797    0.1348617 -76.63 0.0005054714    1.106    0.096
        63 -10.5745    200.5334    236.0430   3.4649875470e+01   7.7351876441e-01    0.1711157     0.124871   8.04  0.000831942    1.199    0.166
        64  -9.7178    214.6927    232.3530   3.1769286115e+01  -3.5243929993e-02   0.08771563   0.08594452 -46.06 0.0007042605    1.716    0.417
        65 -10.6656    244.6637    182.1275   1.9935803936e+01   4.1395768264e+00    0.1641486    0.1462179  72.22  0.001300849    1.888    0.470
        66 -10.6209    227.3401    178.8504   2.1827600451e+01   6.4729449984e+00    0.2441592    0.2033596 -43.39  0.001338515    1.273    0.215
        67 -10.2000      2.0000    169.9672   7.7319183810e+01   3.7834848408e+01    0.2257366   0.07484913 -81.93 0.0008057292    2.965    0.663
        68 -11.2932    126.4332     63.9643   1.5683569616e+01   4.4066317946e+01    0.5921689    0.3098758 -47.43  0.002645969    1.934    0.483
        69 -11.2893    125.2214     57.3470   1.4072917101e+01   4.5437793736e+01     0.497319    0.3203364  85.92  0.001524652    1.808    0.447
        70 -11.9494    214.6163     60.6964   2.1364490488e+00   2.6314788111e+01    0.3892858    0.2944335  87.07  0.001434382    1.337    0.252
        71 -10.3846    169.7240     61.4895   7.5069636045e+00   3.4901837836e+01    0.2641489    0.2033651 -88.58 0.0008095484    1.215    0.177
        72 -10.6912     39.4307     80.6267   5.0477861682e+01   5.8001965098e+01    0.7238891    0.3204926  37.78  0.002776487    2.113    0.527
        73 -10.8079     15.5945     58.9987   5.7727226749e+01   6.5824650415e+01    0.3724009    0.3026597  73.58  0.001572359    1.506    0.336
        74  -9.3565     20.4760     59.5121   5.4954968605e+01   6.5230299068e+01     0.237173    0.2079214 -29.97  0.001406257    1.123    0.110
        75  -8.9141    229.6871     59.6980   5.9153937900e-01   2.3869865020e+01   0.09329082   0.08610269 -16.34 0.0003338566    1.611    0.379
        76 -10.4586     29.2547     57.5197   4.9315905741e+01   6.4660290204e+01    0.3087369    0.2523682 -71.08  0.001334048    1.419    0.295
        77 -10.9646    249.8731     55.2987   3.5824514444e+02   2.1238221908e+01    0.1953175    0.1015745 -49.93 0.0004932164    1.387    0.279
        78  -9.8133    174.1378     56.0594   5.6445550646e+00   3.4783702958e+01    0.1906849    0.1556538 -75.23 0.0005215587    1.036    0.035
        79 -10.8707    209.7810     54.3077   1.3256924108e+00   2.8054333394e+01    0.2557206    0.1811996  79.97  0.001030396    1.444    0.308
        80  -9.6417    189.5568     56.4592   3.8670193586e+00   3.1596487936e+01    0.2282138    0.1135213  68.57  0.001180328    2.075    0.518
        81 -11.1674    133.7453     52.3129   1.0964366924e+01   4.4262189911e+01    0.3070687    0.2239311  71.72 0.0001832611    1.257    0.205
        82  -9.5684    234.5084     51.4829   3.5869007153e+02   2.4145145870e+01    0.1105472   0.08167765 -58.73 0.0005223823    1.009    0.009
        83 -10.0201    213.4469     50.1623   1.6419641914e-01   2.7942670648e+01    0.1958944    0.1397635 -83.52  0.000481157    1.312    0.238
        84  -9.6260    126.5035     50.4935   1.1840847061e+01   4.6218265980e+01    0.1385432     0.121691  83.57 0.0008104386    1.032    0.031
        85 -11.4324    170.3995    158.7818   2.7969419474e+01   1.7460122354e+01    0.4195433    0.3173901  87.72  0.002211815    2.079    0.519
        86 -10.6235     97.6358     45.7938   1.7038777879e+01   5.3690403579e+01    0.3733903    0.2665968 -41.91  0.001968508    1.554    0.357
        87 -12.1560    120.9259     44.0711   1.1063003201e+01   4.8485427779e+01    0.3103945    0.3017702  -4.58   0.00113021    1.340    0.254
        88 -13.1571    213.5512     39.2373   3.5799008321e+02   2.9328608687e+01    0.3310481    0.2886459 -60.57 0.0005702116    1.255    0.203
        89 -11.2739    156.9971     42.6302   4.6634690120e+00   4.0383418961e+01    0.2786847    0.2139441  81.58 0.0005399552    1.172    0.147
        90 -10.0497    139.4878     43.5331   7.5240527975e+00   4.4228810690e+01     0.242608    0.2247445  57.89  0.000835148    1.304    0.233
        91 -11.3231    247.1650     42.4681   3.5619876126e+02   2.3236743326e+01     0.193812     0.173323 -73.26 0.0004816702    1.364    0.267
        92 -10.1833    203.6308     42.5725   3.5950079388e+02   3.0750419847e+01    0.1987273    0.1848124 -39.15 0.0008116603    1.450    0.311
        93 -12.0635    228.8082     40.2684   3.5703889763e+02   2.6506632027e+01     0.474737    0.2323292  83.53 0.0006740401    2.239    0.553
        94 -10.0111    180.1795     40.8232   1.4183877759e+00   3.5637692535e+01    0.2030091    0.1480536  87.54 0.0006567205    1.244    0.196
        95  -9.0685    196.9061     40.8068   3.5974303529e+02   3.2271939859e+01    0.1431851   0.08323505  73.28 0.0005071676    1.715    0.417
        96 -12.2610    240.0029     34.2366   3.5519554163e+02   2.5365988687e+01    0.3655137    0.2606561  66.35  0.001086197    1.778    0.438
        97 -11.6993    247.2717     31.5696   3.5429687280e+02   2.4509409520e+01    0.3407855    0.2722009 -87.10  0.002399381    1.353    0.261
        98 -10.4355    130.1694     36.8375   7.1922038563e+00   4.7327010920e+01     0.202758    0.1615986  78.97 0.0003352698    1.092    0.084
        99 -10.8192    160.1939     35.8255   2.5292956472e+00   4.0583131002e+01    0.2277118    0.1747187  77.20 0.0003789591    1.212    0.175
       100 -11.6102    151.2551     31.6092   2.5811543380e+00   4.3129386589e+01    0.3998374    0.2248613  63.14  0.001078631    1.690    0.408
       101 -10.7061    168.4315     27.0508   3.5942625277e+02   3.9877517880e+01    0.3470644     0.180756  77.89  0.001847109    1.774    0.436
       102  -9.5863    216.1586     27.0707   3.5540208469e+02   3.0329541130e+01    0.1522759    0.1299516 -68.06 0.0005109938    1.234    0.190
       103  -8.5936    131.8035     60.3771   1.3575127245e+01   4.3435254335e+01    0.3560564    0.1641368  51.87  0.001019014    2.165    0.538
       104 -10.9881    126.7802    155.7135   3.7058136022e+01   2.5203008197e+01    0.3000146    0.2093486 -64.35  0.001447155    1.628    0.386
       105 -12.2821    138.6620    152.2818   3.3533865287e+01   2.3932852040e+01    0.4491144    0.3327273 -53.68  0.001846313    1.365    0.267
       106 -10.8855    152.2155     22.2416   3.5999812464e+02   4.4052208532e+01    0.3650663     0.279713 -70.15  0.001514976    1.117    0.104
       107 -13.7231    143.6827    145.4828   3.1059002397e+01   2.4501456719e+01     1.470968     1.049127  77.67  0.006932094    2.080    0.519
       108  -9.0508    202.5339     25.4749   3.5605555839e+02   3.3070766171e+01     0.116095   0.08743554 -67.55  0.000115809    1.008    0.008
       109  -9.4990    186.9629     18.4166   3.5574202133e+02   3.6979367064e+01     0.169666   0.09773649  79.31 0.0008936952    1.590    0.371
       110 -12.0135     16.0086    149.6414   7.1201046951e+01   4.2203243751e+01    0.3458779    0.3106309 -79.15  0.001544266    1.113    0.102
       111 -12.4700      8.7196    147.4067   7.3625365295e+01   4.3363310894e+01    0.6016461    0.3077314  79.56  0.002539737    2.094    0.523
       112 -13.2704      3.6308    140.0654   7.4936079081e+01   4.5685305395e+01     1.105656    0.5230554  89.76  0.004593269    2.167    0.538
       113 -12.3194    165.4387    146.1572   2.6579735551e+01   2.0666501766e+01    0.6353846    0.6263133 -46.28  0.003859975    1.059    0.056
       114 -12.7770     51.0075    142.8184   5.7817746878e+01   4.0356534190e+01    0.8224115    0.6622958  41.58   0.00253988    1.175    0.149
       115 -11.5901     59.4282    145.0749   5.5221760433e+01   3.8627614580e+01    0.6308905    0.4680728  61.06  0.002419904    1.424    0.298
       116 -11.9890     14.7425    143.2961   7.1096980019e+01   4.4023517452e+01    0.4662779    0.2175005  62.35  0.001807256    2.417    0.586
       117 -10.9462    172.1058    102.1339   1.6327550455e+01   2.7700348328e+01    0.4503759    0.2322391  62.22  0.001892449    2.322    0.569
       118 -10.4959     71.7131     94.5306   4.0388196258e+01   4.9506609028e+01    0.6844645      0.57612 -66.59  0.001524307    1.258    0.205
       119 -11.5588     75.3970    108.5924   4.2484045629e+01   4.5477783485e+01    0.6405799    0.3868918  38.89  0.002147701    1.571    0.364
       120 -14.2222     80.8711    103.1632   3.9268489881e+01   4.5789649441e+01     3.081422     1.694428  26.68   0.01190685    2.251    0.556
       121 -10.0291    167.8093    119.3860   2.0756596585e+01   2.5356980174e+01    0.2511697    0.2326097  31.86 0.0007865709    1.232    0.189
       122 -12.5449    117.9395    115.3202   3.0941076200e+01   3.5802058362e+01     0.564536    0.4573947  79.45  0.002865553    1.386    0.279
       123 -12.1082    152.9122    135.8617   2.7111825066e+01   2.4848457423e+01    0.6448598    0.4763784 -81.15  0.003240185    1.817    0.450
