#   1 NUMBER                 Running object number                                     
#   2 MAG_AUTO               Kron-like elliptical aperture magnitude                    [mag]
#   3 X_IMAGE                Object position along x                                    [pixel]
#   4 Y_IMAGE                Object position along y                                    [pixel]
#   5 X_WORLD                Barycenter position along world x axis                     [deg]
#   6 Y_WORLD                Barycenter position along world y axis                     [deg]
#   7 A_WORLD                Profile RMS along major axis (world units)                 [deg]
#   8 B_WORLD                Profile RMS along minor axis (world units)                 [deg]
#   9 THETA_WORLD            Position angle (CCW/world-x)                               [deg]
#  10 FWHM_WORLD             FWHM assuming a gaussian core                              [deg]
#  11 ELONGATION             A_IMAGE/B_IMAGE                                           
#  12 ELLIPTICITY            1 - B_IMAGE/A_IMAGE                                       
         1 -12.5191     43.5113     46.6388   1.0036462548e+02   6.1168880390e+01    0.7859621    0.6397892  59.19  0.002808848    1.735    0.424
         2 -12.0312     60.4881     45.6503   9.4092801935e+01   5.9406927087e+01     1.993495    0.4479358 -47.41   0.00675333    3.739    0.733
         3 -12.5254     74.8108     51.0877   9.1128573682e+01   5.6409206664e+01     1.383452    0.8143623 -56.56  0.006742228    1.959    0.489
         4 -11.6178    119.4028     57.9903   8.0259762392e+01   4.7173088536e+01     1.527241     1.175254 -77.67  0.007366988    1.873    0.466
         5 -12.1848    162.9319     28.5466   6.0090260751e+01   4.1435831092e+01    0.6618235    0.5097503  18.55 0.0007727993    1.444    0.308
         6 -12.2982    104.7153     12.9964   6.7225895120e+01   5.7041505202e+01    0.6348521    0.3842288 -28.20  0.003237064    1.600    0.375
         7 -11.4844    155.1217     23.9378   5.9982453829e+01   4.4007389547e+01     1.467223    0.6200801  50.12  0.005664606    2.186    0.543
         8 -11.4207    141.6220     19.7158   6.1167091917e+01   4.7877404944e+01     1.803324    0.5783587  42.36  0.005747742    3.480    0.713
         9 -11.9901    132.7655     14.5343   6.1092477266e+01   5.0609565522e+01     1.694147    0.6285467  59.39  0.006346127    2.630    0.620
        10 -12.0465    124.7162     27.7775   6.8030096331e+01   5.0829749748e+01    0.8532385    0.6827578  14.10  0.003693908    1.274    0.215
        11 -12.8268    120.1472     38.5755   7.3237820965e+01   5.0271673678e+01    0.8068811    0.5867817 -64.47   0.00268733    1.975    0.494
        12 -12.6721    113.3800     24.8241   6.9759708169e+01   5.3718393494e+01     0.886367    0.4404122  51.75   0.00220929    2.030    0.507
        13 -10.7374    138.4864     33.0618   6.6741986437e+01   4.6906918763e+01    0.6786805        0.529 -40.64  0.002646803    1.349    0.259
        14 -11.4316    178.6650     21.1160   5.4890228480e+01   3.8241132172e+01    0.7412438    0.3429468  44.50  0.002560025    2.258    0.557
        15 -10.4296     22.1897      5.1912   9.3569862144e+01   7.0480059155e+01     0.297942    0.1481033 -50.36  0.001281648    2.133    0.531
        16 -12.2074     18.7343     22.7770   1.0212769220e+02   6.7810079729e+01    0.8675035    0.7231148  29.62  0.006224952    1.603    0.376
        17 -11.4387     26.2821     27.7337   1.0073898423e+02   6.6322623258e+01    0.4490191    0.2474219 -49.86  0.001919474    1.446    0.308
        18 -12.4543     16.9201     13.3860   9.9430484669e+01   6.9582009347e+01    0.5549455    0.4182076 -42.60 0.0006667367    1.168    0.144
        19 -11.9639     22.5715     11.5407   9.6158034112e+01   6.9434246847e+01    0.5216947    0.3199696 -25.21  0.002703893    1.421    0.297
        20 -11.1458    198.7008     28.5719   5.4165524495e+01   3.2041113553e+01     0.684738    0.4439406 -10.09  0.002673488    1.856    0.461
        21 -10.0909     87.4496      7.3491   6.9647255349e+01   6.1108108530e+01    0.5283364    0.3070868  46.54  0.002783774    1.727    0.421
        22 -11.2304     90.0130     21.1434   7.4887450340e+01   5.8868687210e+01    0.5892631     0.496816  28.57  0.003617815    1.190    0.160
        23 -11.1847     85.7895     14.2012   7.3208717283e+01   6.0572515101e+01     0.480789    0.3362722 -19.42  0.001988822    1.301    0.231
        24 -10.1426     32.5920     12.4786   9.2178995407e+01   6.8351435178e+01    0.2028661    0.1870248  67.86 0.0005436346    1.834    0.455
        25 -11.6860     36.1179     17.7351   9.2913706339e+01   6.7142398154e+01    0.6192458    0.2581414 -32.43  0.002146294    2.268    0.559
        26 -12.0338     48.4163     12.8842   8.5828952145e+01   6.6501854137e+01    0.5946222    0.3415415  30.40  0.003485479    1.914    0.478
        27 -11.9920     69.2888     18.7125   8.0631531849e+01   6.2721026234e+01     0.644066    0.4773355  39.07  0.003190423    1.517    0.341
        28  -9.4783     61.8055     11.9561   8.0301823566e+01   6.4813342080e+01    0.2549039     0.117207 -32.82 0.0007856242    1.898    0.473
        29 -10.4605     67.0304     10.1489   7.7594154497e+01   6.4268240797e+01    0.5479917    0.1962434  45.76  0.002369676    3.120    0.679
        30  -9.8835     63.1902      6.3997   7.7208041739e+01   6.5350806123e+01    0.3113645    0.2256154   6.12  0.001851931    1.290    0.225
        31 -12.2089    239.3720     15.9618   4.5659264864e+01   2.3041281136e+01     1.079978    0.5955423  53.31   0.00408324    1.908    0.476
        32 -10.5808    242.7311      3.5886   4.2179319428e+01   2.3560788813e+01    0.3949166    0.2267932  69.09  0.001963615    1.684    0.406
        33 -11.2111    165.1927     17.6806   5.5978417864e+01   4.2161095859e+01    0.4845039    0.3048413  31.99  0.001377856    1.780    0.438
        34 -11.1592    245.7207      7.7240   4.2954639314e+01   2.2393435230e+01    0.4596574    0.3130831 -12.34  0.002119853    1.763    0.433
        35 -10.1589    225.8258     15.6204   4.6989892264e+01   2.6491610068e+01    0.3907412    0.2390196 -29.00  0.001394809    1.628    0.386
        36  -9.9363    191.3665     16.5414   5.1537201904e+01   3.5403625204e+01    0.3383101    0.2850197  26.49  0.001601329    1.296    0.229
        37 -10.5801    186.4660     15.2037   5.1816406934e+01   3.6848937497e+01    0.3439203    0.2727891  54.37 0.0006345631    1.205    0.170
        38 -11.5804    192.6463      7.2401   4.8503145457e+01   3.6051495877e+01    0.8026009    0.4959709  15.54  0.003342451    2.197    0.545
        39 -11.4357    211.6344      9.8738   4.6978708685e+01   3.0787028373e+01    0.5345451    0.3617651  13.54  0.001634183    1.976    0.494
        40  -9.9402      1.2948      7.2793   1.0429871864e+02   7.1641066856e+01    0.2707107   0.05456129 -50.21 0.0002268574    2.912    0.657
        41 -10.6646      4.9023      9.3401   1.0337307621e+02   7.1082649607e+01    0.5337667    0.1704912 -48.95  0.002400626    2.109    0.526
        42 -11.2614      3.4052      1.7442   1.0105478652e+02   7.2437860380e+01    0.3270755    0.1721592   7.64  0.002144179    2.287    0.563
        43  -9.8726    168.8723      9.8976   5.2736068281e+01   4.2041396481e+01    0.3403814    0.1808454  44.52  0.001464297    1.864    0.463
        44  -9.1298    163.0270     10.0128   5.3715932296e+01   4.3548114749e+01     0.225214    0.1868639  33.29 0.0006619368    1.201    0.167
        45  -9.4794    162.6653      6.0265   5.2402189131e+01   4.4039057862e+01    0.2360864    0.2064145 -24.74 0.0004534944    1.209    0.173
        46 -10.0835    185.1352      7.3320   4.9522802822e+01   3.8026264507e+01    0.3590017    0.2017258 -40.33  0.001103091    1.839    0.456
        47 -11.4532    232.5807      7.2118   4.4043165680e+01   2.5696830301e+01    0.6910468    0.2954472  61.08  0.002925869    2.202    0.546
        48 -10.9820    218.7124      3.1225   4.4322156184e+01   2.9647657196e+01    0.3345633    0.3318289 -40.85  0.001083968    1.115    0.103
        49 -10.4318    227.8362      3.0168   4.3391820056e+01   2.7328791935e+01    0.3897964    0.2707592 -35.74  0.001529084    1.410    0.291
        50 -10.3996    223.6986      1.8849   4.3488600267e+01   2.8494169305e+01    0.3336086    0.2512878  70.54  0.001175068    1.264    0.209
        51 -10.1063    151.8827      7.4984   5.4729889438e+01   4.6653213859e+01    0.4757584    0.2178821  56.91  0.001216165    1.931    0.482
        52 -10.9500     75.2521      4.4327   7.2121454314e+01   6.3636332451e+01    0.5516996    0.4357161  51.40  0.003461866    1.577    0.366
        53 -10.6946     41.4113      4.5935   8.4825425207e+01   6.8563074250e+01     0.423982    0.2019418 -18.57  0.001977967    2.540    0.606
        54 -11.4025    205.0471      2.6352   4.5645510667e+01   3.3245021803e+01    0.4778806    0.3570951  69.75  0.001059273    1.251    0.200
        55 -10.2733    175.5914      5.1875   5.0165628154e+01   4.0750670520e+01    0.3844997    0.2768357  79.08  0.001946309    1.412    0.292
        56  -9.4068    169.7868      3.2018   5.0352214600e+01   4.2458376276e+01    0.3775337    0.1864165 -73.55  0.001266557    3.718    0.731
        57  -9.8546    116.5619      3.6294   6.0348981800e+01   5.5497237596e+01    0.4508497    0.2383404   0.25  0.001955228    2.346    0.574
        58 -10.8500    107.4652      1.7045   6.1695082310e+01   5.7679820723e+01    0.8313707    0.2191692  59.30  0.002762187    4.002    0.750
        59 -10.1857    142.4333      3.5225   5.4974617067e+01   4.9398520227e+01    0.3559282    0.2515067  62.39  0.001445091    1.363    0.266
        60 -11.7982    133.5918      2.5736   5.6297978196e+01   5.1640869164e+01    0.4179296    0.2518177  53.66 0.0007470737    1.501    0.334
        61  -9.0571     55.1227      4.1030   7.9098588858e+01   6.6834748614e+01    0.1717558    0.1300714  -4.89 0.0003353464    1.108    0.097
        62  -9.8176    159.6591      1.9169   5.1456512370e+01   4.5200135367e+01    0.6262043    0.1540867  55.05  0.002083591    3.082    0.675
        63 -10.4400     12.9520      2.1249   9.6541821060e+01   7.1720074578e+01    0.2298205     0.163854 -10.83  0.001109087    1.321    0.243
        64  -8.9552    151.5208      1.2814   5.2554311516e+01   4.7332527318e+01    0.2473922    0.1173008  65.25 0.0007009618    1.986    0.497
        65  -9.5564    122.7374      1.3664   5.8048933710e+01   5.4309125261e+01    0.3938911    0.1249599  61.77  0.001405256    3.130    0.681
        66 -10.7580     82.1184      1.3345   6.8485506339e+01   6.2767012564e+01    0.1999051    0.1104069  47.65  0.000362277    1.821    0.451
        67  -9.9580    214.6770    151.1720   8.4024107514e+01   8.7398496633e+00    0.2670499    0.2406934  61.31 0.0008093992    1.263    0.208
        68 -11.2059     62.8452    149.9396   1.1556909885e+02   3.6825058035e+01    0.4363672    0.3847861  66.34  0.002259967    1.212    0.175
        69  -9.8909     55.7183    149.3128   1.1701771060e+02   3.7825903064e+01    0.2099603    0.1758393 -61.54  0.001445033    1.342    0.255
        70  -9.7942    239.7353    146.6857   7.8599318788e+01   4.2563539671e+00     0.224809     0.189856 -19.11 0.0006419885    1.155    0.134
        71 -10.7907    249.4661    142.3076   7.6001305367e+01   2.9321596126e+00    0.6106606    0.2646918 -30.68  0.002581303    2.245    0.555
        72  -9.5299    107.5641    146.4570   1.0522538192e+02   3.1016243647e+01    0.2275907    0.1298893  31.81  0.001028461    2.324    0.570
        73  -8.7178     53.3088    145.6177   1.1708226332e+02   3.8893012019e+01    0.1303858   0.07639714  77.83 0.0007022906    1.798    0.444
        74 -10.6299     33.1576    144.2554   1.2124138638e+02   4.1330215340e+01    0.2475194    0.1855051  80.58 0.0007474092    1.131    0.116
        75 -10.4798    104.5487    142.2216   1.0516276107e+02   3.2415268076e+01    0.2396058    0.2070386  80.20 0.0002718539    1.075    0.069
        76 -10.0675    133.2214    140.4122   9.8390333129e+01   2.7653930501e+01    0.2852389    0.2728647  24.50 0.0009460167    1.203    0.169
        77 -11.9229     29.8003    132.8149   1.2073050290e+02   4.4072724345e+01    0.6758857    0.3446438 -75.05  0.003248866    1.572    0.364
        78 -11.4083     24.1765    136.8397   1.2239060733e+02   4.3726638009e+01    0.3391997    0.2266024 -60.42 0.0003345463    1.470    0.320
        79 -10.9739     20.9896    134.4934   1.2284065870e+02   4.4497207319e+01    0.2391594    0.2159042  80.82  0.000700078    1.282    0.220
        80 -10.5261     80.4971    136.1994   1.0964115104e+02   3.7424169478e+01    0.4045037    0.3270276  -3.59  0.001623323    2.020    0.505
        81 -11.1046     72.2438    134.2018   1.1123509329e+02   3.8998898342e+01    0.5435284    0.3235131 -43.03  0.002768304    2.149    0.535
        82 -10.2899     47.3731    135.4159   1.1710882186e+02   4.1748736424e+01    0.4368891    0.1329371 -61.98  0.001487346    2.618    0.618
        83  -9.3699     43.9038    132.8611   1.1756687938e+02   4.2671891286e+01     0.226109    0.1238983  64.55 0.0004178348    2.014    0.504
        84  -9.0096     40.6546    138.2847   1.1895976442e+02   4.1844428546e+01    0.1211982   0.07382461  72.96 0.0007018119    1.646    0.392
        85  -8.7181    216.7600    135.0045   8.0040813184e+01   1.0881581563e+01    0.1823185    0.1202098 -32.83  0.000441886    1.535    0.348
        86 -10.7961     92.8793    129.6710   1.0561325277e+02   3.7001475001e+01    0.4118311    0.2687657 -77.12  0.001772593    1.656    0.396
        87  -9.3077     87.3118    135.3191   1.0791653457e+02   3.6621297164e+01    0.1246202    0.1013378 -33.04 0.0007036142    1.646    0.392
        88  -9.7787     62.0303    132.0837   1.1328739155e+02   4.0773436098e+01    0.3387691    0.1703833 -51.48    0.0017024    2.033    0.508
        89  -8.9905    103.9284    130.9839   1.0324748114e+02   3.4929316704e+01    0.1630198    0.1489309  85.76 0.0004522221    1.035    0.034
        90 -10.4319     82.7437    124.0809   1.0703002194e+02   3.9755019499e+01    0.5260363    0.3798316  17.57  0.002786977    2.103    0.524
        91  -9.0882     22.7595    126.8278   1.2164207962e+02   4.5971931203e+01    0.1513447    0.1039548  81.68 0.0003775803    1.296    0.228
        92 -10.3943     18.4877    124.8450   1.2239202252e+02   4.6746159915e+01    0.3613634    0.1308706 -65.69  0.001425256    2.061    0.515
        93 -10.6292     45.8169    120.2846   1.1540418695e+02   4.5209294910e+01    0.3197632    0.2036543  78.90  0.001341927    1.695    0.410
        94 -10.8663     55.7302    123.1646   1.1343606829e+02   4.3481718125e+01    0.3978029    0.3350176  14.98  0.001204138    1.679    0.404
        95  -9.6485      2.3196    125.7092   1.2605785359e+02   4.7758192214e+01     0.226881     0.126329 -87.94  0.001281913    1.401    0.286
        96  -9.8239      4.3538    120.4979   1.2513537276e+02   4.8706948858e+01    0.3768657    0.1538856 -64.17  0.001515139    1.871    0.465
        97  -9.6888      6.8733    114.8433   1.2400248999e+02   4.9725132715e+01    0.2390431    0.1588483  85.33  0.001341801    1.293    0.227
        98 -11.3223      2.5132    112.1571   1.2474448241e+02   5.0576579012e+01     0.299085    0.1821708 -79.92  0.000833037    1.206    0.171
        99 -11.9363      3.7446    105.4710   1.2375299815e+02   5.1907709192e+01    0.3869788     0.268803 -84.29 0.0009301351    1.121    0.108
       100 -11.5404    104.6620    121.7244   1.0123678202e+02   3.6814207635e+01    0.4479255    0.3983536 -85.60  0.001520114    1.071    0.066
       101 -11.0055     33.2048    119.6889   1.1835726158e+02   4.6584710242e+01    0.3080152    0.2261855 -74.03 0.0006497861    1.075    0.070
       102  -9.1798    221.1924    120.4212   7.5789409302e+01   1.2268961523e+01    0.2001294    0.1434705  63.32  0.000670799    1.641    0.391
       103  -9.1184    148.4144    119.7756   9.0472328178e+01   2.8805167666e+01    0.2101653    0.1411015 -33.82 0.0005365661    1.680    0.405
       104  -9.2080     72.5032    119.9493   1.0880149978e+02   4.2097990603e+01     0.196586    0.1118561 -59.81 0.0005853866    1.538    0.350
       105  -9.0575     81.5649    117.4947   1.0609566380e+02   4.1379298005e+01    0.1332547     0.115567 -74.33 4.423469e-05    1.011    0.011
       106  -9.5838    113.4792    116.0154   9.7863629910e+01   3.6503221671e+01    0.2414896    0.2041895  23.05 0.0004746273    1.452    0.311
       107 -10.2570     67.0718    112.0214   1.0873985195e+02   4.4565146414e+01    0.4817089    0.2597034 -68.98  0.002385495    1.774    0.436
       108  -9.9591     36.3621    114.5226   1.1688852902e+02   4.7414521606e+01    0.2482272     0.149644  85.92  0.001087559    1.747    0.428
       109 -10.4155     25.6304     86.8085   1.1543189782e+02   5.4378194160e+01     0.565801    0.4293608  65.62   0.00387853    1.532    0.347
       110 -10.3105     17.3964    100.8842   1.1978241660e+02   5.1963771650e+01    0.2417705    0.1962841 -61.41 0.0006366223    1.206    0.171
       111 -10.2973     34.9062     91.9387   1.1371523894e+02   5.2486509848e+01     1.122345    0.6017674 -89.57  0.005486643    2.511    0.602
       112 -12.2995     41.3331     86.0977   1.1081058092e+02   5.3162359377e+01    0.8739791    0.6229511  28.82  0.005549837    1.760    0.432
       113 -11.7233      9.7124     96.9246   1.2124561002e+02   5.3342587571e+01    0.6326149    0.3874931  89.70  0.004100206    1.510    0.338
       114 -12.0315      7.5917     88.7980   1.2073249258e+02   5.5205986811e+01    0.5412089    0.4039775  62.51  0.002801182    1.538    0.350
       115 -11.3882     18.8687    106.0742   1.2009209783e+02   5.0736850396e+01    0.1950731    0.1583984 -70.62 0.0002918975    1.124    0.110
       116 -13.0708     25.0647    110.1895   1.1908723987e+02   4.9357549969e+01     1.404489    0.8877952 -38.64  0.008594743    2.066    0.516
       117 -11.2449     23.9027    101.2896   1.1815732350e+02   5.1379937665e+01    0.4879246    0.2120567 -72.14  0.001936909    1.877    0.467
       118 -11.8344     21.5533     95.3499   1.1791051161e+02   5.2847644792e+01    0.5652671    0.3232465   8.71  0.003225389    2.880    0.653
       119 -12.1430     18.2411     90.2872   1.1804752463e+02   5.4182818594e+01    0.3337058    0.2561299 -53.89 0.0006190962    1.250    0.200
       120 -10.6952    107.5128    112.0746   9.8461219114e+01   3.8419695249e+01    0.6273735    0.3514137 -69.24  0.001981595    2.358    0.576
       121 -10.7993    101.9853    109.4814   9.9273547546e+01   3.9937620501e+01    0.4078734    0.3737115  33.57  0.002306295    1.244    0.196
       122 -10.1884    103.1244    106.0889   9.8211022643e+01   4.0481803980e+01    0.3172682    0.2582172  28.31 0.0003622792    1.465    0.318
       123  -9.0207     87.7428    114.4398   1.0394270157e+02   4.1138504872e+01     0.245252    0.1241724  46.66  0.001122472    2.119    0.528
       124 -11.2533    170.9389    109.9929   8.3072423406e+01   2.5736007375e+01    0.6793658    0.4507439  32.41  0.002381949    1.758    0.431
       125  -9.5659     94.0445    111.7652   1.0179077487e+02   4.0745315198e+01    0.2702655    0.1862208 -79.12  0.001352999    1.683    0.406
       126  -9.6218     48.9871    112.0678   1.1335995464e+02   4.6679689304e+01    0.2086056    0.1721315  50.09 0.0009349072    1.379    0.275
       127 -10.2041     90.2436    104.4488   1.0118067057e+02   4.2953336117e+01    0.3829116    0.2633998   1.85  0.001718669    2.729    0.634
       128 -11.3521     79.7041    108.4579   1.0478782179e+02   4.3645772429e+01    0.5209723    0.4316613  67.06  0.002226734    1.289    0.224
       129 -10.4682     85.6475    104.7272   1.0244842522e+02   4.3597315748e+01    0.4053377    0.2936714 -27.95  0.001283025    1.834    0.455
       130  -9.4169     82.1760    102.7781   1.0294268991e+02   4.4542269922e+01    0.1803116    0.1681693 -69.76 0.0004885945    1.067    0.062
       131 -10.2992    130.2083    109.5300   9.2275560036e+01   3.4688748030e+01    0.3321891    0.2379351 -44.13   0.00162481    1.383    0.277
       132 -10.0134    120.0986    109.3365   9.4698696410e+01   3.6706917986e+01    0.2495948    0.1918445 -40.65 0.0006495871    1.339    0.253
       133  -9.8714     58.0922    107.4981   1.1023838232e+02   4.6667730276e+01    0.3928865    0.1890953 -76.54  0.001214089    2.546    0.607
       134  -9.7990     57.9599    102.9640   1.0943930269e+02   4.7686667190e+01    0.2731546    0.1527067 -76.39  0.001348202    1.943    0.485
       135 -10.9933    157.8818    106.2484   8.4980608677e+01   2.9441360497e+01    0.4842197    0.3496452  18.24  0.002134577    1.898    0.473
       136 -10.7475    143.3217    106.2378   8.8327367985e+01   3.2647012109e+01    0.3414952    0.3041299  83.80  0.001012179    1.215    0.177
       137 -11.8080    146.0740    100.2175   8.6117228498e+01   3.3269310642e+01    0.5365498    0.4966379  -5.20  0.001824366    1.185    0.156
       138 -10.8491     56.9473     96.9534   1.0855533595e+02   4.9131590197e+01    0.7575223     0.361138  61.93  0.002959445    3.908    0.744
       139 -11.1218     47.8717    103.5014   1.1221619871e+02   4.8688008487e+01    0.4334191    0.2499771 -34.68  0.001460817    2.483    0.597
       140 -10.8340     52.4111     96.5835   1.0972893638e+02   4.9724536191e+01    0.7423517    0.3517643 -76.33  0.003184299    2.727    0.633
       141 -10.2563    120.5078    101.7132   9.2732198700e+01   3.8247773679e+01     0.345862     0.204253 -26.49  0.001352391    2.608    0.617
       142 -10.8430     46.9105     74.3732   1.0664312236e+02   5.5135565658e+01    0.3788888    0.1727124 -58.82            0    1.807    0.447
       143 -12.5495     52.7121     74.0156   1.0477315467e+02   5.4592167496e+01    0.5662754    0.2612581 -59.51 0.0009986357    1.894    0.472
       144 -10.4018     58.5308     78.4546   1.0407250944e+02   5.2978578255e+01    0.5014147    0.2748048 -67.16  0.002430472    1.934    0.483
       145 -10.9010     89.3483     90.1376   9.8048808144e+01   4.6211286659e+01    0.5022184    0.2830285 -45.60  0.001899117    1.648    0.393
       146  -9.8508     92.8840     85.7805   9.5951871925e+01   4.6577105841e+01    0.2323447    0.2166632  47.85 0.0004558034    1.182    0.154
       147 -11.1292     66.8248     81.9040   1.0244117880e+02   5.1213967499e+01    0.7916362     0.630513 -42.24  0.004824815    1.197    0.165
       148 -11.0369     79.5309     82.8550   9.8979851126e+01   4.9265691622e+01    0.6658657    0.4611868 -63.17  0.003024582    1.437    0.304
       149 -11.2430     72.9849     78.1326   9.9677413963e+01   5.1200642811e+01    0.9651462    0.6417798 -39.44  0.005207901    1.465    0.317
       150 -11.9776     77.9357     96.9196   1.0279333228e+02   4.6442068399e+01    0.3345449    0.2339957 -63.00  0.001834169    1.309    0.236
       151 -11.2450     81.9716     93.1183   1.0081147068e+02   4.6690207000e+01    0.6906251    0.3270628  48.17  0.003031273    2.478    0.596
       152 -11.2582     67.3031     96.7246   1.0566351830e+02   4.7920253925e+01    0.5362505    0.3554204 -24.52  0.002361896    2.279    0.561
       153  -9.9711    210.7271     97.6094   7.1919254434e+01   1.8493459856e+01    0.4015398    0.3020603  26.41  0.001896197    1.500    0.333
       154 -10.4812    139.6243     93.9922   8.5981024246e+01   3.5926685714e+01    0.4844868    0.3821583 -87.27   0.00130588    1.622    0.384
       155  -9.4884    160.5892     93.8510   8.1059023937e+01   3.1234977995e+01     0.309468    0.2098878  70.17  0.001312053    1.889    0.471
       156 -10.3234    117.5930     93.0963   9.1249735875e+01   4.0624071892e+01    0.4108107    0.2929857  19.02  0.001354999    1.958    0.489
       157 -10.9169    124.9261     93.4566   8.9471416673e+01   3.9105051690e+01    0.6230754    0.3521617  45.27  0.001543417    1.847    0.458
       158 -10.4893    121.8950     88.8588   8.8994805791e+01   4.0660447767e+01    0.3824525    0.3104611  30.96  0.001982329    1.375    0.273
       159 -10.6148    119.9848     85.2799   8.8493398770e+01   4.1773879663e+01    0.4104162    0.2815278  41.40  0.001293871    1.553    0.356
       160 -10.5252    121.4574     81.5340   8.7041929468e+01   4.2239515920e+01    0.4269156    0.2692671  66.09  0.001480738    2.239    0.553
       161 -10.6035    152.3399     91.6127   8.2316481845e+01   3.3570767269e+01    0.4717473    0.3782185  69.22  0.002070098    1.414    0.293
       162 -12.0712    101.9750     90.1170   9.4591797735e+01   4.4120303946e+01    0.4401084    0.3746907 -21.38 0.0005389408    1.340    0.254
       163  -9.1883    211.8062     88.1917   6.9216851545e+01   1.9798145038e+01    0.2158168    0.1787942  16.33 0.0005994895    1.343    0.255
       164 -10.4710    183.6312     85.5845   7.3830993400e+01   2.7211438366e+01    0.6618435    0.2793597 -44.07  0.002300115    2.467    0.595
       165 -10.3400    103.9146     78.0482   9.0754918861e+01   4.6298872901e+01    0.6375653    0.3436644 -33.06  0.002668202    2.151    0.535
       166 -11.0764    113.6355     83.6016   8.9693256241e+01   4.3353897533e+01    0.7063386    0.3692523 -37.38  0.002622183    1.989    0.497
       167 -10.8726    109.3484     80.5726   8.9987480357e+01   4.4784952023e+01    0.3805855    0.3242794 -17.12  0.001038539    1.302    0.232
       168 -10.4573    165.7855     83.6158   7.7016997527e+01   3.1929638093e+01    0.4436108    0.3702484 -70.30  0.001662514    1.394    0.283
       169 -11.4320    143.1264     83.8592   8.2286312567e+01   3.7163038026e+01    0.3979819    0.3363192 -49.41  0.001322882    1.185    0.156
       170 -10.5517    127.4160     83.1909   8.5983821566e+01   4.0687859419e+01    0.3452238    0.2787983 -34.92  0.001103308    1.224    0.183
       171 -10.1961    232.9681     77.7021   6.2904684294e+01   1.6302960879e+01     0.395716    0.2473791 -28.53   0.00135128    1.551    0.355
       172 -10.6120     14.3897     67.0541   1.1524221580e+02   5.9380921407e+01    0.2910062     0.210743 -65.50 0.0008694486    1.070    0.065
       173 -11.8077     14.0679     74.7140   1.1672546359e+02   5.7789620800e+01    0.4751923    0.3411111 -56.05  0.002522937    1.154    0.133
       174  -9.6156      9.1516     76.3563   1.1845433965e+02   5.7747617780e+01    0.1988565    0.1107848 -58.57 0.0007678182    1.347    0.258
       175 -10.6821     23.2670     37.2047   1.0497873801e+02   6.4795141791e+01    0.3779329    0.2811012  72.28  0.001698088    2.237    0.553
       176 -10.2546    143.0901    249.3287   1.1228805396e+02   7.3150400490e+00    0.1795286    0.1124742  40.38  0.001197645    1.442    0.306
       177 -10.8820     58.0977     61.9405   9.9913294770e+01   5.6495003403e+01    0.4854448    0.3995838 -85.25  0.002818407    1.540    0.351
       178 -11.5892     22.7299     47.3205   1.0801430971e+02   6.2857612249e+01    0.5528486    0.3943784  -0.31  0.002164579    1.768    0.435
       179 -10.7469     33.8062     43.0957   1.0279539377e+02   6.2787854237e+01    0.5507739    0.2179108 -44.83  0.001403584    1.985    0.496
       180 -11.6243     25.1147     55.8614   1.0932553310e+02   6.0954359955e+01    0.7767119    0.6167645   7.56  0.005559786    1.594    0.373
       181 -10.9087     32.8904     58.7859   1.0740990215e+02   5.9725948308e+01    0.3726296    0.2157599 -27.46 0.0009113311    2.123    0.529
       182 -11.4871     39.8814     55.7126   1.0424711508e+02   5.9721485939e+01    0.5181324    0.3822937  73.52  0.002844251    2.050    0.512
       183  -9.2781    175.2243    246.4016   1.0683617753e+02   2.5835306450e+00    0.1680359   0.08162002  51.63 0.0008639701    1.725    0.420
       184 -11.7953      1.9581     71.3718   1.1979505721e+02   5.9193757671e+01     0.605381    0.1211189 -66.81  0.002519373    3.171    0.685
       185 -11.4982     56.5576     31.1853   9.0307147841e+01   6.2521706413e+01    0.3617395    0.2903474 -14.69 0.0006614149    1.157    0.136
       186 -11.5667     48.2733     30.7351   9.3213769453e+01   6.3606511397e+01    0.5705335    0.2700812  27.04  0.002529472    2.579    0.612
       187  -9.2531    170.3551     77.8359   7.4346227574e+01   3.1865487393e+01    0.2479536    0.1907722 -51.90 0.0007341933    1.387    0.279
       188  -9.4580    199.0599    244.5186   1.0277327082e+02  -1.0522126675e+00    0.1812049   0.08572401  44.75  0.001033468    1.599    0.375
       189 -10.2195     98.2728     62.7321   8.7722482779e+01   5.0363566633e+01    0.4523031    0.3006143 -13.33  0.002064692    2.106    0.525
       190 -10.4186     93.5453     76.6026   9.3263071692e+01   4.8394927271e+01    0.5757765    0.3264839  28.98  0.002250383    2.308    0.567
       191 -11.7150     85.3960     73.2521   9.4678883705e+01   5.0402482069e+01    0.6384356    0.5123992  41.80  0.003177484    1.400    0.286
       192 -10.6297     79.1186     67.4473   9.4886463620e+01   5.2550364279e+01    0.4834714    0.4315116  34.25   0.00299928    1.270    0.212
       193 -11.1587     91.3591     62.5810   8.9711836265e+01   5.1586915542e+01     0.431915     0.337198  46.93  0.001075716    1.453    0.312
       194 -11.3876     89.6383     57.4277   8.8575355159e+01   5.2871406351e+01    0.5465391    0.4722361  56.84  0.002240542    1.396    0.284
       195  -9.7323     33.1254     77.5473   1.1153013593e+02   5.5756601230e+01    0.2198874    0.1768291 -51.18 0.0009712655    1.139    0.122
       196 -12.4634      7.0155     62.3627   1.1670307963e+02   6.0795768805e+01     0.767314    0.4010044 -41.18  0.003933229    1.855    0.461
       197 -10.0801    134.8400     77.3576   8.2398520583e+01   4.0254444024e+01    0.3903588    0.2062286  55.67  0.001091901    2.147    0.534
       198  -9.9658    126.9880     76.9595   8.4265283499e+01   4.2011663292e+01    0.2215453    0.2130906 -31.49 0.0003027233    1.008    0.008
       199 -12.0120    186.5947     70.6460   6.8933509978e+01   2.9038529252e+01    0.9147857    0.6709566 -34.07  0.003141569    1.349    0.259
       200  -9.7915    184.3514     61.4450   6.6614143185e+01   3.1115371015e+01    0.3522234    0.2650608 -24.23   0.00103688    1.375    0.273
       201 -11.7588     40.6495     70.3179   1.0765201701e+02   5.6617314347e+01    0.5597179     0.241784 -57.70  0.002052253    1.826    0.452
       202 -11.3313     32.1547     71.9318   1.1066690181e+02   5.7037635422e+01    0.4691444    0.2552606  27.34  0.002699845    2.319    0.569
       203  -9.6453    151.7959     73.2897   7.7095532668e+01   3.7165281105e+01    0.4235944    0.1596836  42.78   0.00136812    2.971    0.663
       204 -10.0623    128.4409     64.7130   8.0094545528e+01   4.4031963471e+01    0.4694138    0.2696106 -39.29  0.001782846    1.672    0.402
       205 -10.1053    123.3194     72.9479   8.4003200030e+01   4.3557551885e+01    0.2659886    0.2465717  43.70 0.0003796835    1.131    0.116
       206 -11.6996    122.5119     68.4741   8.2829151883e+01   4.4584132434e+01    0.7785378    0.3748432  43.42  0.003126731    2.193    0.544
       207  -9.9666    161.9667     70.6881   7.4012721709e+01   3.5190532481e+01    0.3439513    0.2805262  79.99  0.001010513    1.454    0.312
       208 -10.6173    171.7548     66.8630   7.0760158628e+01   3.3426834240e+01    0.6467133    0.3477047 -44.02  0.002560793    1.921    0.479
       209 -11.0649     60.7172     36.2967   9.0725353852e+01   6.1088462939e+01    0.3797445    0.1923419 -40.95  0.001091544    1.668    0.401
       210 -11.3515    219.6831     66.6752   6.1999244467e+01   2.1254517413e+01    0.7152682    0.3575142  59.73  0.002458569    2.058    0.514
       211  -9.2168    208.0796     68.4279   6.4396394580e+01   2.3919838104e+01    0.3157175    0.1717467  42.03  0.001243841    2.034    0.508
       212  -8.8503    111.6035     67.2722   8.5386410955e+01   4.7006671375e+01    0.1434546    0.1144216 -89.78 0.0006985841    1.738    0.425
       213  -9.7615     21.4266     65.2432   1.1264786080e+02   5.9284203568e+01     0.298981    0.1898019  80.94  0.001284314    2.222    0.550
       214  -9.0280     25.8204     65.2066   1.1122779724e+02   5.8966185580e+01    0.1683629    0.1350561 -32.65 0.0003203866    1.341    0.254
       215  -9.6535    192.6237     65.7224   6.6347574219e+01   2.8303850352e+01    0.2915664    0.2467741 -81.61 0.0007763894    1.356    0.263
       216  -9.4476     53.5045     66.0431   1.0251159051e+02   5.6182133065e+01    0.2246483    0.1676647  56.98  0.001341295    1.759    0.432
       217  -9.9922    106.3618     63.5705   8.5672670127e+01   4.8721343128e+01    0.2757516    0.2541623 -31.52 0.0009395906    1.008    0.008
       218 -10.5387    102.7737     57.0755   8.4572883511e+01   5.0617916278e+01    0.6553783    0.5559486 -72.69  0.002384071    1.490    0.329
       219  -9.3814    198.1411     62.8465   6.4509541544e+01   2.7340975264e+01    0.2506602    0.2058994 -60.94 0.0007824118    1.334    0.250
       220 -10.6634    159.3221     61.8291   7.1836097046e+01   3.7370579811e+01     0.657601    0.4093627  22.44  0.002556552    2.337    0.572
       221 -11.0796    157.6126     54.9446   6.9999178326e+01   3.8934167797e+01    0.5395962    0.4742856 -55.02  0.002228048    1.225    0.184
       222 -11.2562    155.1342     49.6363   6.8792342412e+01   4.0395138161e+01    0.4460988    0.3049397 -12.45 0.0004785455    1.722    0.419
       223 -10.1653    131.1585    240.6218   1.1329499223e+02   1.0359053050e+01    0.2546794    0.1466494  32.60  0.001395724    2.262    0.558
       224 -10.6831    127.4964    241.5175   1.1397535473e+02   1.0796671055e+01    0.2612949    0.1339068 -73.50  0.001444693    2.915    0.657
       225 -11.4738    147.5674     31.6131   6.4226280772e+01   4.4905601410e+01    0.3006167    0.2754522 -32.09  0.001659853    1.127    0.112
       226  -8.5622    221.6875    239.3362   9.8436721868e+01  -4.1395890259e+00    0.1022306   0.08239657  62.01 0.0007045674    1.687    0.407
       227 -10.5804    149.3704    237.4193   1.0998133030e+02   7.9237625462e+00    0.2971713    0.1702516  38.62  0.001474731    1.628    0.386
       228 -10.7406    197.8418    232.9356   1.0140435341e+02   4.8038269737e-01    0.3008984    0.2380205 -88.44  0.001974406    2.051    0.512
       229  -9.6773     15.1353    233.7243   1.3053159523e+02   2.6429182721e+01    0.1696605     0.105017 -86.81  0.001287637    1.373    0.272
       230  -9.3843     23.4173    231.6852   1.2925773602e+02   2.5917203951e+01    0.1665728   0.07753225  55.79 0.0006973244    1.571    0.364
       231 -11.2883    112.8877     49.7647   7.9215301783e+01   4.9962469235e+01    0.5436607    0.4263059  24.17   0.00235869    1.373    0.272
       232 -12.8324    116.2506     41.8304   7.5462291886e+01   5.0590519554e+01    0.9488708     0.737616 -85.72  0.004668873    1.965    0.491
       233  -9.8121    247.4815    231.0902   9.3103283349e+01  -7.3920193507e+00    0.1468794    0.1036952 -16.61 0.0008011428    1.557    0.358
       234 -12.0737    105.6036     33.1552   7.5139594227e+01   5.4128883705e+01    0.6261964    0.3739625   5.86  0.001582576    2.601    0.616
       235 -10.2426    242.2848    231.2881   9.3955075135e+01  -6.5974839056e+00    0.2216386    0.1270945  56.74   0.00118929    2.606    0.616
       236  -9.2823    147.4965     60.6367   7.4119088485e+01   4.0432298767e+01    0.3614603    0.1502175  57.55  0.001240345    2.715    0.632
       237  -9.1346      9.5792    227.5087   1.3104433379e+02   2.7978271708e+01   0.09562731   0.06242553  75.30 0.0001122813    1.028    0.027
       238 -10.6359    133.7753     49.8452   7.3799825242e+01   4.5445314300e+01    0.4253395      0.27872 -57.49  0.001348153    2.008    0.502
       239 -10.7193    136.5724     56.3231   7.5307355690e+01   4.3717806889e+01    0.6921269    0.4648456  10.33  0.002670405    2.143    0.533
       240 -11.2438    140.2632     43.6051   7.0081800568e+01   4.4934101323e+01    0.7306991    0.5077032  23.94  0.001363968    1.688    0.408
       241 -11.3821    146.0619     46.3448   6.9694580219e+01   4.3124972338e+01    0.8553819    0.4081054 -21.99  0.003109996    2.571    0.611
       242  -9.2537      1.9949     56.2401   1.1719579350e+02   6.2316011450e+01    0.1394365     0.113319 -53.28 0.0005375347    1.163    0.140
       243  -9.6815    187.9731     55.0512   6.4000075932e+01   3.1180651813e+01    0.3106158    0.2129418  56.83   0.00134561    1.445    0.308
       244  -9.9679     67.0984     54.7101   9.4817803260e+01   5.6798947927e+01    0.2404933     0.189393 -56.02 0.0006985594    1.287    0.223
       245 -10.3754    244.8033     50.8383   5.4157718629e+01   1.7324408279e+01    0.2779516    0.2369843 -49.52 0.0009378392    1.120    0.107
       246 -11.0429    240.2614     50.3718   5.4615532944e+01   1.8491736634e+01    0.4687437    0.3746166 -12.82    0.0019505    1.358    0.264
       247  -8.8125    172.8554     54.3666   6.6653395939e+01   3.5188095652e+01    0.2103142     0.136236  46.25 0.0001529317    1.546    0.353
       248  -9.7646    210.9841     52.8661   5.9473534958e+01   2.5529005010e+01    0.2806635    0.2058034  54.26  0.001166323    1.367    0.268
       249 -11.1174    202.1727     47.3556   5.9260555607e+01   2.8613112252e+01    0.6753023    0.4231798 -32.75  0.003010041    1.566    0.361
       250  -9.0196     54.9151     51.1628   9.7784842284e+01   5.9030766290e+01    0.1633805    0.1267671 -18.62 0.0006690862    1.365    0.268
       251 -10.8562    174.1333     48.2246   6.4453852018e+01   3.5802446299e+01    0.5380543    0.4344485 -87.30  0.002034177    1.470    0.320
       252  -9.9250    176.1938     43.3808   6.2516008201e+01   3.5980857189e+01    0.3269866    0.2849143 -78.78  0.001306645    1.279    0.218
       253  -9.3942    227.6787     49.6532   5.6108352045e+01   2.1718326329e+01    0.1543971    0.1118455  23.68 0.0007049459    1.736    0.424
       254 -12.3161    106.0006     20.1267   6.9843681242e+01   5.5888789612e+01    0.3065243    0.2365699 -19.63 0.0003540195    1.224    0.183
       255  -9.7608     90.9426     48.0217   8.4984906002e+01   5.4393051431e+01    0.3075925    0.1999123 -46.47  0.001522654    1.521    0.343
       256 -10.3237     13.7187     46.4330   1.1103383166e+02   6.3647045647e+01    0.4494891    0.1480595 -37.25  0.001956304    3.504    0.715
       257  -9.9754     18.1530     41.5340   1.0814781645e+02   6.4325999014e+01    0.3092024    0.1693592 -40.04  0.001902547    1.553    0.356
       258  -9.6074      2.3424     48.7151   1.1558817337e+02   6.3822505621e+01    0.1943405    0.1918336  43.52  0.001687603    1.382    0.276
       259  -9.9182      4.3365     39.6573   1.1283387337e+02   6.5520508177e+01    0.1645555    0.1064123  78.41 0.0009969827    2.463    0.594
       260  -9.5634      3.1574     44.5946   1.1441155539e+02   6.4605567435e+01    0.1846235     0.126228  -9.89 0.0007285405    1.850    0.460
       261  -9.1859    209.2802     47.3636   5.8147856216e+01   2.6758652347e+01    0.2054232    0.1435646  74.99 0.0007911689    1.560    0.359
       262  -9.8494    194.6887     46.5020   6.0230840899e+01   3.0694855771e+01    0.5508349    0.2866658  88.36  0.001698129    3.854    0.741
       263 -10.3500    162.6941     44.0159   6.5340682053e+01   3.9358795411e+01    0.2827751    0.2767055 -14.15 0.0009659951    1.030    0.030
       264 -10.3543    233.9546     45.4071   5.4107666537e+01   2.0726041287e+01     0.360862    0.2541185  77.91  0.001322567    1.555    0.357
       265 -10.3977    145.6120     52.2448   7.1793995012e+01   4.2290439459e+01    0.3550013    0.2904731   9.84   0.00131444    1.358    0.263
       266 -11.5207    156.0431     41.8700   6.5992873107e+01   4.1351092964e+01    0.4285782    0.4052314  -0.01 0.0009935942    1.048    0.046
       267 -10.8783    153.2580     36.2133   6.4639765208e+01   4.2860235417e+01    0.3150407     0.302045 -78.47 0.0005757808    1.142    0.124
       268  -9.4371    101.4851     44.5004   8.0571918399e+01   5.3100669649e+01    0.2183018    0.1835242  82.37 0.0007801108    1.677    0.404
       269 -10.9527     94.7959     41.4134   8.1427902268e+01   5.4862918304e+01    0.6344784    0.2972136  47.20  0.002753122    2.355    0.575
       270 -10.8196    189.0776     41.6605   5.9692201275e+01   3.2853264275e+01    0.5123788    0.2313089 -23.74 0.0008961092    2.451    0.592
       271  -9.4698     86.9028     29.4750   7.9272444957e+01   5.8200822121e+01    0.5459539     0.276825 -15.05  0.002120677    3.056    0.673
       272 -10.8315     80.7537     39.9584   8.5282613118e+01   5.7513466330e+01    0.5933737    0.4036969  45.38  0.003240722    1.709    0.415
       273 -10.8578     77.6041     34.3184   8.4182892532e+01   5.8974707230e+01    0.3788978    0.2665438  43.46 0.0009349047    1.636    0.389
       274  -9.9804     81.3860     31.1534   8.1706031009e+01   5.8877517626e+01     0.368818    0.2149803 -46.75  0.001824083    1.890    0.471
       275 -10.4113    231.6151     39.2669   5.2746527719e+01   2.2130726263e+01    0.3150473    0.2399634 -41.46 0.0008420577    1.250    0.200
       276 -12.4495     49.8559     60.3095   1.0215510973e+02   5.7768513957e+01    0.5460009    0.4313802  65.08  0.001317538    1.727    0.421
       277  -9.2880    217.8363     38.8537   5.4457007192e+01   2.5703662068e+01    0.2119989    0.1662467 -57.79 0.0006912879    1.317    0.240
       278 -10.0222    182.2618     32.3002   5.7899494635e+01   3.5910954158e+01    0.3770525    0.2072825  41.82 0.0009081897    1.962    0.490
       279 -11.4217    176.1900     36.2676   6.0225759675e+01   3.6977104651e+01    0.6869736    0.4935411 -69.33  0.002263134    1.746    0.427
       280 -10.6842    176.7422     29.8502   5.8046706170e+01   3.7678330444e+01    0.5036888    0.2824926  40.72  0.001366606    1.924    0.480
       281 -11.6587    183.1059     25.1281   5.5473618891e+01   3.6590943839e+01     0.691228    0.3660443  50.27  0.002911839    1.818    0.450
       282  -9.6871    234.1160    222.9255   9.3954638129e+01  -4.4192191402e+00    0.1902473    0.1149658  20.72  0.001122739    1.659    0.397
       283  -9.4732    133.3530     37.2045   6.9438984413e+01   4.7517803901e+01    0.4124274    0.2764371 -76.79  0.001685736    2.646    0.622
       284  -9.8126    206.8395     37.0421   5.5498614823e+01   2.8808511208e+01    0.2520471    0.2174866  72.83 0.0006789546    1.159    0.137
       285 -10.7126    240.4619     32.6995   4.9921886047e+01   2.0767648967e+01    0.5894539    0.4090522 -47.58  0.003000853    1.374    0.272
       286 -10.3293      4.7441     35.7916   1.1171776220e+02   6.6252213139e+01    0.3301406    0.2290061   9.93  0.002300737    1.856    0.461
       287  -9.3040      7.1870     30.6068   1.0936106043e+02   6.7113105043e+01    0.4015938    0.2173102 -16.44  0.001809189    2.312    0.568
       288  -9.2925      9.6420    217.7898   1.3060057485e+02   2.9586367576e+01    0.1350013   0.06383107  86.22 0.0005986922    1.631    0.387
       289 -10.2522    165.3239    212.4971   1.0409128163e+02   8.7967047507e+00    0.2586153    0.1628555  66.14  0.001407199    1.916    0.478
       290 -11.0138     31.2231     28.3043   9.8953587353e+01   6.5790477237e+01    0.3727004    0.1811123 -43.69  0.001188658    1.576    0.365
       291  -9.4389    152.7957    207.8186   1.0566987769e+02   1.1703029217e+01    0.1706399    0.1289014  66.09  0.001062752    1.310    0.236
       292 -10.4602      9.6043     21.7812   1.0566444953e+02   6.8608692859e+01    0.2564683    0.1500863 -53.59 0.0007582695    1.338    0.253
       293  -8.9276     61.1763    207.1862   1.2177182663e+02   2.5791969311e+01    0.1552934   0.09554271  69.19 0.0004888891    1.313    0.239
       294 -11.0792      4.9410    203.1497   1.3061674471e+02   3.2545550816e+01    0.4342134    0.1000838 -66.54   0.00216827    3.830    0.739
       295  -9.7221    248.6092     33.0756   4.9107634712e+01   1.8731629438e+01    0.3037962    0.1905101 -45.58  0.001491115    1.489    0.328
       296 -10.2983     68.5808     32.7764   8.6640790839e+01   6.0606499691e+01    0.3917281    0.2795469  27.89  0.002311203    1.529    0.346
       297 -10.0126    238.6908    203.8662   9.0030677314e+01  -3.0551426854e+00    0.1951267    0.1366412   4.75   0.00118882    1.482    0.325
       298 -10.7710    189.3754     28.8670   5.5665199598e+01   3.4471228550e+01    0.6308531    0.3411795 -22.78  0.002629391    1.976    0.494
       299  -9.3657     36.0860     31.3960   9.8127123606e+01   6.4777169778e+01    0.1976425    0.1495515 -84.93  0.001167297    2.337    0.572
       300  -9.0433     21.7092     32.1358   1.0402585605e+02   6.5873012653e+01    0.1587355   0.07327958 -47.73  0.000251474    1.587    0.370
       301  -9.6161    221.2642     29.4766   5.1359094021e+01   2.6023303617e+01    0.2555817    0.1965021 -31.02 0.0005638734    1.293    0.226
       302  -9.2624    211.0810     29.8658   5.2804664634e+01   2.8621255540e+01    0.2634833    0.1816056  80.32 0.0009292228    1.549    0.355
       303  -9.3815    216.5964     32.2490   5.2747894459e+01   2.6882761838e+01    0.1943375    0.1421962 -11.23 0.0003450806    1.568    0.362
       304 -11.3857     98.5345     27.2453   7.4844533508e+01   5.6395380414e+01     0.381931     0.261072 -42.21 0.0005136794    1.572    0.364
       305 -10.0628    230.4652     27.3453   4.9650860764e+01   2.3933551437e+01    0.3910699    0.2074433 -34.29  0.001291029    1.769    0.435
       306 -10.0574    250.5406     26.1940   4.7150285695e+01   1.9113735388e+01     0.348641    0.1270559 -28.02 0.0007895367    2.604    0.616
       307  -8.7180     41.6154     27.1506   9.4421477645e+01   6.4971820245e+01    0.1541007   0.08850368 -35.81  0.000317143    1.426    0.299
       308  -9.9555    205.5134     17.3390   4.9881774507e+01   3.1575768698e+01    0.2908495    0.1925403 -88.28  0.001349885    1.695    0.410
       309 -10.6497    214.3523     23.6449   5.0584325734e+01   2.8526991434e+01    0.4557554    0.3388625 -11.38  0.001865636    1.535    0.348
       310 -10.5310    211.3178     18.7769   4.9568344339e+01   2.9888916534e+01     0.400512    0.2215322  57.83 0.0002494779    1.726    0.421
       311  -9.4456    169.5814     23.8266   5.7295893050e+01   4.0301101466e+01    0.2675808    0.1890246  50.10  0.001116681    1.350    0.259
       312 -10.5350    245.4711    201.0106   8.8408755159e+01  -3.8850484879e+00    0.1921527    0.1404016  32.67 0.0006223246    1.146    0.128
       313  -8.5027    207.3220    201.3297   9.4946738095e+01   2.8238270851e+00     0.129795   0.08757728  18.33 0.0007049135    1.694    0.410
       314  -9.9036     81.4080     19.2056   7.6770570638e+01   6.0671309104e+01    0.3536014    0.1763064  38.55 0.0009228007    2.078    0.519
       315 -10.0390    233.7863    197.3277   8.9698784409e+01  -1.4210900715e+00    0.3035992    0.2274247   0.68  0.001328152    1.368    0.269
       316 -10.4491     47.1626     19.2301   8.9080400256e+01   6.5671428654e+01    0.2967871    0.2213508 -21.30   0.00131781    1.116    0.104
       317 -12.2305      4.8456    184.6462   1.2967690974e+02   3.5900482860e+01    0.5831678    0.3382374  79.25  0.004052262    1.252    0.201
       318 -10.2352     38.6994     21.8740   9.3533550054e+01   6.6184733763e+01    0.2772517    0.1515149 -33.74   0.00118491    1.523    0.344
       319  -9.8454    169.7129    191.5992   1.0014103434e+02   1.1223357676e+01    0.3265486    0.1730386  38.27  0.001091462    1.820    0.450
       320  -9.6750    239.7092    184.9184   8.6417696999e+01  -9.3763345571e-01    0.1754777    0.1493415  10.67 0.0006293172    1.064    0.060
       321 -10.1898    242.8256     21.9251   4.6852287890e+01   2.1498493675e+01    0.4131195    0.1768519  61.14  0.001720906    2.268    0.559
       322  -9.4036    223.2132     22.3789   4.9143915109e+01   2.6382243014e+01    0.2542489    0.1963052  86.82 0.0007657246    1.318    0.241
       323  -9.1743    221.1060     19.1208   4.8487195154e+01   2.7305247558e+01    0.2064654    0.1928015 -64.50  0.001193675    1.028    0.027
       324 -10.1720    212.7117    181.2970   9.0437549861e+01   4.5937005096e+00    0.3142974    0.1852815  15.31  0.001391501    2.533    0.605
       325  -9.8284    250.2660    179.6056   8.3634356398e+01  -2.1721929369e+00    0.3214687    0.1082198 -25.56  0.001204277    3.650    0.726
       326  -9.4462     28.0320    176.1673   1.2510217022e+02   3.5363469237e+01    0.1971604     0.124992 -85.09   0.00127432    1.234    0.190
       327  -9.7718    100.9863    175.9929   1.1111398581e+02   2.6069539146e+01    0.1769092    0.1471324  74.85  0.001144269    1.016    0.016
       328  -8.8409    230.4609    175.4767   8.6185873006e+01   2.0159398384e+00    0.1327994    0.1135869  20.87 6.246799e-05    1.008    0.008
       329  -9.2477     57.1964    174.8425   1.1954954489e+02   3.2398416314e+01    0.1396348    0.1236654 -81.90 0.0003803767    1.304    0.233
       330  -9.9014    247.5958    173.9561   8.2967576534e+01  -9.7908772499e-01    0.4591897    0.1372315  35.16  0.001474666    4.341    0.770
       331  -9.9567     38.9351    173.3629   1.2286745304e+02   3.4784531830e+01     0.250425    0.1607227  57.46  0.001703781    1.402    0.287
       332 -10.3289     35.8544    170.0961   1.2316249581e+02   3.5759596160e+01    0.2934944    0.1518918  79.27  0.001555033    1.823    0.451
       333  -9.8451     51.6991    172.9270   1.2041184680e+02   3.3437326081e+01    0.2162694    0.1268774  88.39  0.001312018    1.539    0.350
       334  -8.4790    170.6417    172.2778   9.6657561166e+01   1.4257713424e+01    0.1373778    0.1018861  73.43 0.0004020584    1.660    0.397
       335 -11.8939      9.7398    166.5789   1.2772558249e+02   3.8924529346e+01     0.554944    0.3011153 -75.34  0.003052457    1.468    0.319
       336  -9.3131    115.5427     17.3268   6.6208513217e+01   5.4215803652e+01    0.2502044    0.1469528  34.57  0.001173874    1.738    0.424
       337  -8.5119     55.2863     17.3246   8.5127258471e+01   6.4942690217e+01    0.1251962   0.08100449 -11.40 0.0007006921    1.604    0.377
       338  -9.7888    219.7263     12.6330   4.6841541813e+01   2.8389713086e+01    0.3870281    0.1529173  63.78  0.001518411    2.315    0.568
       339 -10.8309     13.9594    158.0593   1.2633221159e+02   4.0249868714e+01    0.3737243    0.1524638 -80.69  0.002113249    1.957    0.489
       340  -8.9708    197.8344    167.8709   9.0602857937e+01   9.5544618586e+00    0.1773985    0.1630445  83.67 0.0007161929    1.307    0.235
       341  -9.8012     40.6528    164.3217   1.2171810961e+02   3.6411431313e+01    0.3443747   0.08878086 -67.81  0.001490656    3.129    0.680
       342 -10.1970     18.8218    165.2526   1.2596216084e+02   3.8387204320e+01     0.226189    0.1972059  59.62   0.00167179    1.409    0.291
       343  -9.9284    188.9270    164.0860   9.1556528149e+01   1.1978749619e+01    0.3025479     0.205391 -26.04  0.001024896    1.766    0.434
       344  -9.5768    204.9584    163.0052   8.8298621851e+01   8.8809133392e+00    0.2486961    0.1884057  32.47 0.0006020775    1.251    0.201
       345  -9.3706    208.4482    160.5058   8.7139416694e+01   8.5609812996e+00    0.2231732    0.1807894 -15.84 0.0009576391    1.323    0.244
       346  -8.7066    116.4409     10.2217   6.3097378095e+01   5.4840213272e+01    0.1480288   0.08612538  33.79 0.0003116438    1.729    0.422
       347 -10.3198     28.1316    162.2921   1.2396177738e+02   3.8103200410e+01    0.3863291    0.1357152 -68.96  0.002015239    2.281    0.562
       348  -9.5256     79.7001    160.5413   1.1338484469e+02   3.2358818980e+01    0.2273702    0.1366252  89.07  0.001199364    1.823    0.451
       349  -9.5922    215.3595    158.1308   8.5373730453e+01   7.5147500165e+00    0.2890515    0.1901092  -2.38  0.001158884    2.072    0.517
       350 -10.4800    104.9493    154.7551   1.0717705996e+02   2.9717291736e+01    0.4257116    0.3060098 -63.68  0.002420789    1.355    0.262
       351  -9.9646      8.9094    156.3367   1.2716332890e+02   4.1016716857e+01    0.2130741    0.1185652 -72.31  0.001448946    1.460    0.315
       352 -10.9687     10.8534    127.0581   1.2431904194e+02   4.6870119434e+01    0.4766886     0.148854 -60.19  0.001567474    2.560    0.609
       353 -12.1587     22.5693    149.4225   1.2393028081e+02   4.1247639866e+01    0.5370411    0.3203695 -51.20  0.003391671    2.078    0.519
       354 -10.0217     14.3183    133.3957   1.2417080850e+02   4.5275528448e+01    0.2745411    0.1387263  78.72  0.001584321    1.957    0.489
       355 -10.6525     15.3806    147.7680   1.2523202294e+02   4.2213109214e+01     0.298182    0.1859162  57.08  0.001318236    1.547    0.354
       356 -11.4981     12.6102    139.6284   1.2509758123e+02   4.4114891691e+01    0.6398996    0.2847557  77.79  0.003410444    2.380    0.580
       357 -10.8252     31.4316    152.8440   1.2245675024e+02   3.9709079241e+01     0.467583    0.2376697 -83.80  0.002728825    1.684    0.406
       358 -10.0546      3.3480    153.0238   1.2798283421e+02   4.2118048387e+01    0.2696204    0.1337283  75.91  0.001703935    1.749    0.428
       359 -11.1429      3.7064    147.2706   1.2750235409e+02   4.3244006473e+01    0.3591869    0.2695091  51.92  0.002027019    1.478    0.324
       360 -11.5605      3.6913    142.2729   1.2713018029e+02   4.4256796745e+01    0.3155319    0.2955605  43.81  0.002463804    1.537    0.349
       361 -11.9567      3.9907    136.9806   1.2665305804e+02   4.5315427007e+01    0.2273856    0.1460463 -74.30            0    1.228    0.186
       362 -10.2441     70.7264    151.5945   1.1409234101e+02   3.5459081136e+01    0.3110116    0.1778122  52.14  0.001055524    1.714    0.417
       363  -9.4994     42.9663    148.4828   1.1962692689e+02   3.9437788620e+01    0.2711574    0.1828751  58.24  0.001776117    1.436    0.304
       364  -9.9193     48.2026    151.8142   1.1889950104e+02   3.8164605327e+01    0.2396372    0.2207436  60.02 0.0004947406    1.346    0.257
       365 -10.5109     47.9731    148.0039   1.1851313415e+02   3.8992584285e+01    0.4114136    0.2053609 -56.75  0.002249703    1.973    0.493
       366  -9.9523     46.3349    144.6977   1.1847812877e+02   3.9873921995e+01    0.2323582     0.190138 -63.39 0.0008365355    1.317    0.241
