#   1 NUMBER                 Running object number                                     
#   2 MAG_AUTO               Kron-like elliptical aperture magnitude                    [mag]
#   3 X_IMAGE                Object position along x                                    [pixel]
#   4 Y_IMAGE                Object position along y                                    [pixel]
#   5 X_WORLD                Barycenter position along world x axis                     [deg]
#   6 Y_WORLD                Barycenter position along world y axis                     [deg]
#   7 A_WORLD                Profile RMS along major axis (world units)                 [deg]
#   8 B_WORLD                Profile RMS along minor axis (world units)                 [deg]
#   9 THETA_WORLD            Position angle (CCW/world-x)                               [deg]
#  10 FWHM_WORLD             FWHM assuming a gaussian core                              [deg]
#  11 ELONGATION             A_IMAGE/B_IMAGE                                           
#  12 ELLIPTICITY            1 - B_IMAGE/A_IMAGE                                       
         1 -13.2623    212.6444      2.9162   5.9424130601e+01   3.2021767198e+01      1.33384    0.5876691  62.67  0.003466811    2.011    0.503
         2 -14.1225    189.2196     26.9029   6.7872583009e+01   3.4985205508e+01     1.596396     1.347104 -15.13  0.005869272    1.509    0.337
         3 -13.8632    196.9457     21.0577   6.5392941000e+01   3.3786755510e+01     1.316772    0.8940192 -61.67  0.005016456    1.480    0.324
         4 -12.9692    202.9259     13.0775   6.2758500734e+01   3.3243490925e+01    0.6349242    0.5426447  55.40  0.001258926    1.322    0.244
         5 -11.1137     32.6159      4.6584   9.9030913933e+01   6.9145438284e+01    0.3561122    0.0894898 -32.34  0.001534452    3.731    0.732
         6 -11.8555     76.1158    184.2827   1.3177760514e+02   2.7385551987e+01    0.2954404    0.2379227 -56.38 0.0006360087    1.362    0.266
         7 -12.0862    247.8226    248.0896   1.0699415942e+02  -1.3964038476e+01    0.4961713    0.3461396   8.54  0.003260733    1.283    0.221
         8 -11.6687    176.6075    249.5165   1.2030133207e+02  -2.8712331598e+00    0.5072392    0.1822422  35.46  0.002026721    2.792    0.642
         9 -12.1264    185.4319    247.6964   1.1835602858e+02  -4.0907466182e+00    0.6300142    0.2752859  28.27  0.002515828    3.091    0.676
        10 -11.1988    148.8669    249.1367   1.2553669120e+02   1.9410547338e+00    0.2895152    0.2115013  62.73  0.001311818    1.388    0.280
        11 -12.3754    139.9684    248.9879   1.2721462638e+02   3.4871468841e+00    0.9656342    0.3320645 -57.51  0.003877807    3.809    0.737
        12 -10.8520    144.4046    249.1803   1.2639389419e+02   2.6974862353e+00    0.2857818    0.2092222  66.89  0.001701317    1.439    0.305
        13 -12.3561    125.9495    247.0433   1.2964092946e+02   6.1992673205e+00    0.4686037    0.3419056 -73.78  0.002846527    1.573    0.364
        14 -12.4983     82.1727    247.0874   1.3781142530e+02   1.3182247049e+01    0.5135507    0.4381118 -66.11  0.003568578    1.478    0.323
        15 -13.2205     96.2056    248.0809   1.3534206698e+02   1.0849632956e+01    0.8908331    0.4782969  41.70  0.004819375    1.714    0.417
        16 -12.6279    107.3655    245.1218   1.3293825975e+02   9.6186061402e+00    0.6064928    0.2984355  52.97  0.002321122    1.734    0.423
        17 -13.1644     57.2399    225.5788   1.4038302218e+02   2.0992825673e+01    0.9169134    0.4734754 -52.71  0.003061666    2.571    0.611
        18 -14.8762     33.6154    247.3832   1.4627057329e+02   1.9700405694e+01     3.091544     1.191842  40.12   0.01642017    2.541    0.606
        19 -14.1260     47.8435    225.8295   1.4215276925e+02   2.2179334197e+01     1.171676    0.4443814 -68.41   0.00344482    2.413    0.586
        20 -15.6955     56.4669    210.5046   1.3907057043e+02   2.4276459554e+01     8.111314     1.173722  46.88   0.01545982    5.134    0.805
        21  -8.5261     63.6512    187.2742   1.3494650738e+02   2.8483757063e+01    0.1388413   0.08614938  69.79 0.0005587681    1.631    0.387
        22 -12.0448    105.1839    172.5874   1.2319302912e+02   2.5387971733e+01     2.282247    0.2316825  45.38  0.004377302    9.547    0.895
        23 -13.2388     57.2693    128.4115   1.2752219955e+02   4.3270980962e+01      2.36061    0.7378665 -70.03  0.005827024    6.685    0.850
        24 -11.4282     84.4704    172.9116   1.2816731209e+02   2.8770010236e+01    0.2727904    0.2321562 -68.55  0.000431417    1.139    0.122
        25 -13.6559     67.5827    144.2488   1.2761012126e+02   3.8135708559e+01     1.352952    0.7341053 -89.95  0.002761804    2.978    0.664
        26  -9.8788     48.2015    173.8088   1.3671386712e+02   3.3609895971e+01    0.1754756    0.1435169 -56.01  0.001059962    1.371    0.271
        27 -13.4082     72.2442    169.9986   1.3061740688e+02   3.1307615797e+01    0.5027266    0.2859036 -44.96  0.001601907    2.167    0.538
        28 -10.6835    138.2257    171.6228   1.1521466179e+02   1.9355395439e+01    0.2794671    0.2022758  35.82  0.001317587    1.479    0.324
        29 -10.2111     37.9655    162.1772   1.3762374612e+02   3.7507696558e+01    0.1900503    0.1410955 -30.05  0.001084403    1.992    0.498
        30  -9.5353    163.5440    156.5367   1.0623144171e+02   1.7426358303e+01    0.2804468    0.1457763 -57.51  0.001029792    2.299    0.565
        31 -10.3198    102.7872    148.2351   1.1922934189e+02   3.1599342465e+01    0.3317344    0.2679554 -49.58 0.0009468833    1.253    0.202
        32  -9.6848    105.4885    144.0549   1.1767873014e+02   3.2112487472e+01    0.3517823    0.2261569 -31.69  0.001122304    2.165    0.538
        33 -12.2253     91.4868    147.9193   1.2207367636e+02   3.3617410394e+01    0.2877013    0.2594749 -45.26 0.0005320779    1.211    0.174
        34 -12.1741     45.7873    146.8040   1.3363081588e+02   4.0264613084e+01    0.5327197    0.2954863 -83.26   0.00254723    1.943    0.485
        35 -12.5730     89.9988    165.0630   1.2555442635e+02   2.9749731479e+01     1.157778    0.5900288  50.04  0.001153728    2.021    0.505
        36 -11.2960     70.0438    135.0762   1.2528166603e+02   3.9992756258e+01    0.4834008    0.1860124  48.97  0.001768133    3.206    0.688
        37 -10.0040    133.8898    145.6052   1.1082890914e+02   2.6211612415e+01    0.6322999   0.09944326 -51.40  0.001256628    7.411    0.865
        38  -9.9851    112.5708    134.7923   1.1382745110e+02   3.2991414720e+01    0.3112728    0.2432093 -16.02  0.001085129    1.764    0.433
        39 -10.7377    100.0990    131.7164   1.1645123923e+02   3.6013966026e+01     0.294576      0.23914 -21.59 0.0006016363    1.552    0.356
        40 -12.0914     44.6634    129.9040   1.3124496524e+02   4.4389330603e+01    0.2826357    0.2460913  69.90  0.001750022    1.236    0.191
        41  -9.6857    108.8788    122.4529   1.1194494974e+02   3.6574629142e+01    0.2088459    0.1947457 -56.20 0.0003793704    1.032    0.031
        42 -14.4327     11.7481    206.8178   1.4727432759e+02   3.0256843217e+01     1.043587    0.7744756  45.63  0.003248986    1.540    0.351
        43  -9.6257    160.6256    127.8165   1.0021536175e+02   2.4382706068e+01    0.2367016    0.1455327 -54.57 0.0009567729    1.729    0.422
        44 -11.5454    100.0263    238.2103   1.3355248691e+02   1.2103800775e+01    0.3022816    0.2012995  60.67 0.0005013704    1.283    0.221
        45  -9.5571    205.4881    110.4809   8.6516661213e+01   1.7455622369e+01    0.2725243    0.1375815  42.83  0.000995788    2.285    0.562
        46 -11.1088    168.2537    113.1029   9.4774053237e+01   2.5746655842e+01    0.3579219    0.3014999 -74.61 0.0006786889    1.295    0.228
        47  -9.8098     16.7187     92.1291   1.3265002288e+02   5.5445404613e+01    0.1755356    0.1544456  39.89 0.0006159358    1.423    0.297
        48 -10.9288    104.0000    237.0122   1.3265128544e+02   1.1692184139e+01    0.2439048     0.177492 -65.07  0.001173238    1.506    0.336
        49 -16.4599      6.6226    238.9947   1.5013808573e+02   2.4318448991e+01     16.23872     1.064217 -74.43   0.04366675    9.181    0.891
        50 -10.3106    225.9879    200.7254   1.0244593470e+02  -3.6767926024e+00    0.2633906    0.1897936 -49.90 0.0007254866    1.656    0.396
        51 -10.7133    192.7450    194.2677   1.0771936734e+02   3.6587443464e+00    0.8173964    0.4084698 -65.11  0.002203508    6.370    0.843
        52 -11.8855     71.6765    190.8259   1.3363859706e+02   2.6533557240e+01    0.4200602    0.2572838 -45.47  0.001712523    2.159    0.537
        53 -11.9306     12.2624     23.1780   1.1579752775e+02   6.8686308282e+01     0.239119    0.2058389 -30.17  0.001419013    1.341    0.254
