#   1 NUMBER                 Running object number                                     
#   2 MAG_AUTO               Kron-like elliptical aperture magnitude                    [mag]
#   3 X_IMAGE                Object position along x                                    [pixel]
#   4 Y_IMAGE                Object position along y                                    [pixel]
#   5 X_WORLD                Barycenter position along world x axis                     [deg]
#   6 Y_WORLD                Barycenter position along world y axis                     [deg]
#   7 A_WORLD                Profile RMS along major axis (world units)                 [deg]
#   8 B_WORLD                Profile RMS along minor axis (world units)                 [deg]
#   9 THETA_WORLD            Position angle (CCW/world-x)                               [deg]
#  10 FWHM_WORLD             FWHM assuming a gaussian core                              [deg]
#  11 ELONGATION             A_IMAGE/B_IMAGE                                           
#  12 ELLIPTICITY            1 - B_IMAGE/A_IMAGE                                       
         1 -12.0797    190.6117     36.7776   5.5160261268e+01   3.2314156678e+01     1.042725    0.8430863 -35.63  0.003601334    1.171    0.146
         2 -12.4221    197.2256     28.6275   5.1855254688e+01   3.1595921272e+01    0.8325553    0.6694619   7.04  0.001384949    1.405    0.288
         3  -8.9620     58.6869      9.6731   7.4782395672e+01   6.8241381942e+01    0.1400712   0.09801202   7.59 0.0005774889    1.667    0.400
         4 -11.4110    219.8052      4.3911   4.2758540664e+01   2.8480112093e+01    0.7082319    0.3567214  51.81  0.003284624    2.233    0.552
         5 -10.8425    215.7991      2.5918   4.2537405116e+01   2.9594782074e+01     0.454313    0.2863216  68.47  0.002048081    1.643    0.391
         6  -9.1202     52.4294      3.2172   7.3592185143e+01   7.0337003765e+01    0.1904508    0.1130911 -39.26 0.0009559435    1.710    0.415
         7  -9.8909    107.7983    203.4166   1.0939997816e+02   2.1001112983e+01    0.1929294    0.1795628  21.30 0.0004972916    1.270    0.213
         8 -10.2664    139.4216    250.0992   1.0837505351e+02   1.0206095956e+01    0.3613641    0.1262341  40.15  0.002004531    2.022    0.505
         9  -8.2598     95.9504    201.0468   1.1153356334e+02   2.3039293851e+01    0.1727666     0.141138  50.35 0.0004461759    1.022    0.021
        10  -9.3204    192.4803    193.4744   9.1929935133e+01   9.5488201123e+00    0.1758039    0.1556921 -62.96  0.001213115    1.773    0.436
        11  -8.8231     80.4294    194.5483   1.1408405547e+02   2.6241956697e+01    0.3329592    0.1523503  45.27  0.001752924    1.751    0.429
        12 -11.7858     66.6696    189.8220   1.1655457504e+02   2.8849338692e+01    0.7241613     0.545685  50.72  0.003776918    1.084    0.078
        13  -8.8257    150.2955    189.6505   9.9184218131e+01   1.6750108915e+01    0.2111129    0.1672132  83.83  0.001084741    1.869    0.465
        14  -8.6562     73.6904    189.7305   1.1504897821e+02   2.7982394087e+01    0.1012572   0.08996737   5.84 0.0006952037    1.543    0.352
        15  -8.2627    109.6711    183.3359   1.0663555104e+02   2.4113684491e+01    0.1287002   0.08402384  64.08 0.0007051983    1.727    0.421
        16  -8.6672     99.2113    180.6625   1.0855451378e+02   2.6140917923e+01    0.1886945    0.1577289  80.06  0.000726108    1.250    0.200
        17  -7.7159     97.9447    193.0553   1.1026986741e+02   2.4123803556e+01    0.2216689    0.1420519 -11.04 0.0009607847    4.148    0.759
        18 -10.3381     77.6258    176.1539   1.1281286088e+02   3.0012252803e+01    0.2665794    0.2195189 -55.17 0.0008704611    1.459    0.315
        19 -10.9143     81.6760    170.8530   1.1129413472e+02   3.0487239252e+01    0.4194529    0.2811504 -45.00  0.002400446    1.940    0.485
        20  -9.5581    114.6210    172.3946   1.0408337730e+02   2.5303703302e+01    0.3556141    0.1239309 -55.67  0.001456882    3.313    0.698
        21  -9.7121    104.3794    171.8666   1.0627870339e+02   2.6988356639e+01    0.3187594    0.1947622  56.48  0.001712435    1.645    0.392
        22  -8.1336     73.2769    172.6608   1.1342064995e+02   3.1267796622e+01    0.1266997    0.0791871  66.38 0.0003957323    1.616    0.381
        23  -8.7443    163.7936    169.7826   9.3357720729e+01   1.7552024921e+01    0.2149781      0.17274 -53.17 0.0005610892    1.552    0.356
        24  -8.2772    205.0201    167.5012   8.5285651580e+01   1.0835925543e+01    0.1858619   0.08897975  24.72 0.0008102492    2.581    0.613
        25  -8.8219    192.9778    165.0120   8.6962796639e+01   1.3212197106e+01    0.2328078    0.1727367 -26.28 0.0009416318    1.408    0.290
        26 -10.3829     95.0162    154.3919   1.0597675089e+02   3.1813901580e+01    0.5711596    0.3659172 -31.15  0.002753228    2.493    0.599
        27  -9.4600     74.3066    164.9545   1.1231896576e+02   3.2661004126e+01    0.2540939    0.1885511  70.82 0.0006523608    1.288    0.224
        28  -8.1880    175.2953    149.3054   8.7290252310e+01   1.8688672302e+01    0.1341563   0.09730326   9.91 0.0003594646    1.583    0.368
        29  -9.5582    133.9811    145.5699   9.5311600953e+01   2.6974139937e+01    0.5448862    0.1693364 -53.78   0.00174837    4.386    0.772
        30  -9.6870    106.8753    139.9827   1.0072872145e+02   3.2837073724e+01    0.4350008    0.2602362 -33.94  0.001956754    2.406    0.584
        31 -10.8035     94.9265    139.7794   1.0369884870e+02   3.4843382719e+01    0.2673855    0.2624848 -23.66 0.0004563119    1.187    0.158
        32  -8.4288     83.9902    142.6627   1.0695706294e+02   3.5919446840e+01    0.2075127    0.1142623  12.98 0.0007047727    4.501    0.778
        33  -9.0167     74.4900    136.4833   1.0850475255e+02   3.8639501186e+01    0.1305402    0.1192702  73.85 0.0008101419    1.034    0.032
        34  -8.2222     94.0631    250.4989   1.1615428673e+02   1.5869489555e+01    0.1580499   0.07387964  38.49 0.0009702523    1.541    0.351
        35  -9.5894    105.9623    130.9163   9.9287681490e+01   3.4871731440e+01    0.3050649    0.2841379 -74.84  0.001126535    1.096    0.088
        36  -9.6839    114.5159    130.3477   9.7009312146e+01   3.3480281590e+01    0.2892008    0.2462008 -26.92 0.0007999962    1.386    0.279
        37  -9.3230    101.8463    126.5365   9.9510678063e+01   3.6507322745e+01    0.2651613    0.2140682 -17.86  0.001039378    1.660    0.397
        38  -9.1050    119.7872    124.0211   9.4387194803e+01   3.3805914385e+01    0.2262267    0.1641453 -20.33  0.001075805    1.920    0.479
        39  -8.5531    109.8366    119.1035   9.5889186452e+01   3.6669172255e+01    0.2070559    0.1835427  82.89 0.0002828244    1.185    0.156
        40  -8.3755    167.9426    112.4470   8.0649168328e+01   2.6228492358e+01    0.2837994    0.1753165 -69.57  0.001026507    3.428    0.708
        41  -9.0990    119.9778    111.2275   9.1474512842e+01   3.6393400126e+01    0.2721068    0.1889854 -63.58 0.0009666446    1.675    0.403
        42  -8.4287    205.3769    110.1269   7.3088515843e+01   1.8736368707e+01    0.2408927    0.1762851  33.82  0.000855152    1.367    0.268
        43  -7.9808    134.6800    105.0395   8.6268796439e+01   3.4654923876e+01    0.2450961    0.1147269 -61.25 0.0007043701    4.438    0.775
        44  -8.9188    149.4881    220.5251   1.0343361963e+02   1.2516966610e+01     0.113917   0.08746086  33.87 0.0001838855    1.024    0.023
        45  -9.3970    173.2202    217.6025   9.8829465629e+01   9.4629054902e+00    0.1716805   0.08427393  31.34 0.0009613297    1.727    0.421
        46  -9.7020    161.7097     62.9995   6.8116356074e+01   3.5961521673e+01    0.3217308     0.265038 -61.64 0.0004986573    1.356    0.262
        47  -9.0880    162.8336     55.8794   6.5632351604e+01   3.6778395002e+01    0.2293815    0.2022017  20.84 0.0004436823    1.210    0.174
        48 -11.9309    178.1100     47.5880   6.0343073560e+01   3.4096908565e+01     1.171674    0.6787047  36.38  0.004211443    2.079    0.519
        49 -19.4011     11.8943    136.3681   1.2533557948e+02   4.5530240051e+01     17.19315     2.717864 -80.26   0.05105714    6.210    0.839
        50  -8.9807    101.0356    249.5144   1.1488284217e+02   1.5149559866e+01    0.1600883   0.07451886  38.45 0.0004687137    1.547    0.353
        51  -8.8980    130.6306    213.0150   1.0604045217e+02   1.6266491151e+01    0.1473786    0.1332835  45.12 0.0005522702    1.157    0.136
        52 -10.7172    215.0102     15.4639   4.6224390418e+01   2.8594354896e+01    0.2973717    0.2397981  89.23  0.001708309    1.295    0.228
        53  -9.4751    106.2307    210.7940   1.1049149590e+02   2.0045433117e+01    0.3257641    0.1309275  38.38  0.001674537    1.967    0.492
        54  -9.1386    142.4989    240.4951   1.0689467955e+02   1.0952169783e+01    0.1081244   0.07901821  36.85 -1.68547e-06    1.003    0.003
        55  -8.4620     72.1121    230.5234   1.1863721530e+02   2.1349466464e+01    0.1570357   0.07754079  40.85 0.0004387223    1.497    0.332
        56  -9.2666    172.4064    221.7540   9.9514469911e+01   9.0789028407e+00    0.1355881    0.0995272 -15.59 0.0009490188    1.640    0.390
