#   1 NUMBER                 Running object number                                     
#   2 MAG_AUTO               Kron-like elliptical aperture magnitude                    [mag]
#   3 X_IMAGE                Object position along x                                    [pixel]
#   4 Y_IMAGE                Object position along y                                    [pixel]
#   5 X_WORLD                Barycenter position along world x axis                     [deg]
#   6 Y_WORLD                Barycenter position along world y axis                     [deg]
#   7 A_WORLD                Profile RMS along major axis (world units)                 [deg]
#   8 B_WORLD                Profile RMS along minor axis (world units)                 [deg]
#   9 THETA_WORLD            Position angle (CCW/world-x)                               [deg]
#  10 FWHM_WORLD             FWHM assuming a gaussian core                              [deg]
#  11 ELONGATION             A_IMAGE/B_IMAGE                                           
#  12 ELLIPTICITY            1 - B_IMAGE/A_IMAGE                                       
         1 -11.2636    237.3839     26.2355   3.5485505832e+01   2.3936581418e+01    0.4069931    0.2730211 -40.85  0.001090068    1.394    0.283
         2 -11.6457    111.5813     19.6469   5.1377624181e+01   5.4147140654e+01    0.5068314     0.395203  48.20  0.002389918    1.129    0.115
         3 -11.0764    149.8820     18.4745   4.3661608975e+01   4.5159560579e+01     0.297827    0.2753589  66.31 0.0004881111    1.046    0.044
         4 -11.2750    155.4008     14.6555   4.1675567833e+01   4.4202235967e+01    0.8738136    0.3893575 -10.37  0.003301732    3.865    0.741
         5  -9.7521    158.4666      7.4573   3.9146083070e+01   4.4141444811e+01    0.1958723    0.1659276  67.36  0.000468273    1.067    0.063
         6 -10.7388    101.8965     15.9972   5.2302389336e+01   5.6697662976e+01    0.4026779    0.2735698  25.46  0.001231132    1.525    0.344
         7 -10.0775     86.8676     16.6990   5.6594693453e+01   5.9851020704e+01    0.3677897    0.2030675 -41.00  0.001559537    2.242    0.554
         8 -11.0781     56.6669     14.1963   6.5646438282e+01   6.5838866596e+01    0.5528969    0.3217975   6.80  0.002098884    2.018    0.504
         9 -11.1277     39.7289     15.9953   7.3690394791e+01   6.8245439520e+01    0.3073344    0.1730792  30.92  0.000490586    1.661    0.398
        10  -9.8637     22.5799     15.4803   8.1891860377e+01   7.0456622560e+01     0.316829    0.2687442  32.97  0.002245836    1.654    0.395
        11 -10.3167     23.2419      2.5545   7.4939889278e+01   7.2102124371e+01     0.335483    0.1271012  29.47   0.00166557    2.558    0.609
        12 -10.1017     17.9846      4.0093   7.8577303297e+01   7.2534664037e+01    0.3019005    0.2783747  56.94  0.002179251    2.171    0.539
        13  -9.8432      3.9899      6.3430   8.7955896808e+01   7.3551112794e+01    0.3065989    0.2673363  80.35  0.002066564    2.742    0.635
        14  -9.9761      5.6743      2.0752   8.4739011458e+01   7.4018654818e+01    0.2954617    0.1613579   5.70  0.001836743    1.765    0.433
        15 -10.4174     10.4205     14.9663   8.8291802060e+01   7.1714514338e+01    0.3224677    0.2900817   3.07  0.001937938    1.435    0.303
        16 -10.8638    186.5346     13.5573   3.7440240288e+01   3.6811254888e+01    0.3191105    0.2023536  68.60 0.0009338959    1.420    0.296
        17 -11.6678    181.6456     13.1885   3.7891492472e+01   3.8011499356e+01     1.148781    0.3620754  49.24  0.004098977    3.812    0.738
        18  -9.3670    144.1108     14.3465   4.3302783974e+01   4.6972874983e+01     0.202261    0.1781669  21.54 0.0005617738    1.281    0.220
        19 -12.4279    122.2568     11.3190   4.6139096659e+01   5.2480845350e+01    0.5810217    0.2810021  57.25 0.0004651223    1.731    0.422
        20 -11.6671    127.2127      4.8154   4.3004838867e+01   5.1873563150e+01    0.3658668    0.2586835  46.03 0.0002975542    1.299    0.230
        21 -10.3160    216.4582      7.9169   3.3252857100e+01   3.0528512314e+01    0.3082279     0.217247 -46.29  0.001099772    1.339    0.253
        22 -10.8974    210.2875      9.4122   3.4111024518e+01   3.1748541516e+01    0.3834458    0.2780783 -64.57  0.001736657    1.219    0.179
        23 -10.6845    212.5984      5.7905   3.3093706273e+01   3.1604876861e+01    0.3552561    0.2022979 -31.64  0.001415149    1.870    0.465
        24 -10.9438     46.8423      9.7057   6.7465389282e+01   6.7957174635e+01    0.4050409    0.2620465  11.04  0.001904144    1.464    0.317
        25  -8.9994     33.6135     10.5880   7.3903758019e+01   6.9780872892e+01    0.1840894    0.1442592  20.44  0.001267132    1.237    0.192
        26  -9.2747    250.4823      9.4901   3.1091883972e+01   2.3203492822e+01    0.2208919   0.09996236 -35.26 0.0008746349    2.080    0.519
        27 -10.0072     86.4173      9.4969   5.3712540134e+01   6.0653699661e+01    0.3091153    0.2052359  73.17  0.001459526    2.007    0.502
        28  -9.6481     78.4890      7.2886   5.5028286241e+01   6.2482238096e+01    0.3472635    0.2299609  11.45  0.001986083    1.573    0.364
        29  -9.2882    102.1442      8.1355   4.9198144266e+01   5.7375030783e+01    0.2432025      0.14589  38.97 0.0005198115    1.526    0.345
        30 -10.4221    107.3568      5.1146   4.6894574996e+01   5.6457368930e+01    0.3635458    0.2606268 -50.28  0.001390882    1.758    0.431
        31  -9.0086    200.5079      4.5414   3.3839082295e+01   3.4462302204e+01    0.2169371   0.08882229 -42.59  0.001030071    2.242    0.554
        32  -9.1725     65.1391      5.1848   5.8301201662e+01   6.5266231676e+01    0.2067638    0.1533385   0.55  0.001016109    1.287    0.223
        33  -9.6225     65.1711      1.3549   5.6478679596e+01   6.5602534320e+01    0.2295253   0.09563722  48.62   0.00111852    2.015    0.504
        34 -10.8526     38.5252      4.8573   6.8651038154e+01   6.9768723255e+01    0.2557754    0.1622042  35.11 0.0008643084    1.474    0.322
        35  -9.4419     93.0044     10.1627   5.2230568679e+01   5.9196311396e+01    0.1820071     0.164377  72.12 0.0004360379    1.296    0.228
        36  -9.1511    163.9283      3.6477   3.7381160172e+01   4.3165422024e+01    0.2283706    0.1446555 -48.08  0.001257304    1.659    0.397
        37 -10.6777     90.0763      3.2198   5.0128142874e+01   6.0422092106e+01    0.3543213    0.2488519  75.63  0.001363078    1.747    0.427
        38  -9.7876     85.0820      1.2965   5.0598831031e+01   6.1632907588e+01    0.2743886    0.1126158  62.13 0.0005367751    2.449    0.592
        39  -9.2157     51.6775      2.3963   6.1832399330e+01   6.7930268741e+01    0.2149148    0.1050687  49.16 0.0008173629    2.044    0.511
        40  -9.0008     34.3194      1.9589   6.9066422618e+01   7.0697792535e+01    0.1598081    0.1159499  -2.28 0.0003738768    1.139    0.122
        41 -11.9280     15.1570      7.9213   8.2202837314e+01   7.2311143832e+01    0.7078939    0.5136619  43.55  0.002340278    2.305    0.566
        42  -8.6071    195.5358      1.5114   3.3561060781e+01   3.5895520116e+01    0.1241022    0.1035734 -85.21 1.098259e-05    1.009    0.009
        43 -10.1957     24.5027      7.2801   7.6789241090e+01   7.1360656768e+01    0.2807078    0.1720021   2.50  0.001137589    1.547    0.354
        44  -8.5166     42.2093      1.3882   6.5195836853e+01   6.9575455112e+01    0.1401801    0.1006721  40.22 0.0003139093    1.444    0.307
        45 -10.1995     24.9657    116.0818   1.0973351510e+02   4.9288810575e+01     0.305506    0.1754912  32.38  0.001582097    1.980    0.495
        46 -10.2658     11.1330    115.0964   1.1394436403e+02   5.0547862770e+01    0.2640522    0.1926982 -41.70 0.0008834942    1.390    0.281
        47  -8.7324      1.7799    116.0019   1.1693484552e+02   5.0890616949e+01    0.1757072    0.1125152 -59.77 0.0003000089    1.270    0.212
        48 -10.0864      2.1182    111.9993   1.1633932287e+02   5.1834055640e+01    0.2002346    0.1731604  81.14 0.0005654966    1.227    0.185
        49  -9.8069     38.7847    114.8835   1.0508495575e+02   4.8325366431e+01    0.2383991     0.200127  58.37 0.0008765307    1.357    0.263
        50  -9.2983     46.3145    112.9866   1.0226386512e+02   4.7999719115e+01    0.1952427    0.1640494 -61.53 0.0005397231    1.061    0.058
        51  -9.6299     32.0471    113.3186   1.0699160560e+02   4.9355880908e+01    0.1742653    0.1629953 -54.87 0.0002465994    1.104    0.095
        52  -9.1467     50.2500    111.9522   1.0075991878e+02   4.7807754024e+01    0.1845951    0.1091785 -61.20 0.0004230816    1.517    0.341
        53 -11.2190     20.3280    109.4128   1.1015538750e+02   5.1286474832e+01    0.3815863    0.2472804  42.96  0.001235793    1.816    0.449
        54  -8.5474    100.4206    109.5191   8.4156282358e+01   4.0771541382e+01    0.1540632    0.1439464 -32.26 8.062415e-05    1.041    0.040
        55 -10.3293      6.5609    108.4091   1.1446472908e+02   5.2446861848e+01     0.289657    0.2110965  75.98 0.0009198503    1.516    0.340
        56  -9.7631     61.0107    106.8878   9.6076002226e+01   4.7705825591e+01    0.2114405    0.1884148 -45.58 0.0003255392    1.024    0.024
        57 -10.6556     79.8653    103.7363   8.9078438044e+01   4.5693004634e+01    0.3444497    0.2789024  -7.49 0.0008675299    1.426    0.299
        58  -9.7834     34.7055    108.1463   1.0516829506e+02   5.0378178052e+01    0.3896362    0.1444892 -65.73   0.00114182    2.462    0.594
        59  -9.4340      8.1368    103.6035   1.1326070504e+02   5.3507286943e+01    0.2734892    0.1695392 -71.47  0.001546747    1.343    0.256
        60  -9.4068     11.6596    102.1175   1.1185864001e+02   5.3647996891e+01    0.2784765    0.1479258 -54.63  0.001230125    1.501    0.334
        61  -9.8276     19.8458    136.3452   1.1413181386e+02   4.4697981458e+01    0.1692174    0.1499309 -68.85 0.0004049954    1.101    0.091
        62 -10.4268     45.2475    101.8849   1.0029843514e+02   5.0824069707e+01    0.2728158     0.240272  69.15 0.0005122697    1.336    0.251
        63  -8.6956    108.9556    102.7672   7.9790612474e+01   4.0675219559e+01    0.1952973    0.1296726  39.42 0.0002605219    1.552    0.356
        64 -10.1919     53.4385     98.6691   9.6719426228e+01   5.0642759134e+01     0.396204    0.2074735 -64.44  0.001705038    2.012    0.503
        65  -8.5389     38.6192     99.2587   1.0203400555e+02   5.2150485048e+01    0.1312876   0.09994477  63.81 0.0006972969    1.670    0.401
        66 -10.5183     16.2421     95.3059   1.0913135554e+02   5.4971674833e+01    0.3368652    0.2262765  74.36  0.001257931    1.942    0.485
        67 -10.4764     69.3035     96.3640   9.0664096717e+01   4.9043695336e+01    0.2824933    0.2707935  47.39  0.001025831    1.171    0.146
        68  -9.8484     78.9158     94.9885   8.7051231009e+01   4.7872256430e+01    0.3682825    0.2235504 -31.06  0.001591043    1.879    0.468
        69  -8.5136     40.6494     96.6903   1.0075694274e+02   5.2557455452e+01    0.1457884   0.09101328 -31.91 0.0007044414    1.716    0.417
        70 -10.6197     35.1070     89.9063   1.0122335737e+02   5.4708475005e+01    0.3326266    0.1982231  16.32  0.001182131    1.978    0.494
        71 -10.0741     28.2399     85.2984   1.0272663497e+02   5.6400547703e+01    0.2625208    0.2271434  75.58 0.0008200176    1.438    0.304
        72 -10.1484     34.3694     95.3556   1.0269921408e+02   5.3494188956e+01     0.267247    0.1847671 -13.62  0.001425637    1.726    0.421
        73 -10.0054    116.5750     93.5580   7.4961857087e+01   4.1126805360e+01    0.2797957    0.2508464  89.45  0.001427669    1.316    0.240
        74  -8.6718      1.1717     94.0869   1.1418319208e+02   5.6137272982e+01    0.1728227    0.0728053 -67.84  0.000499508    1.835    0.455
        75  -9.6646     44.9671     92.9595   9.8352681578e+01   5.2978134618e+01    0.2145895    0.1663611  76.19  0.001139708    1.736    0.424
        76 -10.6325     87.5660     89.7618   8.2710772831e+01   4.7576340249e+01    0.5844096    0.3228055 -63.62  0.001987891    2.701    0.630
        77  -8.4745    126.4696     91.5198   7.1624379054e+01   3.9428358690e+01    0.1533885    0.1499971 -14.35 0.0004420239    1.001    0.001
        78  -9.2123     93.7282     90.5835   8.0967678619e+01   4.6284240979e+01    0.2620974    0.1868071 -66.09  0.001181819    1.798    0.444
        79  -9.3666     52.4263     89.3618   9.4763780439e+01   5.2945379619e+01    0.4072854    0.1456538 -43.61   0.00149924    2.648    0.622
        80 -10.2600    139.3132     87.6117   6.7150961349e+01   3.7329084202e+01    0.4040247    0.2403841 -51.54  0.000947156    1.855    0.461
        81  -9.9943    109.4662     88.4613   7.5513378077e+01   4.3670707080e+01    0.3083549    0.1472389 -43.12  0.001028431    2.054    0.513
        82 -10.3627    102.3060     87.0547   7.7241297711e+01   4.5402812859e+01     0.511043    0.1325627 -43.35   0.00145562    3.777    0.735
        83  -8.8248     75.3464     89.2963   8.6659021220e+01   4.9729221192e+01    0.1512264    0.1088969 -14.46 0.0007033518    1.673    0.402
        84 -10.2012     56.9511     88.6387   9.2940379419e+01   5.2538661745e+01    0.3160018    0.1883603 -56.20 0.0005589635    1.594    0.372
        85  -9.8584     47.8229     88.9171   9.6323721924e+01   5.3596779432e+01    0.2063597    0.1631106 -33.13 0.0003154697    1.189    0.159
        86 -10.6989    120.8535     87.1876   7.1874147732e+01   4.1534649387e+01    0.5381027     0.342032  36.71  0.001423159    1.663    0.399
        87  -9.2878    131.3656     86.7982   6.8933251134e+01   3.9293087151e+01    0.2362331    0.2102922  60.77 0.0005570368    1.190    0.160
        88  -9.5356     81.9572     84.9287   8.3140094921e+01   4.9600916013e+01    0.2671075    0.2271082 -36.38 0.0003342259    1.103    0.093
        89 -10.6779     71.4009     83.0342   8.6208243993e+01   5.1729895198e+01    0.3185029    0.2683396 -61.51 0.0005849017    1.325    0.245
        90 -10.6079     76.2463     83.3614   8.4617553794e+01   5.0889869698e+01    0.4089524    0.3217197 -63.55 0.0005472778    1.487    0.327
        91  -8.9491     80.1057     81.1352   8.2619698349e+01   5.0727266864e+01    0.2042841    0.2020866 -89.89 0.0003651933    1.173    0.148
        92  -9.8048     39.1073     85.1872   9.8615612978e+01   5.5405707090e+01    0.2059778    0.1572515 -36.61 0.0005291536    1.185    0.156
        93  -9.0155     65.3337     80.7108   8.7683016440e+01   5.3149662614e+01    0.2316439     0.132481 -57.88 0.0002927229    1.928    0.481
        94  -9.3139    118.5073     82.3107   7.1046798927e+01   4.3018182427e+01    0.3711271    0.1390399  47.57  0.001250462    2.713    0.631
        95 -10.2457    113.6363     81.0640   7.2042078942e+01   4.4307712758e+01    0.4327789    0.2750183  16.40  0.001696923    2.399    0.583
        96  -9.4816    108.8632     80.8114   7.3353469453e+01   4.5358050399e+01    0.3007468    0.1983219  38.78  0.000813355    1.541    0.351
        97 -11.6020    105.6529     77.5576   7.3286384646e+01   4.6664244143e+01    0.7526744    0.5051982   5.04  0.002979675    2.243    0.554
        98  -9.0066    103.9369     72.7089   7.2246492252e+01   4.7955599440e+01    0.2250056      0.18939 -34.66 0.0002428779    1.173    0.147
        99 -10.5971     97.0355     80.8736   7.6981123881e+01   4.7712689203e+01    0.2932794    0.2328136 -36.52            0    1.221    0.181
       100 -10.8004     98.3928     75.7300   7.4927373684e+01   4.8482657123e+01    0.5289276    0.4075886  77.69  0.002481904    1.941    0.485
       101 -12.0146     97.1721     69.3942   7.3241225631e+01   4.9947825232e+01    0.4006455    0.2868393 -39.82 0.0004684637    1.385    0.278
       102 -10.3172     54.8808     80.7134   9.1518403638e+01   5.4589179684e+01    0.3234795    0.2420865 -42.51  0.001767568    1.184    0.156
       103  -9.3327     22.1160     80.5738   1.0399207995e+02   5.7980683892e+01    0.3263002    0.1202153 -51.46  0.001438188    2.059    0.514
       104 -11.2660    101.1589     68.1146   7.1579387862e+01   4.9387108785e+01    0.4809657     0.300558 -55.10 0.0005404531    2.035    0.508
       105 -10.3329     49.2523     77.4224   9.2705530925e+01   5.6018134541e+01    0.4746298    0.2231909 -44.88  0.001125127    1.860    0.462
       106 -10.1800     56.3137     73.7010   8.8921162135e+01   5.5921723058e+01     0.498339    0.2946419 -10.59  0.001767077    2.508    0.601
       107  -9.3356      7.0638     80.1951   1.0968635246e+02   5.9051414555e+01     0.231797    0.1320051 -51.14  0.001306618    1.367    0.269
       108  -9.3461    155.1190     79.1285   6.0976470619e+01   3.5226876386e+01    0.2269536    0.2027159  18.20 0.0004844288    1.243    0.196
       109  -8.5396     89.7029     79.6436   7.8950003005e+01   4.9346179226e+01    0.1546028    0.1115931 -11.08 0.0007034434    1.699    0.412
       110 -11.1253     78.4434     74.9996   8.1275303520e+01   5.2288582289e+01    0.3668082     0.273017   9.18 0.0009706743    1.532    0.347
       111 -10.4090     74.5297     75.4835   8.2797710558e+01   5.2838739885e+01    0.2982726    0.2307369 -21.16  0.001121033    1.311    0.237
       112  -9.3764      4.6486     75.6867   1.0974389511e+02   6.0200708799e+01    0.2197617    0.1258542 -53.66  0.001026107    1.329    0.248
       113  -9.6154      2.3141     72.9872   1.1013097335e+02   6.0921454601e+01    0.2034602    0.1732827  -3.76 0.0005557899    1.363    0.266
       114 -10.4650     45.5817     72.3366   9.2659850759e+01   5.7558395396e+01    0.3248465    0.2070483 -44.56 0.0004981008    1.360    0.265
       115  -8.8906     24.9700     73.7569   1.0125340725e+02   5.9288935450e+01    0.1680102    0.1441846 -43.63            0    1.055    0.052
       116 -10.2495     64.2221     70.7642   8.5032350447e+01   5.5418696831e+01    0.4299692     0.282829  34.85  0.001680766    1.611    0.379
       117  -9.2621     59.4383     66.4713   8.5450648815e+01   5.6989300992e+01    0.2343591    0.2168869  -6.51 0.0008887243    1.096    0.088
       118  -9.2215     61.7079     64.2933   8.3863481116e+01   5.7096198467e+01    0.1990064    0.1677378   2.68 0.0004104131    1.157    0.135
       119  -8.2835     30.4475     72.3996   9.8704375970e+01   5.9114875771e+01    0.1275261    0.1107045 -41.07 8.444444e-05    1.062    0.058
       120 -11.0485    136.3192     69.8107   6.2517116745e+01   4.1327632913e+01    0.6046582    0.2834645  45.82  0.001686558    2.120    0.528
       121  -9.5310    142.8302     69.0866   6.0754968088e+01   3.9919886161e+01    0.2063769    0.2017368 -25.90 0.0004895448    1.040    0.039
       122  -9.4848    152.5029     73.0671   5.9778016116e+01   3.6926182975e+01    0.2297809    0.1471851 -38.26  0.001023404    1.565    0.361
       123  -9.2178     17.4663     70.6675   1.0352931886e+02   6.0544109315e+01    0.2367836    0.1176774 -50.39 0.0009281478    1.565    0.361
       124  -8.9218     76.9644     70.4874   8.0332485356e+01   5.3451463581e+01     0.206662    0.1377105  29.99  0.001004503    1.558    0.358
       125 -10.5588    154.8369     67.8846   5.7745844282e+01   3.7251673285e+01    0.3954735    0.2637843 -62.07  0.001743824    1.869    0.465
       126  -9.9973    119.8683     68.7482   6.6395429017e+01   4.5276705721e+01    0.4145273    0.2190668  38.69  0.001508377    2.016    0.504
       127 -10.0964     89.3969     67.6115   7.5144225089e+01   5.1788027409e+01    0.3276344    0.2506607  61.87 0.0009576102    1.717    0.418
       128  -8.5092     28.7269     68.3038   9.8301949015e+01   6.0161682064e+01    0.1146208   0.09941743  87.67 0.0001897569    1.538    0.350
       129  -9.7374     70.7748     66.4137   8.1195166671e+01   5.5279811413e+01    0.2712163    0.2170499  -5.60 0.0002635323    1.275    0.215
       130  -9.7577     71.9705     62.5695   7.9453699103e+01   5.5829111660e+01     0.387771    0.2584628  68.79  0.001098625    3.176    0.685
       131  -9.3960     76.3300     62.2739   7.7785565755e+01   5.5151249104e+01    0.2203053    0.1864873  -2.38 0.0007126499    1.141    0.124
       132 -10.4977    110.5217     64.9735   6.7758294730e+01   4.7995378604e+01    0.4081775    0.3442207 -56.04  0.001165192    1.363    0.267
       133  -9.3541     49.1880     65.0416   8.8999413519e+01   5.8653595194e+01     0.244817    0.1648964 -43.16     0.001317    1.321    0.243
       134 -10.7348     43.1431     62.8003   9.0732695424e+01   5.9842163849e+01    0.3702713    0.3323067 -78.13  0.001983526    1.490    0.329
       135  -9.6516      3.7306     64.9491   1.0788127676e+02   6.2624151543e+01    0.2154304    0.1934306  83.98 0.0005236923    1.405    0.288
       136 -10.8663      3.9306     59.6150   1.0657513706e+02   6.3762339630e+01    0.2749311     0.161784 -43.95 0.0003676291    1.322    0.244
       137 -11.8811      7.8787     56.7362   1.0413259809e+02   6.4156175087e+01    0.2271315    0.1727404 -39.73 0.0002485375    1.045    0.043
       138  -9.1679    203.2973     64.1518   4.8189603836e+01   2.6286696564e+01    0.2196665    0.1807009  -8.82  0.001180051    1.554    0.356
       139  -8.7210    187.0669     63.8411   5.0613483781e+01   3.0140560554e+01    0.2250723    0.1515372 -86.70 0.0008256175    1.866    0.464
       140 -11.0391     90.3348     61.9730   7.2911026429e+01   5.2654550160e+01     0.498959    0.4075841  36.13  0.002715474    1.217    0.178
       141 -10.6068     96.5109     59.0028   6.9905730123e+01   5.1964158513e+01    0.3762507    0.3263631  88.80  0.002020837    1.570    0.363
       142  -9.8452     96.2887     55.3459   6.8685430826e+01   5.2632968834e+01    0.3558394    0.2243624  18.02   0.00155775    2.091    0.522
       143  -9.5560     66.9621     63.1423   8.1493712529e+01   5.6523735647e+01     0.262817    0.1830812 -32.73 0.0004187426    1.345    0.256
       144 -10.6597     68.5645     54.6764   7.7913878783e+01   5.7850462295e+01    0.6307325    0.4712078 -50.17  0.003417019    1.546    0.353
       145  -9.4190     17.7019     63.6092   1.0165717461e+02   6.2061138693e+01    0.3147368     0.170469  42.33  0.001586507    2.572    0.611
       146  -9.5321     33.5300     62.8842   9.4750326776e+01   6.0859350954e+01    0.2754976    0.2083523  -5.96  0.001649335    1.350    0.259
       147 -12.2283    150.7234     57.5683   5.5511494363e+01   3.9910927298e+01    0.4491126    0.4257908 -80.07 6.963377e-05    1.077    0.071
       148 -10.7823    144.5233     53.3380   5.5508616917e+01   4.2057340841e+01    0.3138957    0.2863643  46.47 0.0009578513    1.071    0.066
       149  -8.5118    218.9976     61.7605   4.5453930606e+01   2.3103736955e+01    0.1664374    0.1118465  67.10 0.0004972797    1.551    0.355
       150  -8.6350    162.4920     61.5018   5.4328254513e+01   3.6437338286e+01    0.1454332    0.1398079  88.66 0.0008106157    1.011    0.011
       151  -9.3300     50.9113     59.7463   8.6570321879e+01   5.9495774761e+01    0.2167967    0.1718942 -39.19 0.0004633853    1.169    0.144
       152 -10.5292     59.7521     57.6893   8.2353578302e+01   5.8663025669e+01    0.3895641    0.3124821   0.02  0.001428084    1.216    0.178
       153  -9.9946    111.9645     55.9811   6.4308251331e+01   4.9209535908e+01    0.3394115    0.2755066  -0.01  0.001487614    1.356    0.263
       154  -9.0143     34.7925     57.7788   9.2634069887e+01   6.1778434361e+01    0.1928015    0.1450347 -29.21 0.0005120635    1.139    0.122
       155 -10.0898    199.9906     56.1631   4.6646013521e+01   2.8257848090e+01    0.3650267    0.2500726  19.27  0.001652355    2.462    0.594
       156 -10.1869    206.8796     52.1721   4.4706589173e+01   2.7241690051e+01    0.4693927    0.2456461 -29.74  0.001350914    2.077    0.519
       157 -10.0021    202.4919     51.1187   4.5027115536e+01   2.8406040916e+01     0.377627     0.205596 -54.12  0.001177245    1.883    0.469
       158  -9.0947    184.9221     56.5863   4.9017818430e+01   3.1762579128e+01     0.243647    0.1949667   1.78  0.001078469    1.678    0.404
       159  -9.6682    160.2387     56.5899   5.3324984092e+01   3.7748190226e+01    0.2805598    0.2038802  32.32 0.0006652874    1.639    0.390
       160  -9.8707    162.6078     52.5964   5.1709624129e+01   3.7768257531e+01    0.4619785     0.212107 -40.36  0.001877772    2.170    0.539
       161  -9.2071     26.5557     56.5028   9.5805269799e+01   6.2832110704e+01    0.2045326    0.1205565  19.40 0.0005603933    1.849    0.459
       162  -9.0977    222.8593     55.6590   4.3537103385e+01   2.3150936766e+01    0.1878705    0.1180837  82.55 0.0009423316    1.777    0.437
       163 -10.3200    174.0836     53.8882   5.0055303655e+01   3.4780647351e+01    0.3782734    0.1795852 -44.19  0.001560401    2.109    0.526
       164 -10.5698    126.7053     50.8305   5.8741247607e+01   4.6670485756e+01    0.4549757    0.2538158 -30.66  0.002004898    1.902    0.474
       165  -9.0369     85.4361     54.7232   7.1961245896e+01   5.4865775139e+01    0.2129863     0.134889 -35.50 0.0008095459    1.559    0.359
       166 -10.6490     81.2118     53.5898   7.2982510186e+01   5.5846624099e+01    0.5406519    0.3563704 -20.50  0.002212713    1.647    0.393
       167  -9.5829     89.0266     48.0500   6.8330351222e+01   5.5275941245e+01    0.2017202    0.1864269   9.52 0.0003476811    1.046    0.044
       168  -9.9857     84.6870     47.0772   6.9388332451e+01   5.6273156551e+01    0.3581334    0.2518523  -5.32   0.00160292    1.630    0.386
       169 -10.3058    135.3798     53.4111   5.7547085943e+01   4.4236875597e+01    0.3564787    0.2260306  -1.87  0.001041901    2.506    0.601
       170  -9.2062     22.9805     53.6996   9.6526230540e+01   6.3711088573e+01    0.1715351    0.1414396 -22.56 0.0003821242    1.085    0.079
       171  -9.1099     43.9144     52.8294   8.7084016442e+01   6.1720853955e+01    0.2012601    0.1529058 -13.71 0.0009104034    1.230    0.187
       172  -9.9071     28.4009     41.5939   8.9954466567e+01   6.5545380516e+01    0.3335033    0.2465909 -66.91 0.0004911878    2.033    0.508
       173  -8.9660     29.4998     52.3033   9.3171331302e+01   6.3399805296e+01    0.2572818    0.1474063 -39.18  0.001394319    1.462    0.316
       174  -9.7693     28.5899     48.2144   9.2211563338e+01   6.4283903563e+01    0.2937155    0.1930125 -37.63 0.0009456571    1.262    0.207
       175  -9.5503     25.4337     48.5248   9.3754820014e+01   6.4520700337e+01    0.2335135    0.1985427 -64.04  0.001001972    1.498    0.333
       176 -10.3935    113.2798     50.1847   6.1945736772e+01   4.9833951788e+01    0.5404584    0.2622954  57.55  0.002172636    2.259    0.557
       177 -10.7534    106.3366     50.3558   6.3924141334e+01   5.1332469703e+01     0.298983    0.2764217 -71.45  0.001710143    1.309    0.236
       178 -10.1775     17.6835     50.5945   9.7970397804e+01   6.4760839805e+01     0.288603    0.1925569  -5.12 0.0009983724    1.555    0.357
       179  -9.1239    212.8640     49.8833   4.3385997421e+01   2.6201244710e+01    0.1899273    0.1817655  65.61 0.0006171466    1.205    0.170
       180  -8.7413     73.6055     49.7728   7.4250394169e+01   5.7856842862e+01     0.180834    0.1252007 -43.46 0.0007199069    1.545    0.353
       181 -10.5641     55.9937     42.2007   7.8081044424e+01   6.1981372890e+01    0.3928248    0.2710287   3.95  0.001041821    1.537    0.350
       182  -9.4574     55.4352     49.7756   8.1207802678e+01   6.0751382565e+01      0.29839    0.1776967 -16.02 0.0009904605    2.040    0.510
       183 -10.2468     59.0855     47.8035   7.9007043304e+01   6.0560491599e+01    0.2571382    0.2331527  36.74 0.0006375784    1.336    0.252
       184  -9.7229     42.6178     45.7012   8.5061586388e+01   6.3203762220e+01    0.2940592    0.1702441 -43.40  0.001053947    1.599    0.375
       185  -9.3489     49.4516     49.4417   8.3539301768e+01   6.1643789428e+01    0.2258872    0.1741598 -10.71 0.0005831088    1.205    0.170
       186  -9.5475     45.9291     47.1407   8.4172721295e+01   6.2524813638e+01    0.1965058    0.1747333  16.60 0.0002643999    1.237    0.192
       187 -10.6927      5.6981     48.3239   1.0286211830e+02   6.6013330732e+01    0.2541437    0.1418087 -40.51 0.0001812536    1.394    0.282
       188  -9.1291    121.7882     48.7503   5.9248900989e+01   4.8121145361e+01    0.1877478    0.1681234 -73.92  0.001035572    1.310    0.237
       189  -9.6910    233.0192     48.0592   4.0656183129e+01   2.2030076618e+01    0.1973481    0.1648403 -62.11 0.0004132224    1.014    0.014
       190  -9.8825    137.6965     47.2572   5.5047087596e+01   4.4593136360e+01     0.310506    0.2284788  56.99  0.001586149    1.292    0.226
       191 -11.1852    141.9306     45.8150   5.3684995499e+01   4.3778426483e+01    0.4342791     0.343748 -78.45  0.002254033    1.507    0.337
       192  -9.7977    144.4480     42.4981   5.2121824473e+01   4.3626383805e+01     0.263698    0.2334071 -86.81 0.0008861933    1.200    0.167
       193  -9.0398     10.9941     47.7928   1.0022515095e+02   6.5796319259e+01     0.161165    0.1301821 -29.14  0.000214298    1.072    0.068
       194 -10.2273    152.0155     47.4981   5.2184093032e+01   4.1091508312e+01    0.3563544    0.1283124  56.84  0.001167101    2.541    0.607
       195  -9.5093     34.3430     46.1862   8.8899458784e+01   6.4076651072e+01    0.2114866    0.1729063  20.83  0.001098492    1.337    0.252
       196 -10.5314    167.2945     43.1519   4.8150576980e+01   3.7954909835e+01    0.3855658     0.243289  60.88  0.001002788    1.493    0.330
       197  -9.8174    163.0383     42.3301   4.8630667133e+01   3.9107408676e+01     0.248885    0.1966732 -46.19 0.0009358659    1.297    0.229
       198 -11.0511    108.7834     43.2825   6.0718660905e+01   5.1855433834e+01    0.2633067    0.2328914  39.40 0.0002493327    1.062    0.059
       199  -9.2440     19.9505     43.7089   9.4687546574e+01   6.5926507697e+01    0.1700474    0.1385423 -18.72  0.000657232    1.089    0.081
       200  -9.2077     10.7775     43.1799   9.8908725834e+01   6.6720012465e+01    0.1664067    0.1055217 -32.87 0.0002949296    1.281    0.219
       201  -9.1264    218.8868     41.8478   4.0772478058e+01   2.5949659607e+01     0.185645    0.1781097  78.28 0.0008888975    1.212    0.175
       202  -9.1877     99.5310     41.2728   6.2581110277e+01   5.4147701232e+01    0.3138362    0.2141223 -86.88 0.0007818528    3.083    0.676
       203 -10.0557    151.5553     41.1953   5.0344014538e+01   4.2070090774e+01    0.2315372    0.1898254 -84.36 0.0009136839    1.329    0.248
       204 -10.3174     35.0974     39.0740   8.5897132403e+01   6.5278365871e+01    0.3166606    0.2457349  25.04  0.001270802    1.399    0.285
       205 -10.1744    112.4724     39.1958   5.8276829087e+01   5.1602283572e+01    0.2652287    0.2536979 -34.35 0.0004729138    1.150    0.131
       206 -10.1799    107.3631     35.2166   5.8165667780e+01   5.3274243388e+01    0.3804689    0.2137952  62.15  0.001051062    1.998    0.499
       207  -8.6568     77.2827     40.6875   6.9449223672e+01   5.8657941846e+01    0.1213612    0.1095693 -71.09 0.0002501931    1.572    0.364
       208 -10.1776     48.6553     37.7437   7.9352753919e+01   6.3780339965e+01    0.3442891    0.2399514 -62.40  0.001735014    2.580    0.612
       209  -8.8542     40.4941     39.0724   8.3452264217e+01   6.4634951764e+01    0.1720519    0.1113208 -38.89 9.552372e-05    1.421    0.296
       210  -8.5208      2.4594     39.4631   1.0182920260e+02   6.7946875374e+01    0.1174782   0.09028236 -37.35 7.716189e-05    1.031    0.030
       211  -8.6376    181.9919     38.0140   4.4454668877e+01   3.5057651694e+01    0.1601085    0.1459931 -60.28 0.0003738987    1.088    0.080
       212  -9.8076     63.2620     40.7450   7.4622140901e+01   6.1083773243e+01    0.2148447    0.1722054 -19.69 0.0006865254    1.146    0.127
       213  -9.0936     96.5084     47.5003   6.5782571131e+01   5.3853190015e+01    0.2999465    0.1353023 -35.33  0.001234628    2.255    0.557
       214  -9.8024     80.8598     26.0937   6.2336472010e+01   5.9990372829e+01    0.3720332    0.2565978 -44.48  0.001788151    1.824    0.452
       215  -9.5584     76.9782     23.7600   6.2627148109e+01   6.1031202270e+01    0.1943403    0.1256789  44.46 0.0004639742    1.438    0.305
       216  -9.9806     83.7421     37.4542   6.5992623209e+01   5.7910075056e+01    0.3572159    0.2525823 -68.39  0.001645544    2.706    0.630
       217 -11.2407     78.9483     31.3103   6.5114401204e+01   5.9687207231e+01    0.4082009    0.3891593 -25.24  0.002630827    1.261    0.207
       218  -9.7961    127.6850     36.4984   5.3691799482e+01   4.8440050116e+01    0.2618204    0.2483968  52.91 0.0009222529    1.038    0.037
       219  -9.9442     69.7535     36.0276   7.0270637547e+01   6.0710760054e+01    0.3572626     0.287158  69.14   0.00197759    1.961    0.490
       220  -9.5239    184.2419     34.7566   4.3267850490e+01   3.4930754517e+01    0.2994524    0.1870718 -40.34  0.001525798    1.586    0.369
       221  -9.4373    170.7171     35.4925   4.5421950535e+01   3.8118108817e+01    0.2856682    0.1859647 -43.62 0.0009851262    1.557    0.358
       222  -9.8134     62.4979     36.4866   7.3194618891e+01   6.1874392321e+01    0.2298672    0.1114121  29.34  0.001025354    2.216    0.549
       223  -9.3176    215.7367     35.0480   3.9526435880e+01   2.7542701145e+01    0.1787218    0.1566269 -68.67 0.0004978032    1.040    0.038
       224  -9.8065     33.9262     34.6723   8.4695780713e+01   6.6170091922e+01    0.2073559    0.1565276 -30.89 0.0004801939    1.174    0.148
       225  -9.6043    193.2286     33.6823   4.1810103156e+01   3.2919283121e+01    0.3626488      0.18089  48.28  0.001609197    2.311    0.567
       226  -8.5988     99.0077     34.0063   5.9997424081e+01   5.5254589438e+01    0.1614176    0.1466765  10.98  0.000437592    1.058    0.055
       227  -8.7509     86.3981     34.2306   6.3863091295e+01   5.7836049263e+01    0.1745026    0.1237589 -37.19 0.0008792103    1.537    0.349
       228 -11.4033    237.9944     32.5032   3.6768433770e+01   2.3032626510e+01    0.5691438    0.3214823 -82.43  0.002992092    1.917    0.478
       229  -9.4117    102.8066    247.2453   1.0734433226e+02   9.3267131654e+00    0.2297624     0.173209 -50.94  0.001447322    1.615    0.381
       230 -10.8703    239.5789     22.6988   3.4558155930e+01   2.3904076408e+01    0.2953089    0.1972762 -60.19 0.0007560008    1.261    0.207
       231 -10.1751    114.9505     31.9720   5.5066198376e+01   5.1974855073e+01    0.2563235    0.2269242  23.47 0.0004448352    1.106    0.096
       232  -9.9966    110.5847     29.5295   5.5250566964e+01   5.3265356742e+01    0.2941007    0.2475367  53.88 0.0009529679    1.139    0.122
       233 -10.6227     62.7965     30.9217   7.0756032403e+01   6.2647121298e+01    0.5692596    0.2040526  33.09  0.001803295    3.208    0.688
       234  -8.8932    143.4955     31.4654   4.8814556662e+01   4.5267694320e+01    0.1381364    0.1265304  60.75 -3.315548e-05    1.008    0.008
       235  -9.4907    124.9223     30.1498   5.2130921713e+01   4.9878139609e+01    0.2433475      0.20034 -36.02 0.0008752587    1.321    0.243
       236 -10.1071    120.8312     25.8815   5.1542051167e+01   5.1333308486e+01    0.4093246    0.2203574  55.69  0.001369079    1.649    0.394
       237 -10.8896     48.1092     28.6495   7.5760109436e+01   6.5279243017e+01    0.3088214    0.2206974  37.66  0.001109758    1.535    0.349
       238  -9.9470     43.0643     28.9829   7.8119161348e+01   6.5938213114e+01    0.2566822    0.1702931 -24.63 0.0004313265    1.352    0.261
       239  -9.3443     29.4944     30.5806   8.5127788368e+01   6.7352595483e+01    0.2567651    0.1040025 -43.10  0.001224208    2.214    0.548
       240  -9.0017     21.5691     30.2872   8.8922235338e+01   6.8212821728e+01    0.1749522   0.09003201 -35.99 0.0009556137    1.620    0.383
       241  -9.3616     21.4590     25.9507   8.7187849519e+01   6.8949750109e+01    0.2555486    0.1638397 -20.98 0.0008990344    1.338    0.253
       242  -9.8248    216.3170     28.2007   3.7871542125e+01   2.8266499792e+01    0.2526424    0.2115468  20.01 0.0009765242    1.728    0.421
       243 -10.4138    183.0065     26.8436   4.1326449066e+01   3.6188747828e+01    0.5356178    0.3166698  40.41  0.002552246    2.166    0.538
       244  -8.9232     99.6980     29.0534   5.7912961162e+01   5.5732561058e+01    0.1842649    0.1652128  11.70 0.0004578858    1.079    0.074
       245 -10.3913     15.4601     28.3818   9.1283793556e+01   6.9087584976e+01    0.3752148    0.1970806 -17.59  0.001849042    1.994    0.499
       246  -9.7076    206.6124     26.2623   3.8418814305e+01   3.0701314648e+01    0.2253538    0.2120811 -89.63 0.0008274633    1.159    0.137
       247  -8.8412    221.4622     30.9866   3.7995974862e+01   2.6779094472e+01    0.1752067    0.1162559 -38.38 8.020479e-05    1.463    0.316
       248  -9.5787    156.1315     25.1191   4.4680525814e+01   4.2920520369e+01    0.1882875    0.1488648 -62.59  0.000924055    1.347    0.258
       249 -10.5903     30.3114     22.9935   8.1446908237e+01   6.8465466283e+01    0.4107938    0.2334913 -26.62   0.00212672    1.574    0.365
       250  -9.4897     29.2844     18.3117   7.9801830314e+01   6.9281523973e+01    0.2380147    0.1466585 -11.91 0.0008236498    1.550    0.355
       251  -8.9727     30.3585     15.6685   7.8008177167e+01   6.9525950477e+01    0.1661666    0.1040358 -35.15 0.0007477216    1.563    0.360
       252 -10.5211    226.8143     22.8794   3.5678519828e+01   2.6591632914e+01    0.4283106    0.2079174  86.08  0.002064447    2.227    0.551
       253  -9.7739    222.5473     20.4445   3.5519641683e+01   2.7806640246e+01    0.1833133    0.1570202 -43.87 0.0007097569    1.248    0.199
       254 -10.0448    179.3715     23.0019   4.0766982919e+01   3.7504207328e+01    0.2540275    0.2258761 -86.63  0.001173723    1.018    0.018
       255 -10.6211    164.9011     21.7341   4.2370206396e+01   4.1153536546e+01    0.4277631    0.2312444  51.88  0.001212621    1.790    0.441
       256  -9.0281    159.5244     22.4892   4.3377087134e+01   4.2382667236e+01    0.1892997    0.1205508 -41.84  0.000599537    1.644    0.392
       257 -12.0327     76.3148    219.6224   1.0987582851e+02   1.8525366611e+01    0.7273812    0.5301336  13.38  0.002325352    1.958    0.489
       258  -9.1672      8.0628     22.8522   9.3010333295e+01   7.0619256632e+01    0.1575668    0.1366066 -17.52 0.0004152296    1.248    0.199
       259  -9.8428    218.3508     21.9239   3.6235509251e+01   2.8560817096e+01    0.1720482    0.1412726 -58.72 0.0003799865    1.104    0.094
       260 -10.1852    141.8177     21.5155   4.5952491367e+01   4.6800786940e+01    0.2370599    0.2226696  47.14 0.0004406507    1.085    0.078
       261 -10.0996      2.2261     21.6952   9.5786168326e+01   7.1218752973e+01    0.2381161    0.2168846  -0.16  0.001418667    1.400    0.286
       262  -9.6179    206.0000     21.1159   3.7251243624e+01   3.1442616112e+01    0.1861768    0.1606612 -82.36 0.0003172203    1.029    0.028
       263  -8.4064    155.3194    214.7150   9.1875551045e+01   7.0984340569e+00    0.1323056    0.1031637  62.42 0.0002073182    1.591    0.371
       264 -12.0296     69.0142    217.5191   1.1122811519e+02   1.9968015145e+01    0.5989268     0.419325  65.69  0.002113628    1.330    0.248
       265  -8.2965    132.3208    210.6912   9.6287118399e+01   1.1735594856e+01    0.1395415    0.1026205  65.99 0.0003691332    1.643    0.391
       266  -8.9402    129.9663     19.6945   4.7528460185e+01   4.9842609731e+01    0.1895927    0.1579645  62.25 0.0004989146    1.093    0.085
       267  -9.2711     69.1418     19.2465   6.3343604401e+01   6.3045865343e+01    0.2122039    0.1525123 -11.66 0.0007845643    1.369    0.270
       268  -9.6396    119.3722     18.8376   4.9368015227e+01   5.2431421390e+01    0.2574214    0.1707078  53.38 0.0006228738    1.319    0.242
       269 -10.6642     73.0211    215.2518   1.1011783672e+02   1.9908714509e+01    0.4005407    0.2753925 -42.47  0.002179174    1.944    0.486
       270  -8.9755    123.9988    205.9925   9.7437910108e+01   1.4085061414e+01    0.1919585    0.1759371  38.85            0    1.036    0.034
       271 -10.1206      1.4494    185.3736   1.2313087274e+02   3.4467849345e+01    0.3628281    0.0950966 -77.83  0.001276639    3.143    0.682
       272  -9.9105    236.2621     16.8581   3.3599657751e+01   2.5278133244e+01     0.218619    0.1701036 -64.09 0.0007420792    1.052    0.049
       273 -11.4391      6.2186    168.2941   1.2084154153e+02   3.8034155970e+01    0.5028499    0.1877045  48.22  0.002042201    2.629    0.620
       274 -10.7299      6.7184    163.7953   1.2035967565e+02   3.9057977126e+01    0.2070318    0.1719258  -7.26 0.0008746533    1.697    0.411
       275 -11.1996      2.9757    152.6867   1.2033985501e+02   4.1975323183e+01    0.3871745    0.2605411 -56.81  0.002376237    1.449    0.310
       276 -11.6273      9.4493    154.8512   1.1890600897e+02   4.0987530742e+01    0.4509768    0.2018466 -60.72  0.001240531    1.903    0.474
       277 -10.5009     25.1225    152.1544   1.1457083452e+02   4.0346429800e+01    0.2550703     0.172934  70.80  0.001098563    1.501    0.334
       278  -9.2805     32.0374    147.3045   1.1211527915e+02   4.0901325429e+01    0.1721744    0.1594951 -89.30 0.0003850609    1.107    0.097
       279  -9.4314     77.3258     16.5266   5.9415909853e+01   6.1794360938e+01    0.3017868    0.1085278  49.32  0.001034214    2.446    0.591
       280 -11.0362     11.5399    145.0656   1.1740597622e+02   4.3200927446e+01    0.2553041    0.1992345  53.82 0.0002930863    1.370    0.270
       281 -10.8730      3.5720    142.4651   1.1925959445e+02   4.4390321105e+01     0.371356    0.2682343 -35.33  0.001832556    1.695    0.410
       282 -11.1407     11.5589    139.4996   1.1680898074e+02   4.4557360112e+01    0.3574487    0.1704463  30.06  0.001807768    2.351    0.575
       283  -8.9851     36.0011    142.2955   1.1033793540e+02   4.1761293103e+01    0.1779432    0.1648694 -81.42 0.0004664962    1.089    0.082
       284 -10.4400     21.4866    141.9547   1.1435825238e+02   4.3177933759e+01    0.2170763    0.1619567  56.70 0.0003777156    1.423    0.297
       285  -8.5236     44.8260    141.3890   1.0768766026e+02   4.1061958837e+01    0.1708793    0.1340615   2.07 0.0005751424    1.654    0.396
       286  -8.9199     78.0577     12.8316   5.7582478750e+01   6.2036375704e+01    0.1718349    0.1625394  36.77 0.0003369657    1.230    0.187
       287 -10.8770     28.7655    138.6694   1.1189645197e+02   4.3356878627e+01     0.384049    0.2311895 -58.04  0.001169188    1.448    0.309
       288 -12.7645    229.8665    136.8683   6.1212955703e+01   8.2087952866e+00     1.196969    0.6079299  43.46  0.005387196    2.209    0.547
       289 -12.9936    233.2352    127.3587   5.8556079832e+01   9.2532594300e+00     1.196329    0.7062399  62.93  0.005467355    2.409    0.585
       290 -12.1818    214.7993    132.4731   6.2841000672e+01   1.1884390247e+01     1.323338    0.8141599 -55.22  0.005927986    1.928    0.481
       291 -12.8848    221.5350    115.0701   5.7673428741e+01   1.3701766002e+01     1.939976     1.472893   0.43  0.009799214    1.742    0.426
       292 -10.4880     15.8192    136.3464   1.1526859007e+02   4.5013125266e+01    0.1864533    0.1368866 -80.38 0.0005493935    1.153    0.133
       293  -9.5973     30.0830    133.0935   1.1074227170e+02   4.4625943500e+01    0.2011649    0.1727754 -80.53 0.0005911699    1.059    0.055
       294  -9.7982     15.8033    131.1019   1.1463636343e+02   4.6304026479e+01    0.1977783    0.1651098  64.24 0.0004973888    1.285    0.222
       295 -10.5096     12.0868    128.8697   1.1543691027e+02   4.7120712434e+01    0.2227253    0.2007272 -57.91 0.0003871195    1.170    0.146
       296  -9.1704      4.4058    131.2091   1.1789460692e+02   4.7060042632e+01    0.1842836   0.09972296 -85.87 0.0009019889    1.675    0.403
       297  -8.4776     80.3304    129.2560   9.4948356846e+01   3.9421373207e+01    0.1452923    0.1139012 -19.11 0.0002247799    1.560    0.359
       298  -9.2781     31.0000    123.9832   1.0909886527e+02   4.6811318030e+01    0.1992311    0.1275269 -83.77 0.0004197299    1.602    0.376
       299 -10.3518     27.9529    125.7845   1.1030705835e+02   4.6635634058e+01    0.3346459    0.2148431 -70.52  0.001004004    1.336    0.252
       300 -10.1217     23.8014    125.3081   1.1149481534e+02   4.7106563658e+01    0.2387893    0.2119556  86.84 0.0005463935    1.144    0.126
       301  -9.4671     47.6540    125.7731   1.0425702059e+02   4.4670496382e+01    0.2818696    0.2002042   8.72  0.001371745    1.799    0.444
       302 -10.0974      8.2206    123.2830   1.1588879314e+02   4.8744189317e+01    0.3213886    0.1151737 -51.60  0.001408781    2.400    0.583
       303  -9.0903     93.9783    122.7200   8.9386508300e+01   3.8786773722e+01    0.2006656    0.1977274 -43.16  0.000525081    1.035    0.034
       304  -9.0663     73.6328    121.9847   9.5419208705e+01   4.2237977073e+01    0.2078186    0.1724639 -58.24  0.001092919    1.121    0.108
       305  -8.8822     48.6908    121.9415   1.0323106297e+02   4.5511088667e+01    0.1957743    0.1578743 -63.30 0.0003307161    1.099    0.090
       306  -8.8125     15.2187    121.6726   1.1358561636e+02   4.8662943976e+01    0.1518728    0.1201287  -5.37 0.0003810286    1.598    0.374
       307  -9.1653     69.9788    118.4827   9.5792597181e+01   4.3634529194e+01    0.2019865    0.1466059  31.99 0.0003578565    1.496    0.332
       308  -9.4067     57.9752    117.6843   9.9440600719e+01   4.5453503375e+01    0.2500232    0.1838993 -58.18    0.0005409    1.219    0.180
       309  -8.9653     98.5211    117.1288   8.6673113616e+01   3.9327278603e+01    0.2236029    0.1461057 -49.81 0.0004531461    1.462    0.316
