#   1 NUMBER                 Running object number                                     
#   2 MAG_AUTO               Kron-like elliptical aperture magnitude                    [mag]
#   3 X_IMAGE                Object position along x                                    [pixel]
#   4 Y_IMAGE                Object position along y                                    [pixel]
#   5 X_WORLD                Barycenter position along world x axis                     [deg]
#   6 Y_WORLD                Barycenter position along world y axis                     [deg]
#   7 A_WORLD                Profile RMS along major axis (world units)                 [deg]
#   8 B_WORLD                Profile RMS along minor axis (world units)                 [deg]
#   9 THETA_WORLD            Position angle (CCW/world-x)                               [deg]
#  10 FWHM_WORLD             FWHM assuming a gaussian core                              [deg]
#  11 ELONGATION             A_IMAGE/B_IMAGE                                           
#  12 ELLIPTICITY            1 - B_IMAGE/A_IMAGE                                       
         1 -11.5730    232.3830     27.5438   1.0935013669e+01   2.6818078650e+01    0.7334514    0.3017906 -52.67  0.004120252    1.924    0.480
         2 -11.5692    237.1190     22.7948   9.7230372817e+00   2.6510354292e+01    0.7404204     0.342935 -59.74  0.004455648    1.840    0.457
         3  -9.1544     72.3352      7.2915   2.4372823308e+01   6.4410176493e+01    0.2613905    0.1265845  55.03    0.0012496    1.712    0.416
         4 -10.0671    125.1098    243.4617   7.1457076235e+01   8.1013894287e+00    0.2549225    0.1650693 -53.19 0.0009617388    1.865    0.464
         5  -8.5085    100.5405    250.5025   7.7705295132e+01   9.6634344789e+00    0.2075216    0.1011938  25.41 6.976583e-06    1.683    0.406
         6  -9.4277    100.3394    244.6365   7.7129607120e+01   1.0728398531e+01    0.4127004    0.2600687 -80.30  0.002176556    2.576    0.612
         7  -8.3136     74.7996    250.0087   8.3474352077e+01   1.2563905664e+01    0.1565911    0.1066551 -50.22 0.0009440914    1.727    0.421
         8  -8.8671     75.9092    244.9827   8.2773430902e+01   1.3381671449e+01    0.2937272       0.1436 -50.17   0.00103521    2.357    0.576
         9 -16.0952      2.6981    239.8679   9.9300362295e+01   2.1336489113e+01     1.658721    0.5355003  50.56  0.006428383    2.437    0.590
        10 -17.8343      4.7564    226.1208   9.8335762179e+01   2.4032443299e+01     10.24185     4.173777 -78.30   0.01090104    2.514    0.602
        11 -10.5657     87.5000    220.4675   7.7470912820e+01   1.6903163027e+01    0.4969575     0.321405  62.35  0.002493698    2.057    0.514
        12  -9.3731     71.9147    224.7720   8.1800335564e+01   1.7834494090e+01    0.2148952     0.190003  18.26 0.0005409128    1.072    0.067
        13 -10.2118     96.6494    231.4543   7.6522120322e+01   1.3615956227e+01    0.2819409    0.2521276 -86.88  0.001571179    1.409    0.291
        14  -9.1834     67.0702    221.0929   8.2641955425e+01   1.9156979463e+01    0.1929352     0.184008 -75.13 0.0004331565    1.180    0.152
        15  -8.9160    125.0000    210.4193   6.7023312513e+01   1.4172768871e+01     0.271561   0.07557796 -53.22 0.0009280213    3.881    0.742
        16  -9.6042     95.6512    210.4416   7.4197885125e+01   1.7988377940e+01    0.2436169    0.1660428 -51.31 0.0006107033    1.577    0.366
        17  -8.6852    132.5614    208.7287   6.5002497399e+01   1.3501162350e+01    0.1628539    0.1319576 -60.05 0.0009348645    1.550    0.355
        18  -9.6546    131.1259    203.5102   6.4527834278e+01   1.4709843891e+01    0.2278876    0.1809975 -41.69 0.0005680346    1.310    0.237
        19  -9.0174    210.9023    198.6748   4.7532216524e+01   5.2841256336e+00    0.1604344    0.1277931  -1.18 0.0004791967    1.133    0.118
        20  -8.6158     58.9528    197.4947   8.2318939437e+01   2.5381890615e+01    0.2052431    0.1273525  26.38  0.000468942    1.499    0.333
        21 -10.2112    128.0316    194.6555   6.3842725661e+01   1.6915093039e+01    0.4317374    0.1311157  26.31  0.001356502    3.862    0.741
        22  -9.4036    102.8465    238.7092   7.5901323777e+01   1.1521227420e+01    0.2428685    0.2012821 -37.83  0.000915725    1.341    0.255
        23  -9.7310     69.1163    195.2053   7.9259661113e+01   2.4718680018e+01     0.388876    0.2703759 -59.92  0.002012961    1.516    0.340
        24 -10.1941    119.8608    189.8750   6.5058956301e+01   1.9076561668e+01     0.232251    0.1846287 -11.98  0.001255744    1.295    0.228
        25  -8.6943     72.9912    187.3215   7.7178048971e+01   2.6104585648e+01    0.3047845     0.173521  75.58  0.001174831    2.896    0.655
        26 -10.1849     93.6518    237.7456   7.7926496365e+01   1.2763941022e+01    0.3139769    0.2035508 -54.85  0.001040377    1.771    0.435
        27  -9.6038    127.7466    182.6146   6.1869736933e+01   1.9459634993e+01    0.2682589    0.1588116 -37.95  0.000791216    1.725    0.420
        28  -8.7017     63.0473    181.4645   7.9254754329e+01   2.8770040439e+01    0.2025424    0.1879033 -81.61 0.0004228963    1.124    0.110
        29  -8.8794     97.8494    181.2645   6.9390407040e+01   2.4159102450e+01     0.244386    0.1730714  47.39   0.00119429    1.515    0.340
        30  -8.7896    115.5124    181.4896   6.4751719537e+01   2.1525091541e+01    0.1431435    0.1328009   4.49 9.711399e-05    1.010    0.010
        31  -9.7853    173.6786    177.7159   5.0686852144e+01   1.3610718022e+01     0.284674    0.2547446  60.85  0.001732962    1.598    0.374
        32  -8.5788     78.4328    177.4575   7.4238555966e+01   2.7772894640e+01    0.2119808    0.1617203  53.59 0.0004746957    1.406    0.289
        33  -8.2812     75.2736    175.6452   7.4884944160e+01   2.8640466469e+01    0.2215575     0.140462  31.47 0.0003092493    1.492    0.330
        34  -8.7981     96.8364    175.6256   6.8746000240e+01   2.5618602950e+01    0.2322575    0.1898323 -38.15 0.0003525325    1.252    0.201
        35  -8.2928    105.3091    173.3310   6.6033965706e+01   2.4892790405e+01    0.1532793      0.10914 -18.42 0.0004241984    1.667    0.400
        36  -9.9038    180.4843    169.1858   4.7722832208e+01   1.4159751784e+01    0.5064167     0.215507 -49.42  0.002083212    2.649    0.622
        37  -8.9050    147.0329    243.0309   6.6703562356e+01   5.6733470461e+00    0.1768046    0.1402258  45.51  0.001032945    1.697    0.411
        38  -9.9810     74.4825    169.6792   7.4217063862e+01   3.0224986075e+01    0.2793969    0.2494371  55.75 0.0006066798    1.158    0.137
        39  -8.4221     67.4791    169.9720   7.6361224311e+01   3.1081971568e+01    0.2204694    0.1468024 -70.55  0.001023189    1.616    0.381
        40  -9.0258    110.6514    167.3323   6.3512833710e+01   2.5451177899e+01    0.2275939    0.1773279  67.59  0.001102156    1.698    0.411
        41  -8.5555    101.5977    166.7814   6.5891367671e+01   2.6985877483e+01    0.1994555    0.1449904 -70.14 0.0003739159    1.651    0.394
        42  -8.8032     39.8080    166.2442   8.4422519156e+01   3.5299989571e+01    0.2014174    0.1781349  58.54 0.0002884286    1.104    0.094
        43 -10.3844     85.9041    160.2445   6.9246038181e+01   3.0947998565e+01    0.4418463    0.3410625 -76.84 0.0004494092    1.507    0.336
        44 -10.0079     89.5059    164.5034   6.8932703641e+01   2.9364343490e+01    0.2557895    0.2415386 -84.91 0.0006219862    1.152    0.132
        45 -10.1843     93.8791    164.3152   6.7633789662e+01   2.8753279021e+01    0.4326572    0.2683343  46.88  0.001324577    1.744    0.426
        46  -9.2571     91.0087    160.7360   6.7825362726e+01   3.0058854343e+01    0.2482544    0.2087871 -54.54 0.0003463047    1.212    0.175
        47  -8.5782    163.1015    164.4643   5.0321918056e+01   1.7684626123e+01    0.1958226    0.1325158  30.88 0.0006755137    1.530    0.346
        48  -8.8974     82.5168    164.5054   7.0990085226e+01   3.0388176329e+01    0.1474269    0.1429525   6.72 6.432343e-05    1.012    0.012
        49  -9.2185    114.7940    163.0680   6.1599846930e+01   2.5769289212e+01    0.2151761    0.1993397  77.69 0.0004534733    1.277    0.217
        50 -10.7301     37.3493    143.1528   8.2301656776e+01   4.1722059916e+01     1.221842    0.4445895  20.42  0.004230966    2.939    0.660
        51 -11.9860     71.7221    159.4447   7.3427553720e+01   3.3187851296e+01    0.9884159    0.6260318 -19.60  0.004098582    2.191    0.544
        52 -11.7462     64.0226    154.6895   7.5083028185e+01   3.5458249682e+01    0.6827055    0.4467969  11.06  0.002832471    1.779    0.438
        53 -12.4964     69.2996    144.4172   7.1593183149e+01   3.7407336832e+01     1.080415    0.6419473  51.28  0.002674278    1.929    0.482
        54 -13.0482     58.8251    132.8480   7.3009155703e+01   4.1915209530e+01     1.465591     0.881767  39.30  0.005724781    1.669    0.401
        55 -12.7034     42.4075    126.8936   7.7920283595e+01   4.5582601888e+01      1.28231    0.9272363  51.65  0.003859548    1.494    0.331
        56 -11.5764     88.1515    148.7840   6.6439045189e+01   3.3453293041e+01    0.8557142    0.5146511 -52.95  0.002786543    1.645    0.392
        57  -9.5856     82.4476    150.8749   6.8592100859e+01   3.3810767248e+01    0.2758994    0.2392069  18.19 0.0004169714    1.168    0.144
        58 -10.4058    133.4837    143.4964   5.2732599239e+01   2.6962635037e+01     0.993372    0.2641592 -51.72  0.002721317    4.468    0.776
        59 -10.0803     54.7166    148.1838   7.7092567659e+01   3.8371695167e+01    0.4781077    0.3398748  30.17  0.001829505    1.394    0.283
        60  -9.6892     58.4435    145.4726   7.5395614512e+01   3.8614894334e+01    0.2508278    0.2001437  37.83 0.0007327683    1.248    0.199
        61  -9.2219     55.4493    141.9962   7.5826852418e+01   3.9925868796e+01    0.3047897    0.2238806  46.95 0.0005130603    1.408    0.290
        62  -9.8725    108.9603    145.2519   5.9605058710e+01   3.0873529940e+01    0.3044176    0.2757508 -13.64 0.0006641289    1.117    0.105
        63  -9.0963    147.0360    143.5443   4.9509323142e+01   2.4547173717e+01    0.2762422    0.1982853 -58.90  0.000897491    1.627    0.385
        64  -8.5436    152.5714    143.5094   4.8252105554e+01   2.3579743648e+01    0.1431508    0.1312977 -27.32 8.658936e-05    1.024    0.023
        65  -8.4045    127.6842    138.2211   5.3021738827e+01   2.9159055202e+01    0.2132831    0.1294404 -40.05 0.0004888754    1.632    0.387
        66 -11.0635    106.8876    234.1443   7.4437553228e+01   1.1893416812e+01    0.4010798    0.2527615 -61.76  0.001196781    1.982    0.495
        67  -8.3853    242.3125    136.6443   3.1598290983e+01   1.0734387052e+01    0.1145857   0.07790235 -54.12 0.0003216539    1.736    0.424
        68 -10.7097    104.7972    131.9955   5.7873839781e+01   3.4736555706e+01    0.6231914     0.516156 -28.44  0.002430525    1.261    0.207
        69 -10.4147     90.5409    132.3621   6.2279695053e+01   3.7144300178e+01    0.2813723    0.2637177 -20.66 0.0002788788    1.074    0.069
        70  -8.2249    150.5834    130.4379   4.5760684625e+01   2.6580687115e+01    0.1434254    0.1332455 -33.80  0.000102652    1.027    0.026
        71  -9.3073    136.4898    128.4974   4.8577444049e+01   2.9627342164e+01    0.2823464    0.2315414  88.65  0.001398934    1.638    0.389
        72  -9.9861    134.5596    124.3437   4.8056095733e+01   3.0875422661e+01    0.3899413    0.2260452 -58.12  0.001185063    2.090    0.521
        73  -9.5359    111.7636    126.5419   5.4591744201e+01   3.4732645798e+01    0.2999089     0.215054  11.61  0.001053883    1.789    0.441
        74  -9.4055     99.2116    121.3503   5.7020403612e+01   3.8278017248e+01    0.3351093    0.2472441   2.13 0.0008855339    1.781    0.439
        75  -9.2789     57.4921    119.4890   7.0811902808e+01   4.5635801526e+01    0.4272408    0.1421928  40.27  0.001144948    3.050    0.672
        76  -9.7080     52.2803    116.2996   7.2112569363e+01   4.7194335233e+01    0.4482541    0.3557647  79.83  0.002172796    1.492    0.330
        77  -8.6666     39.0208    160.2945   8.3968970449e+01   3.6948423681e+01    0.2039089    0.1779564  34.99 0.0001577357    1.135    0.119
        78 -11.9126    114.7009    229.1419   7.2011134226e+01   1.1889758345e+01    0.5835613    0.3837716  49.05  0.003150156    1.839    0.456
        79  -9.1043     41.1918    113.3779   7.5881822190e+01   4.9371433941e+01    0.2766006    0.1848431  35.57   0.00127838    1.527    0.345
        80  -8.8979    114.6704    108.6766   4.9266851725e+01   3.8180900660e+01    0.1573352    0.1210864  -4.98 0.0007049692    1.697    0.411
        81  -9.5764     59.6351     94.7526   6.3994446910e+01   5.1650844272e+01    0.3016279    0.2454681  61.85 0.0005520172    1.448    0.309
        82  -9.8078     69.5576    232.3774   8.3114500499e+01   1.6538249394e+01    0.2507584    0.1951263  25.76 0.0007621418    1.115    0.103
        83  -8.6650    127.6016     84.7600   3.9240608476e+01   4.0317152363e+01    0.2085101    0.1333123 -51.47 0.0004738957    1.622    0.383
        84 -10.9932    132.7478    231.2225   6.8196486207e+01   9.3270773279e+00    0.2965421    0.2496814  16.55  0.001934827    1.093    0.085
        85 -11.5074    127.4515    228.3203   6.8988547887e+01   1.0487499775e+01    0.4969718     0.242641  35.08  0.002434729    1.885    0.469
        86 -10.8560     32.8964     79.6031   7.1733708658e+01   5.9119111563e+01    0.4856521    0.1613326 -53.26  0.001470053    2.619    0.618
        87 -10.2625    147.4090    228.8788   6.4677505231e+01   7.9718907999e+00    0.3169729    0.1256134  31.26  0.001447488    2.239    0.553
        88 -10.7159     32.0713     72.6873   7.0189123294e+01   6.0909404418e+01    0.3158672    0.2657374 -77.60  0.001701887    1.385    0.278
        89 -10.6578    186.0270     63.0686   2.3021006488e+01   3.1217799454e+01    0.3203481    0.2834724 -37.63 0.0009308442    1.163    0.140
        90  -8.4800     82.7699     64.0050   4.5314480285e+01   5.4091832748e+01    0.1911902     0.122786 -41.39 0.0003160965    1.602    0.376
        91 -12.5138    203.5284     50.4241   1.8081118551e+01   2.9435736650e+01     1.029625    0.7950155  34.65  0.005028578    1.874    0.467
        92 -11.3587    208.9700     45.9220   1.6556858054e+01   2.8956797412e+01    0.4193135    0.3328565  89.50  0.001063036    1.297    0.229
        93  -9.7964     29.8085     58.7822   6.6936450800e+01   6.4428697052e+01     0.183852    0.1672598  56.23 0.0005427009    1.326    0.246
        94  -8.0532    215.4208    227.4778   5.1426299252e+01   6.3089020419e-01     0.113475   0.08342278 -11.12 9.923262e-05    1.026    0.025
        95 -11.0749     99.0170    225.2512   7.5228039430e+01   1.4543692749e+01    0.2992134    0.2207286  26.32  0.001741669    1.176    0.150
        96  -9.9482    101.4673    222.0132   7.4240164420e+01   1.4885895081e+01    0.3036865    0.1331681 -59.03  0.001133171    2.636    0.621
        97  -8.8946    229.3206     39.6729   1.3597577961e+01   2.5985073981e+01    0.1222466   0.06344387 -57.72  0.000597255    1.685    0.406
        98  -9.0202     90.1207    217.6166   7.6483131975e+01   1.7175253569e+01    0.2017283    0.1840309  82.54 0.0006167481    1.300    0.231
        99  -9.0914     57.1054    247.4663   8.7318803934e+01   1.4891421901e+01    0.1928051    0.1541751 -44.68 0.0005848206    1.503    0.335
       100  -9.5519     69.2674    245.7915   8.4380641064e+01   1.3942456648e+01    0.3374244    0.2739209 -89.46  0.001377608    1.502    0.334
       101  -9.9832     21.6125     28.1925   5.8986141442e+01   7.1724568444e+01    0.1879576    0.1109788 -33.74 0.0009517737    1.698    0.411
       102  -9.3481     60.6516     21.1768   3.5009830309e+01   6.5625255436e+01    0.2309232    0.1726649  62.19 0.0006785243    1.376    0.273
       103 -10.6290     81.7441    220.9458   7.8954133516e+01   1.7491601981e+01    0.4766262    0.2381389  40.78 0.0008946173    1.852    0.460
