#   1 NUMBER                 Running object number                                     
#   2 MAG_AUTO               Kron-like elliptical aperture magnitude                    [mag]
#   3 X_IMAGE                Object position along x                                    [pixel]
#   4 Y_IMAGE                Object position along y                                    [pixel]
#   5 X_WORLD                Barycenter position along world x axis                     [deg]
#   6 Y_WORLD                Barycenter position along world y axis                     [deg]
#   7 A_WORLD                Profile RMS along major axis (world units)                 [deg]
#   8 B_WORLD                Profile RMS along minor axis (world units)                 [deg]
#   9 THETA_WORLD            Position angle (CCW/world-x)                               [deg]
#  10 FWHM_WORLD             FWHM assuming a gaussian core                              [deg]
#  11 ELONGATION             A_IMAGE/B_IMAGE                                           
#  12 ELLIPTICITY            1 - B_IMAGE/A_IMAGE                                       
         1 -14.5176    200.7254     39.7521   4.3415028891e+01   3.0829186466e+01     1.964523     1.408602  34.74  0.006430416    1.839    0.456
         2 -14.4235    211.8036     28.5808   3.9337164348e+01   2.9641369868e+01     1.220366    0.9618513  -1.86  0.002662199    1.787    0.440
         3 -12.0758      2.7386     22.7376   9.8414845721e+01   7.1241677886e+01    0.4298669     0.110493 -50.16  0.001950305    2.717    0.632
         4 -12.5541      2.2330      3.3344   9.0177719755e+01   7.4454851565e+01    0.5521947    0.3572328 -45.01  0.003786054    1.634    0.388
         5 -13.2435    236.9857      4.1910   3.1675471233e+01   2.6800495560e+01    0.7971545    0.4429966  79.66  0.004646958    1.665    0.399
         6 -10.1716    113.0271    206.0337   1.0133038079e+02   1.6567210193e+01    0.2269487    0.1525484  64.78  0.001031175    1.728    0.421
         7 -12.2970    139.5274    248.4721   1.0137587786e+02   4.4773550389e+00    0.4479411    0.4160796  -8.90  0.003157316    1.248    0.199
         8 -13.8370     69.8201    172.6096   1.0698844394e+02   3.0637686978e+01     2.395705     1.089355 -33.69   0.00649837    6.705    0.851
         9 -13.7555     69.1612    155.9952   1.0469230458e+02   3.4782705868e+01    0.6082379    0.5013731 -44.69   0.00136499    1.305    0.234
        10 -15.0718     68.5929    144.2445   1.0290480820e+02   3.7779307949e+01     5.039285     2.647878  68.34   0.01046904    3.303    0.697
        11 -10.2768     30.3342    202.0734   1.1937528702e+02   2.8482403538e+01    0.2837992    0.1416637  41.76 0.0006753727    1.839    0.456
        12 -11.3951     61.7728    199.4114   1.1221100420e+02   2.5453368021e+01    0.3884363    0.2268041 -60.14 0.0009011974    1.731    0.422
        13 -10.1468     66.2367    194.5667   1.1064732797e+02   2.5969992140e+01    0.2586371      0.21635  31.07 0.0007848434    1.346    0.257
        14  -9.1085    133.9762    196.0245   9.4965887606e+01   1.5178498982e+01    0.1666739    0.1591038  40.32 0.0003660083    1.023    0.023
        15  -9.6990    120.0104    194.0267   9.7895258842e+01   1.7980689489e+01    0.2059733    0.1929352  58.56 0.0003126903    1.032    0.031
        16 -14.7981     24.3482    226.7544   1.2227080140e+02   2.3902789827e+01     1.599702    0.7934762  70.95  0.005053978    1.836    0.455
        17 -16.3973      6.8338    246.6959   1.2643097973e+02   2.1783896214e+01     2.191469     0.952674  34.47   0.01317242    2.259    0.557
        18 -14.5974     57.0240    239.4121   1.1687156027e+02   1.7704124892e+01    0.9954123     0.647041 -87.24  0.004049525    1.526    0.345
        19  -8.7679    156.6626    189.7503   8.8672278740e+01   1.2457113191e+01    0.1426534    0.1078698   7.38 0.0001806192    1.563    0.360
        20  -9.4908     72.0782    188.2270   1.0850365624e+02   2.6643868714e+01    0.1837647    0.1549207  71.33 0.0004481733    1.090    0.083
        21 -16.4460     30.4629    249.4653   1.2246968648e+02   1.8871561683e+01     11.35752     3.594082  24.60   0.02673619   14.650    0.932
        22  -9.0237     80.4811    184.0001   1.0590940059e+02   2.6450640105e+01    0.1983296    0.1304255 -68.45 0.0006272881    1.506    0.336
        23  -9.3819     69.7411    183.9989   1.0853046532e+02   2.7944102916e+01    0.1852361    0.1550702 -86.01   0.00035109    1.113    0.102
        24  -8.9734     90.9819    182.4404   1.0310329680e+02   2.5259260353e+01    0.1960706    0.1316109  39.27 0.0002901587    1.453    0.312
        25 -10.2311     99.3927    180.7283   1.0075921099e+02   2.4345045264e+01    0.2457991    0.2361619  13.71 0.0006161236    1.168    0.144
        26 -10.1788    143.4775    179.0097   8.9714379386e+01   1.7094204475e+01    0.2338591    0.1930989  37.08 0.0005409389    1.164    0.141
        27 -10.0695    189.0210    178.0064   7.9302212678e+01   8.8376477132e+00    0.2684649    0.1932351  64.69   0.00124707    2.096    0.523
        28  -9.8513    149.2788    176.9370   8.7949669977e+01   1.6464273830e+01    0.2036568    0.1861059 -40.46 0.0004716839    1.127    0.113
        29 -10.1880    146.5205    172.0386   8.7641471948e+01   1.8031644838e+01    0.2253197    0.1477749 -51.73  0.001025356    1.600    0.375
        30 -10.0256     34.6084    171.5606   1.1567429143e+02   3.5044103026e+01     0.233975     0.183725  75.19 0.0007725432    1.152    0.132
        31 -14.6392     42.9698    199.6166   1.1643638932e+02   2.7663650282e+01      2.38724     1.132461  77.98  0.004599005    2.545    0.607
        32 -10.5549    137.3796    167.7071   8.8990848927e+01   2.0701175654e+01     0.359733    0.2248321  52.57  0.001134684    1.769    0.435
        33 -12.8246     12.0295    188.9399   1.2232927446e+02   3.3131928144e+01    0.2431515    0.2031206  70.63 0.0007440682    1.125    0.111
        34  -9.9840    155.6867    157.2004   8.2374807565e+01   1.9474910792e+01    0.4641405    0.2935052 -80.36  0.001567967    3.547    0.718
        35 -11.3196    133.7918    145.0989   8.5116379801e+01   2.6526269204e+01     1.202103    0.3292916 -54.89  0.002876018    5.426    0.816
        36 -10.5073    174.5463    148.9961   7.6197503927e+01   1.7405496381e+01    0.2753195    0.2686511 -74.13 0.0007935941    1.140    0.123
        37  -9.1569    110.7738    149.1775   9.2078287511e+01   2.9902013889e+01    0.2562068    0.1594848  74.09 0.0009388158    2.757    0.637
        38 -12.2835     88.1206    153.9743   9.9172805430e+01   3.2525704806e+01    0.6278193    0.4434008 -24.84  0.001473726    1.946    0.486
        39 -10.7241     38.6218    146.2462   1.1166543570e+02   4.0802015501e+01    0.3317823    0.2266632  44.69  0.001191845    1.555    0.357
        40 -11.0420     82.5283    142.2970   9.8564917884e+01   3.6267094982e+01    0.2940083    0.2412607  73.26 0.0008847779    1.338    0.253
        41 -11.0506    102.1305    139.3270   9.2391223572e+01   3.3804914420e+01    0.5727794    0.3681729 -20.30  0.002252481    2.484    0.597
        42 -12.3751     89.4883    139.1574   9.5950805833e+01   3.5958848321e+01     0.292925    0.2558122 -41.84 0.0004627145    1.166    0.143
        43 -10.6629    106.0179    130.8679   8.9414982291e+01   3.5161507417e+01    0.3637663    0.3218326 -73.38  0.001212381    1.191    0.160
        44 -10.3638    111.4246    129.8282   8.7640196882e+01   3.4417122567e+01    0.3336775    0.2655653  -6.14 0.0007702296    1.584    0.369
        45 -12.3359     44.3445    129.6077   1.0755788221e+02   4.4354347602e+01    0.5039988    0.2881428 -78.03  0.001953898    1.812    0.448
        46 -12.1373     39.9430    127.3017   1.0851795338e+02   4.5377747675e+01    0.5617551    0.2384435 -68.30  0.002364041    2.125    0.529
        47 -11.3940    135.6059    126.7740   8.0314128189e+01   3.0346327984e+01    0.7596099    0.1783204 -49.62  0.001872566    4.733    0.789
        48  -9.9740    160.7149    127.7294   7.4308579854e+01   2.4792896912e+01    0.3226809    0.1894341 -62.29  0.001181391    2.476    0.596
        49 -10.8848     98.6592    125.9326   9.0406681613e+01   3.7658407364e+01    0.3232438    0.2570275 -13.20  0.001336805    1.547    0.354
        50 -11.2535    118.7021    122.9985   8.3946782930e+01   3.4631806539e+01    0.6691042    0.4104251  -9.91  0.002166387    3.575    0.720
        51 -10.1837     89.9941    123.0754   9.2327539120e+01   3.9821929204e+01    0.5233272    0.2919798  66.71  0.001728255    3.626    0.724
        52 -14.9507     53.5473    189.1604   1.1300326134e+02   2.8805475398e+01     6.133737      2.44917  68.74   0.01897655    5.107    0.804
        53 -12.6962     33.8576    118.5452   1.0898374590e+02   4.8124085278e+01    0.4424298    0.2915549 -35.97   0.00235029    1.664    0.399
        54 -10.0869    107.8702    118.9785   8.6034922796e+01   3.7651904762e+01    0.2209035    0.2127351 -37.65 0.0003628444    1.009    0.009
        55 -11.6478     28.9162    129.1465   1.1210697418e+02   4.5940815515e+01    0.3149474      0.25667  88.99  0.001307076    1.184    0.155
        56 -11.8578    109.8002    200.9775   1.0134020966e+02   1.8156286271e+01    0.4716579    0.2807946 -45.97  0.001781213    1.912    0.477
        57 -10.2350    205.3534    110.2626   6.0630091071e+01   1.8472774449e+01    0.3236647    0.2544994  37.83  0.001046288    1.397    0.284
        58 -11.1603    117.8308    109.4851   8.0700823649e+01   3.7904300631e+01     0.509915    0.2917205  52.54  0.002026642    2.024    0.506
        59  -9.4137    140.0061    106.6981   7.3923007183e+01   3.3825714882e+01    0.2185757     0.202809  54.69 0.0005486603    1.122    0.109
        60 -10.5055    247.0124    106.4950   5.3098310044e+01   1.0645359817e+01    0.1816733    0.1102677  27.58 0.0008106094    2.595    0.615
        61  -9.9349    134.5386    105.9763   7.5152014017e+01   3.5174884357e+01    0.2453655    0.1525804 -43.24 0.0009167469    1.582    0.368
        62 -11.9804     41.8268    103.9514   1.0369047752e+02   5.0938579597e+01    0.4416644    0.2894527  42.75  0.001699992    1.775    0.437
        63  -8.8975     93.4665    205.5302   1.0571812265e+02   1.9703568477e+01    0.1312117    0.1219654  58.80 8.529206e-05    1.067    0.063
        64 -11.1540     32.7039     99.6093   1.0596960163e+02   5.2843570711e+01    0.3781907    0.2021975  34.83  0.001724623    2.130    0.530
        65 -10.3709    127.9426     94.9947   7.3820793065e+01   3.8935010628e+01    0.3380143    0.2206014  60.47 0.0008792642    1.889    0.471
        66 -10.2462     53.0004     90.7149   9.6749858587e+01   5.2862090323e+01    0.1937793    0.1747209 -28.51 0.0004762786    1.075    0.070
        67  -9.9806    156.4173     88.4510   6.4792221057e+01   3.3761817177e+01    0.3421206    0.2305102 -76.04  0.001007524    2.364    0.577
        68 -11.3172    107.7613    204.0229   1.0224689620e+02   1.7829327703e+01    0.2810087     0.221798 -69.50  0.000430606    1.355    0.262
        69  -9.4592    115.8054     84.7874   7.4186949366e+01   4.3633213322e+01    0.2088962    0.1788025  67.16  0.001044459    1.374    0.272
        70  -8.7392     75.4367     85.4534   8.7321631121e+01   5.0965809983e+01    0.1433898     0.132847 -33.81 0.0001192099    1.043    0.042
        71 -10.0754    158.9555     82.2582   6.2441590533e+01   3.4314166867e+01    0.2147585    0.2028611  52.97  0.000567319    1.062    0.059
        72  -9.8519     54.7347     65.7523   8.8979889860e+01   5.8139178237e+01    0.2403745    0.1766977  40.25 0.0009030826    1.598    0.374
        73  -9.0502     83.2786     61.4399   7.6845352300e+01   5.4552288472e+01     0.193834    0.1338296  51.45 0.0009384133    1.742    0.426
        74 -10.8714     13.4125     59.8478   1.0461896216e+02   6.3330009678e+01    0.2478131    0.1882332 -56.16 0.0004505915    1.174    0.148
        75 -13.3592    190.7991     46.8678   4.6635612441e+01   3.2247107254e+01    0.8652655    0.6429447  35.17 0.0009642325    1.665    0.400
        76 -12.2001    194.7173    197.7805   8.1987447654e+01   4.2320974506e+00     1.194207    0.7072563 -63.19  0.004659818    3.590    0.721
        77 -16.8024      7.5307    200.6122   1.2400583048e+02   3.0956846516e+01       8.4256     1.328374 -75.45   0.01807091    4.888    0.795
        78 -11.4152    141.2841     46.6372   5.5377137076e+01   4.4395939549e+01    0.4196014    0.2952636 -80.28 0.0007835742    1.993    0.498
        79  -9.8294    144.6909     41.6858   5.3058795468e+01   4.4251679163e+01    0.1955912    0.1650166 -77.27 0.0004274246    1.342    0.255
        80 -10.0521    141.8399     39.2252   5.2843257840e+01   4.5272266365e+01    0.2503834    0.1996989 -41.34 0.0005053417    1.335    0.251
        81 -11.5737      2.5021     29.6597   1.0103157065e+02   6.9995978675e+01    0.3144029     0.177512 -55.03  0.001875001    1.573    0.364
        82 -10.7173     59.3856    220.5917   1.1481627760e+02   2.1179239221e+01    0.2832956    0.2598494  15.07  0.001253102    1.455    0.313
        83  -9.0935     37.8901    215.8418   1.1885816073e+02   2.4710005875e+01    0.1613259    0.1073976  64.13 0.0004512383    1.276    0.217
        84 -10.5352    198.0672     23.7342   3.9645677178e+01   3.3416809206e+01    0.2626628    0.2003706 -12.84  0.001183752    1.684    0.406
        85 -10.9285    188.0007     31.0267   4.2776606695e+01   3.4970234758e+01    0.2100357    0.1912364  86.98 0.0005959596    1.029    0.029
        86  -9.4000    189.6932     14.9755   3.8334453645e+01   3.6365927919e+01    0.1771993    0.1582363 -63.37 0.0005348521    1.110    0.099
