#   1 NUMBER                 Running object number                                     
#   2 MAG_AUTO               Kron-like elliptical aperture magnitude                    [mag]
#   3 X_IMAGE                Object position along x                                    [pixel]
#   4 Y_IMAGE                Object position along y                                    [pixel]
#   5 X_WORLD                Barycenter position along world x axis                     [deg]
#   6 Y_WORLD                Barycenter position along world y axis                     [deg]
#   7 A_WORLD                Profile RMS along major axis (world units)                 [deg]
#   8 B_WORLD                Profile RMS along minor axis (world units)                 [deg]
#   9 THETA_WORLD            Position angle (CCW/world-x)                               [deg]
#  10 FWHM_WORLD             FWHM assuming a gaussian core                              [deg]
#  11 ELONGATION             A_IMAGE/B_IMAGE                                           
#  12 ELLIPTICITY            1 - B_IMAGE/A_IMAGE                                       
         1 -11.5368     38.5633     88.6359   1.1570657773e+02   5.3681168146e+01     2.243143    0.6886197 -51.60  0.009112065    2.947    0.661
         2 -12.6045    144.8721     52.6475   7.4972154069e+01   4.2442516098e+01      3.40117     1.895193  37.43   0.01020382    2.123    0.529
         3 -12.8282    101.6212     77.9734   9.4255580702e+01   4.7080588497e+01     3.323698     1.957393  33.30   0.01473158    2.107    0.525
         4 -12.6464     52.0937     91.6853   1.1221599404e+02   5.1531933141e+01      2.73969    0.7337011 -48.96  0.009399474    3.920    0.745
         5  -9.0036      8.1511     60.8278   1.2072352411e+02   6.2315440410e+01     1.842726    0.9592941  87.10  0.009738074    2.271    0.560
         6 -12.0304    117.4473     46.8294   7.9557805243e+01   4.9836165326e+01     1.851401    0.7335089 -33.49  0.006691338    2.499    0.600
         7 -11.4747     69.7749     19.3386   8.2783176720e+01   6.3755625813e+01      1.12146    0.7021284  19.82  0.005605601    2.024    0.506
         8 -12.3702     86.4411     55.6930   9.1776047475e+01   5.4375976590e+01     1.841513     1.326382 -60.73  0.008861274    1.546    0.353
         9 -12.6311     78.0454     31.4232   8.5286932348e+01   6.0347803014e+01      1.98888     1.484971   8.01   0.01077896    1.586    0.370
        10 -11.7231    142.6090     37.0254   6.9900134875e+01   4.5426165404e+01     2.796873     1.220771  43.18   0.01012864    2.523    0.604
        11 -11.1460     98.8300     40.2571   8.2270850244e+01   5.4906466992e+01     1.444547    0.7097884 -19.41  0.004926398    3.469    0.712
        12 -11.8390    129.8825     20.1343   6.6097679571e+01   5.0872435656e+01     1.350483    0.5853174  55.90  0.004350575    2.198    0.545
        13 -11.2064    128.2537     14.6587   6.4195321410e+01   5.1929648485e+01     1.163379     0.463886  49.43  0.004449447    2.358    0.576
        14 -11.5749    112.0680     22.0251   7.1069309129e+01   5.4862406691e+01    0.9270104    0.7668257 -56.50  0.005007333    1.426    0.299
        15 -10.5960    117.5407     15.4905   6.6922981011e+01   5.4424598080e+01    0.3815498    0.3156843 -88.76 0.0008164869    1.510    0.338
        16 -11.8619    112.9732      8.2915   6.4814693806e+01   5.6328534961e+01     1.150528    0.5929794  61.22  0.005082472    1.999    0.500
        17 -13.3819     99.1889      6.9018   6.7567639710e+01   5.9622763299e+01     0.994758    0.6208722  48.42  0.002284847    1.561    0.360
        18 -11.2651    111.0139     30.5908   7.4937301397e+01   5.3878748244e+01    0.7423924    0.4500954  77.77  0.001714231    2.845    0.648
        19 -10.5407     16.9926     37.7523   1.1196321745e+02   6.6707631084e+01     1.252968    0.7264795 -60.69  0.007565126    1.363    0.266
        20 -10.7741     51.7295     23.2737   9.1606851086e+01   6.5897721636e+01    0.8666183    0.4420632 -23.39  0.003790972    2.675    0.626
        21 -10.7409     69.3594      3.7789   7.5044551729e+01   6.6011804491e+01    0.6510223    0.3702526  29.40  0.003280664    1.936    0.483
        22 -11.5492     50.2070      9.8472   8.5738718147e+01   6.8319770633e+01    0.3832735    0.2774932 -19.99 0.0009461657    1.218    0.179
        23 -11.8921     56.8093      4.1161   7.9925152429e+01   6.8128196764e+01    0.5796351    0.4887886  17.58  0.001642252    1.189    0.159
        24 -12.0781     28.8173     25.9922   1.0274612513e+02   6.8085291560e+01     1.093052    0.5067196 -36.24  0.004171694    2.110    0.526
        25 -10.1277     30.8630     13.0688   9.6207994104e+01   7.0259001142e+01    0.8669991    0.3074757 -31.47  0.003145969    4.158    0.759
        26 -10.9497     40.7012     21.4094   9.5485851719e+01   6.7654243350e+01    0.4056933    0.1978966 -48.23  0.001795341    1.801    0.445
        27 -10.8393     41.6815     14.7467   9.1955782535e+01   6.8695454749e+01    0.6972061    0.5925759  60.91   0.00457653    1.770    0.435
        28 -11.2117     22.6462      4.5456   9.6114038242e+01   7.2576206207e+01    0.9128135    0.5215964  34.91  0.005541456    2.163    0.538
        29 -11.8618     19.7867     13.7434   1.0204857836e+02   7.1228812965e+01    0.6519158    0.3542696  28.81   0.00388434    2.232    0.552
        30 -12.2280      8.7347     24.8787   1.1180714497e+02   6.9909141748e+01    0.8371425    0.5957099 -38.23  0.003903966    1.255    0.203
        31 -11.7611     12.4885      8.0465   1.0335243228e+02   7.2876344131e+01    0.3779112    0.3222382 -46.44  0.002871527    1.215    0.177
        32 -12.3954      3.3499     17.4153   1.1200785005e+02   7.1718453243e+01    0.3767232    0.1806006 -43.06 0.0009980069    1.654    0.395
        33 -13.6104      4.1186      9.4615   1.0860662868e+02   7.3205052375e+01    0.5896311    0.2765325 -55.52 0.0005986565    1.625    0.385
        34 -10.1612    231.1854     17.5786   5.0582533690e+01   2.4745052239e+01     1.013801    0.2914001 -24.52  0.003441572    3.173    0.685
        35 -10.7553    243.3002     11.5286   4.7879912394e+01   2.2420918318e+01    0.8208622    0.3423618 -17.12  0.003248176    2.647    0.622
        36 -10.4096    239.5171     16.8125   4.9612478215e+01   2.2784608732e+01    0.7181068    0.2398442 -36.22  0.002299381    2.439    0.590
        37 -10.2513    233.7041     10.8612   4.8501408707e+01   2.4819505475e+01     0.302787    0.2772671   5.33  0.001813671    1.221    0.181
        38 -10.1584    233.7320      7.0923   4.7468228678e+01   2.5188717535e+01    0.2940483    0.2239102  47.97  0.000383932    1.466    0.318
        39  -9.8260    185.0595     14.0610   5.4591461281e+01   3.7113821770e+01    0.5240973    0.2389099  61.65  0.001867019    2.054    0.513
        40 -11.0077    175.9381     16.0879   5.6501355798e+01   3.9342514250e+01    0.6599635     0.286754 -40.24  0.002136211    2.280    0.561
        41 -10.9488    177.3962     28.8107   6.0609030551e+01   3.7477217995e+01    0.7351775    0.4734994 -23.29  0.002977041    1.564    0.361
        42 -10.7120    183.8340     26.7082   5.8939661395e+01   3.6019036002e+01    0.8900008     0.505268  19.62  0.003372596    2.624    0.619
        43 -10.1148    166.9269     24.4971   6.0793016690e+01   4.0787757562e+01     0.595157     0.365624   6.90  0.002438083    2.190    0.543
        44  -9.9637    162.8621     16.8183   5.8711598281e+01   4.2756023628e+01     0.580875    0.4449432  37.63  0.002914637    1.349    0.259
        45 -10.4930    156.7505     14.4948   5.8843938751e+01   4.4630767080e+01     1.002175    0.5353346 -45.95  0.004157548    2.052    0.513
        46 -10.8276    166.5602     11.8563   5.6368669430e+01   4.2300883902e+01    0.7106553     0.395589 -82.05  0.001408403    2.524    0.604
        47  -9.0886    168.4236      8.2615   5.4825115546e+01   4.2164506780e+01    0.2744261    0.1670679 -52.38   0.00108701    1.826    0.452
        48 -10.8418    163.8989      5.1012   5.4322419787e+01   4.3678649589e+01    0.5567008    0.4870403   1.29  0.002068774    1.198    0.165
        49 -10.9724    146.9715     19.6600   6.2491179655e+01   4.6605797118e+01    0.6367037    0.4286678  10.72  0.001353952    1.794    0.442
        50 -10.7998    150.8688     13.8466   5.9582131420e+01   4.6248811213e+01    0.5321882    0.3814979 -42.08  0.001451355    1.451    0.311
        51  -9.4596     80.5277     18.8593   7.8828538092e+01   6.1896564694e+01    0.3283798    0.1950109  58.64  0.001570906    2.196    0.545
        52  -9.8680    221.2267     10.4416   4.9502979088e+01   2.7987984818e+01    0.8050449    0.3823783 -74.79  0.003030583    2.894    0.654
        53  -9.9032    226.4599      8.5837   4.8500225898e+01   2.6850562270e+01    0.2691332    0.2433016  70.04  0.000638479    1.152    0.132
        54 -10.5951    212.0489     14.3400   5.1550887809e+01   2.9947358907e+01    0.5982736    0.3344855 -29.61  0.001848626    1.678    0.404
        55 -10.4811    201.3640     19.1802   5.4215711906e+01   3.2226353493e+01    0.6188107    0.3555794  49.38  0.002420851    1.808    0.447
        56  -9.5019    141.3960     11.5427   6.0356890118e+01   4.8956777698e+01    0.2366223    0.2134053   1.56   0.00024836    1.108    0.097
        57  -8.7878    138.2939      8.4139   5.9669799989e+01   5.0078923807e+01    0.2581475    0.2020129  65.14   0.00101453    1.283    0.221
        58 -10.4887     77.3035      9.0907   7.5120070870e+01   6.3859850245e+01    0.2834415    0.2554688 -24.54 0.0009281423    1.166    0.142
        59 -10.5158     79.0653      4.1281   7.1992317188e+01   6.4135279694e+01    0.4838943    0.2309781  37.31 0.0008693718    2.220    0.550
        60 -10.4984    221.5521      2.6592   4.7250295990e+01   2.8663382370e+01    0.8176738    0.2397425  56.93  0.002878144    3.230    0.690
        61  -9.3101    230.8311      2.6758   4.6493482996e+01   2.6332298433e+01    0.4301901     0.167236  57.17  0.000963048    2.595    0.615
        62 -10.0061    189.6289      8.0571   5.2066552877e+01   3.6499489129e+01    0.4529814    0.1904715  56.68  0.001486432    2.225    0.551
        63  -9.2964    204.3947      6.2749   4.9906457103e+01   3.2756346940e+01    0.2265717    0.2000619 -20.84 0.0006593344    1.163    0.140
        64  -9.9213    196.3574      5.2873   5.0433413636e+01   3.4973817145e+01    0.5125566    0.3158013   6.11  0.002271437    2.079    0.519
        65 -10.4765    211.1148      4.5412   4.8729510061e+01   3.1166688031e+01    0.4869356    0.2889864  39.54  0.001780456    1.983    0.496
        66 -10.3090    206.6171      2.7657   4.8623474408e+01   3.2505771176e+01    0.4241285    0.3094613  82.42  0.002206705    1.368    0.269
        67 -10.5563    200.1769      6.3607   5.0366438596e+01   3.3859542119e+01    0.4851003    0.3502298 -35.63 0.0009061228    1.339    0.253
        68  -9.6260    201.0321      1.4767   4.8768895730e+01   3.4091231317e+01    0.2238622      0.18194 -51.01 0.0003574321    1.199    0.166
        69  -9.5855    249.5872      7.3267   4.6294895332e+01   2.1352876548e+01     0.373371    0.1955708 -50.27  0.001782345    1.781    0.439
        70  -9.2304    248.7576      1.9626   4.4974013070e+01   2.2068402359e+01    0.2587328    0.1793437 -33.05   0.00115257    1.295    0.228
        71  -8.7450    185.9794      4.9949   5.1488255124e+01   3.7769378574e+01    0.1928022    0.1847756 -83.09   0.00110856    1.017    0.016
        72 -10.4654    181.1790      4.9037   5.2021946361e+01   3.9064487393e+01    0.6893516    0.4014606 -75.50  0.002927284    2.111    0.526
        73  -9.5890    175.4512      4.0615   5.2435166020e+01   4.0680047884e+01    0.6100025     0.360497  16.17   0.00259417    2.190    0.543
        74 -11.0847    132.5659      4.6394   5.9173342929e+01   5.1911193038e+01    0.6286846     0.337701  53.86  0.002357009    1.722    0.419
        75 -11.0242    139.5642      1.7497   5.6756537267e+01   5.0393039617e+01    0.4616971    0.2809083  72.76 0.0009463748    1.718    0.418
        76  -8.4093     37.5868      6.0794   8.9407029399e+01   7.0625003882e+01    0.1498043    0.1352946 -22.25 0.0007901927    1.221    0.181
        77  -9.0602    155.5939      5.6403   5.5723888186e+01   4.5837702079e+01    0.5222128    0.1011548  64.28   0.00148864    4.058    0.754
        78  -9.4587     37.7864      1.4030   8.6703700316e+01   7.1308864011e+01    0.2377739    0.1133282  34.64  0.001196937    2.368    0.578
        79 -10.4353     41.9931      2.6905   8.5470298488e+01   7.0552980189e+01    0.3377643    0.2519605 -32.76  0.002196211    1.211    0.174
        80  -8.9138    122.5146      3.7998   6.0758758476e+01   5.4497867147e+01    0.2573484    0.2060106 -65.66  0.001109958    1.525    0.344
        81  -9.1258     11.1996    248.4047   1.3418360183e+02   2.5508156497e+01    0.1324968   0.04921745  51.40 0.0008583615    1.715    0.417
        82  -9.8042    234.8166    249.3062   1.0030335524e+02  -4.0554390129e+00    0.2626133    0.1299168  38.45  0.001766316    1.468    0.319
        83  -9.2458    183.8703    250.0985   1.0804718710e+02   3.1808378589e+00     0.162589     0.116465  49.18  0.001244761    1.262    0.207
        84  -8.7894    161.5079    250.4679   1.1154108279e+02   6.4109711167e+00    0.1060802   0.07641084  44.22 0.0008097622    1.002    0.002
        85  -8.7071      3.5308    245.9743   1.3518586194e+02   2.6581420154e+01    0.1039046    0.0596891 -63.66 0.0008097864    2.572    0.611
        86 -11.7324      4.5068     83.3691   1.2528982104e+02   5.7550243839e+01     1.648051    0.3274989 -69.38  0.006631457    3.209    0.688
        87  -9.5858    189.4745    245.1680   1.0660823690e+02   2.8679948661e+00    0.1931952    0.1224525  63.53  0.001208913    2.340    0.573
        88 -10.9432     71.5576     53.5030   9.5909517081e+01   5.7265001097e+01    0.6655589    0.3878942 -53.35  0.002158055    1.623    0.384
        89 -11.7500    101.5916     54.1671   8.6635637134e+01   5.1843676573e+01    0.9905317    0.5721748  35.45  0.002349996    2.049    0.512
        90 -10.0432    142.4764    243.3955   1.1380655061e+02   1.0031764927e+01    0.2662066     0.143635  31.25  0.001491535    2.151    0.535
        91 -13.0389     16.8992    101.7252   1.2394151561e+02   5.2632181001e+01     2.018478    0.7846772 -49.31  0.009567398    2.899    0.655
        92 -11.2915     15.0073     87.9449   1.2271840610e+02   5.5844377724e+01    0.4652719    0.3577219  84.65  0.003064545    1.200    0.167
        93 -12.8660     37.8950     65.7585   1.1118407451e+02   5.8878883392e+01     1.865683     1.098634  22.38   0.01026353    2.232    0.552
        94 -11.6645     43.6396     49.7303   1.0474927158e+02   6.1744980387e+01    0.7667211    0.4487059  21.45  0.003927303    2.257    0.557
        95 -11.4669     34.2308     43.3453   1.0645342050e+02   6.4066936145e+01    0.7317079    0.4062176  30.52  0.003815166    2.181    0.541
        96 -12.1038     54.5618     36.9840   9.6150431895e+01   6.2985087614e+01     1.328514    0.4581737  36.26   0.00540525    3.410    0.707
        97 -10.9652     53.2232     30.2196   9.3988395147e+01   6.4442880242e+01    0.6125035    0.2725384  30.11  0.002673773    2.907    0.656
        98 -11.4440     68.0330     76.0909   1.0377357981e+02   5.2982709970e+01    0.5367069    0.3170339 -48.71  0.001357132    1.519    0.342
        99 -12.1090     56.6614     70.0102   1.0586020966e+02   5.5833161747e+01     1.289587    0.4674538  29.49  0.004973959    3.810    0.738
       100  -9.1098    168.3024    242.3331   1.0959244501e+02   6.3345714386e+00    0.1029113   0.07119086  22.98 0.0007035747    1.657    0.396
       101 -11.4902     17.7876     81.4773   1.2092198921e+02   5.7088881674e+01    0.2252344    0.2161926  64.42   0.00043643    1.295    0.228
       102 -11.7432     78.7780     60.7478   9.5896866105e+01   5.4644200804e+01     1.136663    0.4764825 -35.22  0.004058054    3.192    0.687
       103  -9.5471     12.6323    232.1826   1.3343067826e+02   2.7817733910e+01     0.218006   0.08774073  62.58  0.001514193    1.733    0.423
       104  -9.6781     12.6831    238.6399   1.3364985417e+02   2.6820454460e+01    0.1118722   0.08234455  44.26 0.0009926743    1.604    0.376
       105  -9.8115    105.0393    117.7304   1.0314104919e+02   3.7955656715e+01    0.5018211    0.3641757  80.63   0.00256928    1.630    0.386
       106  -9.8567     98.6376    114.4012   1.0405194655e+02   3.9771736415e+01    0.9372571    0.2694627  44.13  0.003209424    3.507    0.715
       107  -9.6463     50.9585    118.3779   1.1707128149e+02   4.5650588066e+01    0.3038899    0.2048378  74.52  0.001277035    1.498    0.332
       108  -9.9995     82.5952    114.3998   1.0817094060e+02   4.2337009515e+01    0.3535521    0.2737655  33.65   0.00115226    1.527    0.345
       109  -9.1802     45.3739    113.5708   1.1782611533e+02   4.7348601000e+01     0.209597    0.1980302 -16.93  0.001469599    1.444    0.307
       110  -9.8278    132.6449    111.8385   9.5137715749e+01   3.3973096341e+01    0.3581422    0.3379471 -62.34  0.001532558    1.047    0.045
       111  -8.9781     77.5018     93.5479   1.0518955090e+02   4.7739864248e+01    0.3688358    0.2296138  12.09  0.001387164    3.199    0.687
       112  -9.2411     80.8572     78.6741   1.0051099096e+02   5.0504527380e+01    0.5358362    0.1947718 -58.98  0.001195331    3.197    0.687
       113 -10.9652     67.5072    107.7536   1.1091688625e+02   4.5971665615e+01    0.6160419    0.3446394 -36.55  0.002693055    2.747    0.636
       114 -10.3644     74.2800    107.5943   1.0905359169e+02   4.5070413999e+01     0.371081    0.3216984  74.77  0.001714339    1.143    0.125
       115 -11.1956     77.2064    102.0291   1.0712909119e+02   4.5891008615e+01    0.7549863    0.4806797  30.26  0.003839749    1.972    0.493
       116 -10.4783     87.0362    100.3199   1.0405937752e+02   4.4764883481e+01    0.4814651     0.343778 -68.88  0.001048662    1.377    0.274
       117 -10.9937     88.8332     91.9990   1.0161081196e+02   4.6307105141e+01     1.130047     0.637909 -68.89  0.004905578    2.169    0.539
       118  -9.7491     82.5243     90.4372   1.0302087531e+02   4.7662544407e+01    0.2546822    0.2387481  30.29 0.0009741266    1.243    0.195
       119 -10.0465     81.8309     87.1174   1.0240749333e+02   4.8503254501e+01     0.366584    0.2285786 -38.18 0.0007816497    1.823    0.451
       120 -10.0208     37.5982    109.4544   1.1930855984e+02   4.9081191441e+01    0.2536733    0.2070031 -67.54 0.0007161223    1.165    0.141
       121  -9.2913     32.4900    108.8654   1.2060239108e+02   4.9708489019e+01    0.2845512    0.2695136  31.50  0.002103599    1.391    0.281
       122  -8.8390    104.1544    109.1037   1.0150431219e+02   3.9965243715e+01    0.2108247    0.1877134 -32.16 0.0006743683    1.307    0.235
       123 -11.2324      4.2420     99.6386   1.2718588754e+02   5.3979724798e+01    0.4489616    0.2508012 -61.10  0.001933553    1.563    0.360
       124  -9.4482     53.4557    105.1649   1.1430418618e+02   4.8324802520e+01    0.3150718    0.1121129 -66.38  0.001292018    2.550    0.608
       125 -10.2255    133.4616    103.4044   9.2880381233e+01   3.5512226947e+01    0.4283776     0.263191 -43.34  0.001945674    1.623    0.384
       126  -8.7738    105.8119    102.7319   9.9611686741e+01   4.1040834987e+01    0.1984031    0.1865499 -36.40 0.0006143975    1.175    0.149
       127  -8.3484     96.7524    102.9703   1.0204504400e+02   4.2579942576e+01    0.1856917    0.1648546 -66.72  0.001075879    1.042    0.040
       128  -9.6995     64.3993     97.8281   1.0985666220e+02   4.8618178654e+01    0.2933989    0.2599021  83.89 0.0009669768    1.118    0.105
       129 -10.3752    116.8278     99.5193   9.5996199978e+01   3.9658375390e+01    0.4370837    0.3048777  -7.76  0.001833912    2.617    0.618
       130 -10.4816    114.4423     94.6004   9.5351283686e+01   4.1153343165e+01    0.3720331    0.3479638 -81.64  0.002128331    1.057    0.054
       131 -10.1717    121.2274     91.8341   9.2877891088e+01   4.0384717604e+01     0.229852    0.2016846 -18.27 0.0005431507    1.313    0.239
       132  -9.7478    159.5261     97.2126   8.5319870610e+01   3.1012490733e+01    0.3149415    0.2691122  70.02  0.000859769    1.271    0.213
       133  -9.2112    141.2780    102.5978   9.0835311637e+01   3.4024233978e+01    0.3376215    0.2048266 -47.61   0.00150245    1.649    0.393
       134  -8.6689    188.7834     94.2051   7.8583086711e+01   2.4710294167e+01    0.2089022    0.1737165  15.08 0.0006495711    1.328    0.247
       135  -8.6232    187.3772     89.7114   7.7626855181e+01   2.5793095959e+01    0.1946616    0.1425968 -22.60 0.0003352575    1.429    0.300
       136  -8.5940    194.6711     89.6932   7.6271592929e+01   2.4052816265e+01      0.15632    0.1144467  18.61 0.0007038024    1.657    0.396
       137 -11.2300    119.2966     86.0721   9.1790600591e+01   4.1959138128e+01    0.7389717    0.4435805  56.04  0.002817282    1.862    0.463
       138  -9.2371     75.1828     89.4218   1.0490338879e+02   4.9002022796e+01    0.2871287    0.1228424  45.16  0.001206956    2.572    0.611
       139  -8.6602     69.8418     89.3958   1.0646516579e+02   4.9774275704e+01     0.250473    0.1356189  32.68 0.0006763917    2.242    0.554
       140 -10.0367    145.9654     86.6031   8.5413206550e+01   3.6098839554e+01    0.4450644    0.3048677 -23.07 0.0008303389    1.752    0.429
       141  -8.6285    153.0113     87.4696   8.4061790259e+01   3.4323033239e+01    0.2321925    0.1476431  48.17  0.001020886    1.589    0.371
       142  -9.7335    140.6407     84.8424   8.6151552127e+01   3.7635941419e+01    0.4133796    0.2481795 -48.13   0.00162148    1.684    0.406
       143  -8.8787    238.4948     86.4919   6.8340526581e+01   1.4350584735e+01    0.1421792    0.1294222 -13.39 0.0001831609    1.004    0.004
       144  -9.6910    159.9600     81.6757   8.0869308900e+01   3.3755620643e+01    0.3910693    0.3168751 -62.46  0.001144669    1.386    0.279
       145  -9.5200    123.6610     80.5718   8.9087915550e+01   4.2168522767e+01     0.391007    0.2512255  31.46  0.001472336    1.960    0.490
       146  -9.0498     76.7302     83.9333   1.0311421467e+02   4.9988390780e+01       0.2594    0.1770185 -72.60  0.001321739    1.593    0.372
       147  -9.9765    217.0651     80.7906   7.0055225298e+01   2.0084548868e+01     0.573272     0.227388 -24.43  0.001980435    2.780    0.640
       148 -10.6605    134.4055     79.5576   8.6101361522e+01   4.0044761670e+01    0.7320009    0.2914656 -48.87  0.002499656    2.747    0.636
       149 -10.5109    138.6529     76.0621   8.4023393016e+01   3.9759275149e+01    0.4704233    0.2674185 -30.41  0.001369546    1.941    0.485
       150  -9.2547    179.6202     80.5780   7.6539424363e+01   2.9195760254e+01    0.2973235     0.231186  77.09 0.0008553281    1.534    0.348
       151  -9.9548    151.7063     66.9981   7.8196091136e+01   3.8343158543e+01    0.3877707    0.3266595  24.27 0.0009864139    1.313    0.238
       152 -10.4703    150.2478     75.4461   8.1146974584e+01   3.7185327467e+01    0.8568546    0.4696821 -31.39  0.003458569    1.919    0.479
       153 -10.4806    145.1676     76.3423   8.2577453039e+01   3.8210395562e+01    0.4633206     0.290754 -20.95  0.001906759    2.034    0.508
       154 -12.0040     99.2275     70.7191   9.2777929301e+01   4.9028860113e+01     1.806111     1.034896  21.66  0.005766768    3.282    0.695
       155  -9.2587    247.3226     75.4227   6.4306058631e+01   1.3878244755e+01    0.2692573    0.1467547 -43.98   0.00120508    1.872    0.466
       156  -9.2311    213.5256     75.0192   6.9034424458e+01   2.1779035055e+01    0.3720201    0.1986023 -26.05  0.001030309    1.855    0.461
       157  -9.2495    215.5504     71.2899   6.7686679392e+01   2.1831590241e+01    0.2497993    0.2047061 -11.97 0.0006540575    1.240    0.194
       158  -8.3331    203.9915     75.6710   7.0758845096e+01   2.4000704226e+01    0.2596055   0.08942823  40.07            0    4.382    0.772
       159  -8.6264     74.7485     74.9869   1.0138106758e+02   5.2247745915e+01    0.2260762    0.1424232 -33.24   0.00107761    1.922    0.480
       160  -8.5079     78.0198     73.5246   9.9963110212e+01   5.2064193914e+01    0.1881308    0.1293647  53.60 0.0007032141    1.690    0.408
       161  -8.7452    194.0263     75.0000   7.2273151722e+01   2.6556335066e+01    0.2293582    0.1732265  85.86  0.001057641    1.683    0.406
       162  -8.8230    191.0184     72.7374   7.2150204571e+01   2.7657754355e+01     0.232806    0.2023647 -64.31 0.0004077138    1.269    0.212
       163  -8.7548     85.0802     74.3510   9.8038912896e+01   5.0754372172e+01     0.204298    0.1722493  10.32  0.001135379    1.486    0.327
       164  -8.5563    169.1325     70.8684   7.5730592692e+01   3.3408411245e+01    0.2094244    0.1777513  20.10 0.0003876722    1.302    0.232
       165  -8.0345    183.7007     70.7429   7.2887922100e+01   2.9799844493e+01    0.1507046    0.1157482  24.01 0.0001739941    1.504    0.335
       166  -9.7571    165.4444     55.9202   7.1756238658e+01   3.6773916864e+01    0.6478369    0.3534988 -28.89  0.002504076    1.842    0.457
       167 -10.3935    162.5445     66.4641   7.5712170466e+01   3.5781066683e+01    0.4976612    0.3401515 -60.74  0.002155882    1.815    0.449
       168 -10.4303    165.5425     62.6511   7.3898721477e+01   3.5667132199e+01    0.4603927    0.4043388 -39.44  0.001364648    1.121    0.108
       169  -9.2499     84.9382     67.9147   9.6187644464e+01   5.2139946930e+01    0.2804291    0.2154401 -19.83  0.001468691    1.601    0.375
       170 -10.0938    250.4286     64.8525   6.1202638630e+01   1.4554163147e+01     0.569016    0.1405093 -27.15  0.001773239    3.613    0.723
       171  -9.2375    199.0147     63.2615   6.8006983502e+01   2.7100508419e+01    0.2259262    0.2133721 -26.43 0.0001978738    1.023    0.022
       172  -9.5549    201.0603     59.3717   6.6529183439e+01   2.7152198352e+01    0.3134457    0.2637194  43.12  0.001079521    1.231    0.188
       173  -9.1569    185.4249     60.5872   6.9510164459e+01   3.0951947924e+01    0.3775256     0.237311 -64.89  0.001506959    2.218    0.549
       174  -9.3241    171.5193     48.4812   6.8167826510e+01   3.6350634339e+01    0.4196048    0.3675354  45.93   0.00158654    1.157    0.136
       175  -9.7506    178.8380     59.0757   7.0223695990e+01   3.2865763130e+01    0.5083787    0.3184773  -4.34  0.001679773    2.243    0.554
       176  -9.6228    185.9988     53.5577   6.7237318036e+01   3.1855144570e+01    0.4521569    0.3072612   6.28  0.001923579    1.960    0.490
       177  -9.4780    189.0005     49.2488   6.5391307193e+01   3.1698291765e+01    0.2974327    0.2316885 -51.97 0.0004766099    1.342    0.255
       178 -10.2995    174.5681     56.1235   7.0078252820e+01   3.4413113469e+01    0.9600171    0.4094662 -16.88  0.002747391    3.964    0.748
       179 -10.1824    222.3953     56.9817   6.2692137420e+01   2.2157238309e+01    0.4179211    0.3627963  73.84  0.001435552    1.251    0.201
       180  -8.5843    180.4528    234.5148   1.0673732051e+02   5.3891207113e+00    0.1106211   0.08278166  37.02 3.508646e-05    1.059    0.056
       181  -9.1902    158.7479     58.2623   7.3872271878e+01   3.8086797541e+01    0.2946728    0.1942009  36.84 0.0009105111    1.702    0.412
       182 -10.5211    181.7921     51.1022   6.7186207717e+01   3.3302569457e+01    0.5157754    0.4650574 -20.22   0.00160287    1.104    0.094
       183  -8.8606     54.7799     49.6218   1.0054990809e+02   6.0430904782e+01    0.4341911    0.2246337 -57.83  0.002077374    1.871    0.466
       184  -9.4556     58.6885     45.6600   9.7766480897e+01   6.0717987319e+01    0.2658876    0.1885116 -18.25 0.0009198655    1.721    0.419
       185  -9.1553    235.6022     55.1673   6.0464452888e+01   1.9208613870e+01     0.205043    0.1321231 -13.49 0.0009465855    1.662    0.398
       186  -8.7576    202.8311     55.2012   6.5016088756e+01   2.7297746402e+01     0.208285     0.174322  23.97 0.0006624627    1.308    0.236
       187  -9.0146    193.1218     53.8803   6.6152329685e+01   2.9971809476e+01    0.2331171    0.1976678 -59.39 0.0004931775    1.255    0.203
       188 -10.3942    159.5781     50.6357   7.1174527491e+01   3.9091272496e+01    0.5092758    0.3828086  66.92  0.001624417    1.429    0.300
       189 -10.7623     60.6443     52.0277   9.9217243562e+01   5.9154544405e+01    0.9638451     0.517361 -66.47  0.004133356    2.616    0.618
       190  -7.9716    126.6871     50.7486   7.8604995922e+01   4.7080588455e+01     0.146388    0.1135491  19.29 0.0003678016    1.520    0.342
       191  -9.1378    225.8431     49.1654   6.0040643593e+01   2.2340834183e+01    0.2137096    0.1849615 -55.74  0.000271481    1.176    0.150
       192  -8.8488    227.2861    231.5861   9.9019151139e+01  -1.4089708636e+00    0.1536543   0.07608915  34.30 0.0008013939    1.564    0.361
       193  -8.3914     80.5076    230.4999   1.2269209729e+02   2.0455723897e+01    0.1060647   0.07593559  61.16 0.0008106355    1.008    0.008
       194  -8.6153    202.0237    228.9891   1.0258595862e+02   2.6780202665e+00    0.1376184   0.09911018  36.19 0.0004392731    1.051    0.049
       195  -8.9366    110.7652    224.5880   1.1715940425e+02   1.7218091342e+01    0.1626741   0.07715109  51.28 0.0009501957    1.653    0.395
       196  -9.3024     98.1540    224.3310   1.1926255133e+02   1.9035691257e+01    0.2165639   0.08688123  37.01  0.001093691    2.621    0.618
       197  -9.3945     52.4908    223.9675   1.2681452558e+02   2.4915639205e+01    0.1387125   0.08527845 -83.27  0.001027907    1.577    0.366
       198  -8.7863     40.7803    221.4168   1.2856629763e+02   2.6649702849e+01    0.1249095   0.08464617  39.25 0.0009432905    1.675    0.403
       199  -9.8157    110.0047     37.9713   7.8180624531e+01   5.2947084204e+01    0.3830651    0.1870907 -38.04  0.001010443    1.932    0.482
       200 -11.0660    105.9001     33.3300   7.7454464651e+01   5.4575713003e+01    0.3014733    0.2403298 -35.79 0.0003161565    1.206    0.171
       201  -8.3398    121.6648    219.9982   1.1484391520e+02   1.6303710915e+01    0.1645126   0.08458776 -86.26 0.0007052178    4.405    0.773
       202 -10.8078     66.8639     43.8302   9.4139900560e+01   5.9902983836e+01    0.3531083    0.2379079 -34.33 0.0007235231    1.397    0.284
       203  -9.5788    232.0197     44.0828   5.7863289581e+01   2.1473975310e+01    0.4544372    0.2330667  37.04  0.001567903    2.573    0.611
       204  -8.7798    222.6710     45.7113   5.9469195836e+01   2.3568502524e+01    0.1485195    0.1082855  27.75 0.0002627865    1.618    0.382
       205  -7.8870    196.6642     45.7216   6.3090583982e+01   3.0196652347e+01    0.1555637    0.1118042  30.10 0.0002396651    1.612    0.380
       206 -10.1196    152.7723     44.1493   7.0330660094e+01   4.1810783861e+01    0.3895084    0.2510732 -40.60  0.001735635    1.541    0.351
       207 -11.3614     67.3601     62.1346   1.0007950063e+02   5.6097170115e+01    0.3375511    0.3057373 -88.27  0.000530171    1.237    0.192
       208  -9.3722    105.6971     44.5137   8.1915111336e+01   5.2762797656e+01    0.3707083    0.3237375  60.61  0.002051388    1.291    0.225
       209  -8.9495     26.3131    212.3477   1.3044773058e+02   2.9683641530e+01   0.08396147   0.07214063 -67.76 0.0007046607    1.717    0.418
       210  -8.5350    244.3824    204.2726   9.2237505177e+01  -1.3563869295e+00    0.1216114   0.06834719  21.36 0.0006996635    1.704    0.413
       211  -8.7313    234.3753    199.8252   9.3056520077e+01   6.8200435791e-01    0.1566378   0.09860551 -10.08 0.0009496973    1.755    0.430
       212  -8.9579    245.5195    186.9975   8.9111247750e+01   2.4596470567e-01    0.1628029    0.1070716 -19.69 0.0007829064    1.540    0.351
       213  -8.6135      7.6711    185.7277   1.3233736969e+02   3.6144548542e+01   0.08425833   0.07119851 -71.21  0.000205862    1.586    0.369
       214 -10.5660     20.2125    183.8758   1.2998689951e+02   3.5335827155e+01    0.3840508    0.1697063  28.94  0.002151495    3.111    0.679
       215 -10.0155     12.1766    183.7408   1.3143612534e+02   3.6108392081e+01    0.2157921    0.1497055 -62.51  0.001629586    1.818    0.450
       216 -11.2671     36.8617     25.8646   9.9080614770e+01   6.7275751203e+01    0.3211778     0.287532 -20.01 0.0005892714    1.154    0.134
       217  -8.6813     37.3016    179.4200   1.2650729684e+02   3.4444819072e+01    0.1848012    0.1002363  34.86  0.001135573    2.092    0.522
       218  -9.7378      1.8506    178.0300   1.3302567358e+02   3.8063293836e+01    0.2118461     0.107585  83.47   0.00144686    1.495    0.331
       219  -9.2888     26.6926    176.2635   1.2831052860e+02   3.6140842099e+01     0.222816    0.1513276  57.91  0.001637007    1.249    0.199
       220  -8.6585     80.4453    176.4720   1.1777419671e+02   2.9716774393e+01    0.1186942   0.09696255  72.57 0.0002822308    1.017    0.016
       221  -9.1158     36.4952    167.4876   1.2575228043e+02   3.6846226262e+01    0.1115539   0.08637421  80.30 0.0008101087    1.046    0.044
       222  -9.4218     24.5481    167.0650   1.2810351729e+02   3.8135207692e+01     0.160287    0.1183264  59.57 0.0004954072    1.224    0.183
       223 -10.4495     18.5122    165.1610   1.2916921257e+02   3.9077459110e+01    0.3210094    0.1438442  69.33  0.001287507    1.986    0.497
       224 -10.5499     13.2933    165.1764   1.3019711012e+02   3.9543192868e+01    0.2484989    0.1670002  48.10  0.001085265    1.462    0.316
       225  -9.7051    214.4454     41.5405   5.9326714146e+01   2.6169525620e+01    0.4634146    0.2653196  -4.06  0.001547669    2.382    0.580
       226 -12.9212     21.0284     57.1329   1.1526435920e+02   6.2255723994e+01    0.9186676    0.4155728 -33.74  0.004236608    3.082    0.676
       227  -8.7539    219.6737     42.8166   5.9022684472e+01   2.4686015187e+01    0.2231171    0.1769582   2.24 0.0006245299    1.418    0.295
       228  -8.4408    201.4509     25.4905   5.6161627825e+01   3.1492203764e+01    0.2027274     0.142352 -12.30 0.0008530479    1.541    0.351
       229  -9.0554    198.8613     31.3765   5.8328316847e+01   3.1473065820e+01    0.3475159    0.1761612  44.61  0.001026044    2.180    0.541
       230 -10.5159    202.3165     38.3630   6.0010476824e+01   2.9696467484e+01    0.6142234    0.3429184 -36.89  0.002091284    1.686    0.407
       231  -9.7843    202.9999     30.4812   5.7502519269e+01   3.0496205303e+01    0.6160553    0.2063001 -24.65  0.002056438    2.924    0.658
       232  -9.4487    161.4716     40.5568   6.7367473975e+01   4.0106112660e+01    0.5332734    0.3633742 -85.81  0.002201333    2.003    0.501
       233  -9.0309    162.2744     37.3543   6.6106839478e+01   4.0347542544e+01    0.2248084    0.1851906  59.05 0.0006363941    1.221    0.181
       234  -8.4271    224.9670     42.0000   5.8128908434e+01   2.3466579325e+01    0.2325716   0.08320342  65.95 0.0005166703    2.962    0.662
       235  -8.9424    196.9689     41.4958   6.1740067900e+01   3.0683122892e+01    0.2254649    0.1480334  63.65  0.001020709    1.555    0.357
       236  -9.8816    194.6450     30.7836   5.8719494104e+01   3.2656269999e+01    0.5123633    0.3031066   2.44  0.001822035    2.367    0.578
       237  -8.1609    191.3217     29.3430   5.8725028825e+01   3.3710957977e+01    0.1550901     0.147744 -56.49 0.0008448744    1.040    0.039
       238  -9.9096    191.0431     40.0034   6.2160567644e+01   3.2431204560e+01    0.2748472    0.2128301 -17.53 0.0003145584    1.329    0.248
       239  -9.4437    192.9741     36.2951   6.0699969897e+01   3.2406616198e+01    0.3173741    0.2331481  45.70  0.001476839    1.416    0.294
       240  -9.2656     61.6552     40.5212   9.4803638236e+01   6.1313675547e+01    0.2198539    0.1314637  38.18 0.0008334353    1.921    0.479
       241  -8.9969    235.6361     38.8572   5.6007898713e+01   2.1235467939e+01    0.2323375    0.1919145  48.14 0.0007808324    1.312    0.238
       242  -9.8552    180.4788     38.2162   6.3245212596e+01   3.5449791788e+01      0.47915    0.2858972 -64.75  0.001889723    2.286    0.563
       243  -9.8026    173.4466     38.4880   6.4507531660e+01   3.7265542153e+01    0.3227463    0.2478252 -69.78 0.0006173635    1.521    0.342
       244  -8.6122    168.6845     36.3868   6.4620507029e+01   3.8802347502e+01    0.2742591     0.172793 -49.40  0.001181038    1.727    0.421
       245 -10.3786    124.7297     35.6832   7.3476188478e+01   4.9970355170e+01    0.6748245    0.3983138 -19.54  0.002893405    1.880    0.468
       246  -9.2104    206.1839     45.9781   6.1768801932e+01   2.7703854976e+01    0.4067393    0.1924498  57.16  0.001615927    2.090    0.522
       247  -9.9190    221.5154     32.6557   5.5871046166e+01   2.5470256657e+01    0.5748251    0.1655567 -23.31  0.001781543    3.534    0.717
       248 -11.1947    211.2578     33.0419   5.7222684407e+01   2.8041621499e+01    0.6446378    0.4807032 -89.23 0.0008698417    1.498    0.332
       249 -10.2920    216.2070     26.0214   5.4552494707e+01   2.7595499625e+01    0.5206106    0.3533921  19.62  0.001782932    1.885    0.470
       250 -10.3549    214.1360     22.7726   5.3828620198e+01   2.8495623404e+01    0.6542075    0.3707051  35.91  0.002760969    2.220    0.550
       251 -10.9181    236.3039     31.6772   5.3966796471e+01   2.1920668834e+01    0.5345501    0.5133725 -84.63  0.003230872    1.092    0.084
       252 -10.6134      8.5258    162.5141   1.3097564004e+02   4.0475115195e+01    0.2796112    0.1506592  41.29  0.001894205    1.842    0.457
       253  -9.9529    239.5693     24.0177   5.1554548078e+01   2.1995039381e+01    0.3645479     0.301758  55.39  0.001631137    1.312    0.238
       254 -10.1125      2.4621    161.2630   1.3209493915e+02   4.1216116712e+01    0.2666728    0.1621189 -76.69  0.001563682    1.435    0.303
       255 -10.6796    245.9468     18.9457   4.9619813492e+01   2.1018721478e+01    0.5567892    0.2948586  77.19  0.002220528    2.077    0.519
       256  -9.5705     76.5047    155.5587   1.1610633693e+02   3.4396771262e+01    0.3569453    0.1603592  61.03  0.001590346    2.613    0.617
       257  -8.7376     33.5011    155.9821   1.2541713726e+02   3.9469410908e+01    0.1497947   0.07376201 -54.91 0.0006069249    2.425    0.588
       258 -12.2575     20.2838    147.7250   1.2756022538e+02   4.2433218421e+01     0.565089    0.4387348 -65.93  0.002673278    1.432    0.302
       259  -9.1110     32.3648     33.5151   1.0396064070e+02   6.6258450084e+01    0.2408056     0.114045 -48.48    0.0012467    1.658    0.397
       260  -9.6282    247.5516     32.6909   5.3103744182e+01   1.9121820592e+01     0.429223    0.1684744  48.78  0.001652132    2.947    0.661
       261  -9.6367    228.1241     31.3705   5.4757590861e+01   2.3966173072e+01     0.336056     0.245843 -82.23  0.001052605    1.538    0.350
       262  -9.5149    225.4331     26.9225   5.3791322091e+01   2.5151567507e+01    0.3537451    0.2129551 -39.00  0.001122239    1.527    0.345
       263  -9.5115      6.6255    125.1674   1.2886472631e+02   4.8287853443e+01     0.218545    0.1707588  43.32  0.001193904    1.499    0.333
       264 -10.0051    185.3307     18.0031   5.5858125180e+01   3.6618407697e+01    0.4844409     0.310145 -59.09  0.001482133    1.764    0.433
       265  -9.3899    176.0225     23.4982   5.9020753409e+01   3.8483983437e+01    0.3221596    0.1886331  33.72 0.0009275467    2.050    0.512
       266 -10.0828     18.1189    123.2827   1.2593893544e+02   4.7798122659e+01    0.2965945    0.1619724 -83.00 0.0005064711    1.472    0.321
       267 -10.4454     13.3989    118.7094   1.2666408362e+02   4.9167545258e+01    0.3478647    0.2250403 -78.89  0.001362247    1.200    0.167
       268  -9.6761     19.5763    118.2752   1.2507847599e+02   4.8767356663e+01    0.3744426    0.2001724  82.50  0.001427171    1.763    0.433
       269  -8.3370     42.5963     31.7478   9.8954723544e+01   6.5500254893e+01    0.1249577   0.08556233 -17.66 0.0006947639    1.708    0.415
       270 -12.1520      7.4041    143.5368   1.3002885714e+02   4.4381542237e+01    0.8490537     0.469878  55.65  0.005288369    1.612    0.380
       271  -9.4131    170.6686     23.3203   5.9782738118e+01   3.9933005498e+01     0.276516    0.2112466  71.66  0.001105416    1.341    0.254
       272  -8.9313    158.4926     29.1545   6.3898892021e+01   4.2431758998e+01    0.2127272    0.1447279 -28.99 0.0004159354    1.445    0.308
       273 -11.8630     13.3236    129.8201   1.2767139742e+02   4.6783654651e+01     0.651583    0.3357548  87.18  0.001867819    1.647    0.393
       274 -10.5140     24.5371    137.2000   1.2572748717e+02   4.4252306626e+01    0.4761058    0.3743698  36.38  0.003443879    1.568    0.362
       275 -10.0062    159.7321     24.0451   6.1839018368e+01   4.2745810747e+01    0.9005394    0.2536839  54.16  0.002844966    3.098    0.677
       276  -9.1367    158.3386     20.2513   6.0698543182e+01   4.3564527485e+01    0.2120527    0.1281443 -33.58 0.0007901657    1.624    0.384
       277  -9.6579     28.6347    144.8062   1.2549224778e+02   4.2263599547e+01    0.2125326     0.141635 -84.14 0.0008592187    1.208    0.172
       278 -10.6475     31.7258    141.4500   1.2449050987e+02   4.2669272847e+01    0.6224511     0.225547  57.56  0.002863296    2.936    0.659
       279 -10.4367     34.3468    150.2540   1.2473105842e+02   4.0562080772e+01    0.3176475    0.1876494  46.58  0.001323909    1.631    0.387
       280  -9.8537    148.4483     24.1160   6.3903937742e+01   4.5683298201e+01     0.740747    0.2099435  55.00  0.002385194    3.076    0.675
       281 -11.0868     39.2096    147.3320   1.2338775969e+02   4.0666656707e+01    0.3581298    0.2812587  76.06  0.001573688    1.068    0.064
       282 -11.1965      8.3902    135.1216   1.2921987109e+02   4.6051474350e+01    0.5080791    0.2509128  23.62            0    2.805    0.643
       283  -9.2028     97.7213     22.2689   7.5069490795e+01   5.7975332366e+01    0.2297115    0.1983899 -40.39 0.0007242241    1.223    0.182
       284 -12.5575     25.7122     82.8188   1.1865415497e+02   5.6166397636e+01       1.1474    0.7862662  89.86  0.007136425    1.408    0.290
       285 -12.4579     65.8292     30.9439   8.9434120315e+01   6.2464912297e+01     1.844179    0.4206825  42.03  0.001927629    4.955    0.798
       286 -10.0585     66.5879    148.5838   1.1741415457e+02   3.7174771654e+01    0.2466703    0.1865126  71.20  0.001245602    1.169    0.145
       287  -9.2457    198.5128     16.5241   5.3725714716e+01   3.3267383719e+01    0.2626388     0.201237  48.43  0.001108589    1.353    0.261
       288  -9.3830    217.7649     13.2277   5.0641665527e+01   2.8588240459e+01    0.4077523    0.1813882  66.97   0.00134244    2.197    0.545
       289  -9.6377     61.5297    147.1812   1.1837759959e+02   3.8117006890e+01    0.2273207    0.1991524  -5.46  0.001126385    1.804    0.446
       290 -10.0928     38.1976    143.1180   1.2319272337e+02   4.1660280785e+01    0.1841167    0.1601028  61.78 0.0003983931    1.255    0.203
       291  -9.3614    209.5309     18.4378   5.3049193930e+01   3.0166409839e+01    0.2442575    0.2201761 -85.52 0.0005328741    1.112    0.101
       292  -9.3541     58.9619    139.3859   1.1798935011e+02   4.0094102073e+01    0.1877405    0.1409743  73.97 0.0004332805    1.193    0.162
       293 -10.1275     54.8484    137.6595   1.1873331772e+02   4.0965030680e+01    0.2954822    0.1807744  82.00  0.001380503    1.642    0.391
       294 -10.6108     46.0379    131.5252   1.2006646991e+02   4.3307864039e+01    0.4190647    0.2653691 -57.07  0.002499719    1.615    0.381
       295 -11.5567     47.9649    124.4048   1.1867838050e+02   4.4654137594e+01    0.6869248    0.2810337  64.66  0.002627842    3.868    0.741
       296 -10.6903     41.0826    117.0547   1.1943903979e+02   4.7028042211e+01     0.476601    0.1990458  61.33  0.002016654    3.226    0.690
       297  -9.2882     86.6050    134.2260   1.1069915542e+02   3.7409765609e+01    0.1907884     0.163108 -24.58 0.0006981952    1.663    0.399
       298  -9.5593     48.7337    138.0051   1.2020893247e+02   4.1603442102e+01    0.4627638    0.1744728  54.44  0.002061025    2.847    0.649
       299 -10.7333     72.1008    129.5956   1.1345671692e+02   4.0503741235e+01     0.329752     0.246911 -68.61 0.0008749182    1.218    0.179
       300  -8.5195     95.3626    131.2409   1.0809956820e+02   3.6683159414e+01     0.185926    0.1177688 -70.11 0.0008262342    1.617    0.382
       301  -8.7170     35.4624    130.4578   1.2248577387e+02   4.4654702673e+01    0.1186931   0.09410766 -88.92 0.0005658247    1.020    0.020
       302 -10.4976     35.1543    123.6253   1.2177667313e+02   4.6177485241e+01    0.2430317    0.1978304  13.40  0.001363376    1.802    0.445
       303  -9.7341     27.8891    120.4496   1.2322526672e+02   4.7566554195e+01    0.4668894    0.1360461 -70.01   0.00180392    2.701    0.630
       304 -10.2509     30.0500    127.1972   1.2343525875e+02   4.5890581997e+01    0.3339634    0.2166166 -50.58  0.001386862    1.821    0.451
       305  -9.6543     22.4100    128.2070   1.2537895609e+02   4.6367899522e+01    0.2419889    0.1539681  69.15  0.001557906    1.425    0.298
       306  -9.2087     25.4999    126.5213   1.2446733851e+02   4.6457824443e+01    0.1975677    0.1691702  86.45 0.0007627321    1.147    0.128
       307 -11.6343     67.6820    122.2680   1.1339232846e+02   4.2711138439e+01    0.7969944    0.3761091 -46.41  0.003552907    2.602    0.616
       308 -10.0764     59.9514    125.9586   1.1590438001e+02   4.2892543880e+01    0.2208583    0.1938603  72.37  0.001477023    1.132    0.117
       309 -10.6215     55.8383    124.8760   1.1677386373e+02   4.3635162112e+01    0.5071378    0.1563265 -62.71   0.00174557    2.731    0.634
       310 -10.2883     39.2967    126.9578   1.2115083489e+02   4.5027115609e+01    0.2277448    0.1767891  70.23  0.001461338    1.187    0.157
       311  -9.2566     75.0628    124.4790   1.1189867262e+02   4.1212275744e+01     0.214212    0.1599276  84.11 0.0007008066    1.324    0.245
       312  -9.5854     92.7092    119.6578   1.0660397107e+02   3.9606189764e+01    0.2934051    0.2039673 -47.54  0.001144058    1.524    0.344
       313  -9.2713     92.6620    115.2810   1.0575249546e+02   4.0568266984e+01    0.2661025    0.1810145 -76.91 0.0007238692    1.598    0.374
       314  -9.3551     91.3534    112.3005   1.0548316889e+02   4.1432329505e+01    0.3540353    0.2615791  17.85  0.001814384    1.990    0.498
       315  -9.3950     59.4701    120.5016   1.1520324840e+02   4.4159756523e+01    0.2706895    0.2170891 -10.49  0.001598312    1.993    0.498
       316  -9.0962    125.4103    248.8701   1.1701953956e+02   1.1785273196e+01    0.1782973    0.1246721  20.43  0.001080151    2.283    0.562
       317  -9.8162    107.8362    248.6140   1.1974312498e+02   1.4242864627e+01    0.1601642   0.06557415  50.50 0.0009587483    1.788    0.441
