#   1 NUMBER                 Running object number                                     
#   2 MAG_AUTO               Kron-like elliptical aperture magnitude                    [mag]
#   3 X_IMAGE                Object position along x                                    [pixel]
#   4 Y_IMAGE                Object position along y                                    [pixel]
#   5 X_WORLD                Barycenter position along world x axis                     [deg]
#   6 Y_WORLD                Barycenter position along world y axis                     [deg]
#   7 A_WORLD                Profile RMS along major axis (world units)                 [deg]
#   8 B_WORLD                Profile RMS along minor axis (world units)                 [deg]
#   9 THETA_WORLD            Position angle (CCW/world-x)                               [deg]
#  10 FWHM_WORLD             FWHM assuming a gaussian core                              [deg]
#  11 ELONGATION             A_IMAGE/B_IMAGE                                           
#  12 ELLIPTICITY            1 - B_IMAGE/A_IMAGE                                       
         1 -11.1423    113.4028     15.1989   3.5872092499e+02   5.5025469643e+01    0.5343648     0.418796 -83.87  0.002811282    1.323    0.244
         2 -11.0435     19.6032     16.8949   3.9501334308e+01   7.4735170810e+01     0.426148    0.2716947 -14.17  0.002012049    1.888    0.470
         3 -12.0532    183.2803     13.3488   3.4903666962e+02   3.7169863951e+01    0.6481679    0.3017471 -39.81  0.001946595    1.837    0.456
         4 -11.9256    174.1064      3.8744   3.4697346546e+02   4.0352658885e+01    0.4238653    0.2695288 -64.98  0.001330807    1.456    0.313
         5 -10.4580     28.0435     12.9524   3.0755015268e+01   7.4356334167e+01    0.3975855      0.18164 -49.93  0.001757161    2.399    0.583
         6 -10.2035     35.1496     13.8304   2.6516771172e+01   7.3088481984e+01    0.2500303    0.2100422 -33.96 0.0007012935    1.177    0.151
         7 -10.5884     32.3437     10.2141   2.5948264268e+01   7.4150156649e+01    0.2444514    0.1914466 -18.31 0.0007907345    1.252    0.201
         8 -11.8987    178.4298      7.6922   3.4777511739e+02   3.8922075563e+01    0.4534821    0.2282171 -26.65  0.002135101    1.940    0.485
         9  -9.1830    142.2124      9.9705   3.5217076584e+02   4.7955242644e+01    0.1721046    0.1112956 -27.09  0.000839298    1.597    0.374
        10  -9.9930    104.2276      8.8055   3.5768809542e+02   5.8103637766e+01    0.4237069     0.224718 -62.09 0.0009945441    2.473    0.596
        11  -9.8243     69.3932      9.7136   7.3999007540e+00   6.6700530216e+01    0.2256018    0.1703644  -7.20 0.0006197267    1.463    0.316
        12  -9.3063    202.0354      8.9543   3.4639608369e+02   3.3199568615e+01    0.1570011    0.1254397 -47.51 0.0004065405    1.084    0.077
        13 -10.3397    115.3396      8.7235   3.5559965145e+02   5.5190280170e+01    0.2359061    0.1948185 -60.61 0.0005493853    1.228    0.186
        14 -11.4410    113.7241      2.3522   3.5311935567e+02   5.6205439852e+01     0.372685    0.3156578 -73.85  0.001072112    1.167    0.143
        15 -10.7463     45.3772     12.1293   1.9393403070e+01   7.1526151894e+01    0.3928154    0.2388357  27.99   0.00146961    1.875    0.467
        16  -9.4165    219.0054      8.5050   3.4523481587e+02   2.9490597683e+01    0.1660357    0.1139009  86.31 0.0003650773    1.489    0.329
        17 -11.3016    124.1616      6.9638   3.5346686400e+02   5.3021921561e+01    0.4158665    0.2578819 -88.62  0.001959072    1.679    0.404
        18 -10.5556     97.1097      6.0063   3.5782977240e+02   6.0227926175e+01    0.4941744    0.2081496 -46.42  0.001899661    2.731    0.634
        19 -11.2124     85.4263      7.1418   1.1425558574e+00   6.3093227977e+01    0.3163815    0.2713166 -76.77  0.001639198    1.275    0.215
        20 -10.5563     79.4072      7.7293   3.1010452277e+00   6.4524747814e+01    0.3127765    0.2691006  46.44  0.001804991    1.095    0.086
        21  -8.8873     40.2851      8.3394   1.9694097681e+01   7.3047371784e+01    0.1346688   0.09600601   6.47  0.000485093    1.633    0.388
        22  -9.4418    235.4903      7.4387   3.4410839605e+02   2.6182316895e+01    0.1218954   0.09262595 -51.83 4.556353e-05    1.025    0.024
        23  -9.1122    101.3107      4.2935   3.5615834270e+02   5.9297350671e+01     0.145178    0.0967352  39.82 0.0003183964    1.590    0.371
        24  -9.6371     16.0647      4.5040   3.4457439145e+01   7.7488167435e+01    0.1789495    0.1165896  27.76 0.0007948917    1.547    0.353
        25  -9.0709    131.4742      3.5035   3.5109958326e+02   5.1398473360e+01    0.1393685    0.1269239 -88.97 0.0001069958    1.011    0.011
        26  -9.3679     31.3374      3.3174   2.1616952608e+01   7.5383019884e+01    0.1342912   0.09209687   8.42  0.000451281    1.702    0.412
        27  -9.1840    229.7581      1.9952   3.4311471341e+02   2.7868601966e+01    0.1503653   0.08576014 -31.27  0.000382927    1.518    0.341
        28 -11.4342     49.5288     14.1620   1.8520500577e+01   7.0414143526e+01    0.5352663    0.3336749 -17.09  0.001868794    1.930    0.482
        29  -9.4124      5.5043    125.5039   7.0092434756e+01   4.8786435048e+01    0.1317193    0.1124853  81.26 3.942743e-05    1.018    0.018
        30 -10.9005    100.8119    121.2522   3.7820128259e+01   3.7644797116e+01    0.4624979    0.3589979  33.73  0.002281833    1.329    0.248
        31 -10.4801     62.3951    120.8587   4.9941557073e+01   4.4113473330e+01    0.2954286    0.1704249  54.52 0.0007342435    1.865    0.464
        32 -10.4492     13.4153    117.3384   6.6727637332e+01   5.0345868895e+01    0.2463047    0.1807773 -32.53 0.0009130845    1.676    0.403
        33 -10.5229      2.1416    118.0167   7.0769585357e+01   5.0909419188e+01    0.2184532    0.1655057  57.50 0.0003957186    1.224    0.183
        34 -10.2823     55.6277    117.2756   5.1629590790e+01   4.5975507212e+01    0.2493963    0.1922194  38.45 0.0005217388    1.299    0.230
        35  -9.7633     91.6566    116.1319   3.9439946779e+01   4.0538147275e+01    0.2102522    0.1911587 -56.79 0.0006447561    1.113    0.102
        36  -9.8760     20.8434    115.9758   6.3918487923e+01   5.0119560917e+01     0.298872    0.1625949 -41.99  0.001344644    2.228    0.551
        37 -10.1129     80.6906    113.9762   4.2460454068e+01   4.2985927187e+01     0.287475    0.2379495  79.49 0.0009483049    1.292    0.226
        38  -9.8702     79.5267    110.5182   4.2078448410e+01   4.4040807823e+01    0.2570395    0.1936696  37.97 0.0005540767    1.338    0.253
        39  -9.9154     95.9758    111.8224   3.7106324680e+01   4.0775656714e+01    0.2277913    0.2061982 -16.78 0.0006825464    1.278    0.217
        40 -10.6706     21.2503    110.0496   6.3106272713e+01   5.1640606064e+01    0.2853041    0.1547124 -25.72  0.001190854    2.769    0.639
        41  -9.6072    102.9527    105.7977   3.3499356915e+01   4.0845067259e+01    0.2634349    0.1706649  65.47  0.001075937    2.011    0.503
        42 -10.3257      1.7794    104.7917   7.0003236934e+01   5.4345266621e+01     0.225273    0.1538473 -67.34 0.0007111672    1.344    0.256
        43  -9.0899     76.5595    103.4750   4.1458930501e+01   4.6296003342e+01     0.149944    0.1442118 -82.89 0.0001251828    1.019    0.019
        44  -9.7405    117.0710    102.1956   2.8479106012e+01   3.8767122403e+01    0.2095245    0.1198018  43.74 0.0008191457    1.756    0.431
        45 -10.6005    246.7587    101.0214   4.2661230896e+00   1.2875460055e+01    0.1722946   0.08422399 -32.26 0.0008932329    1.643    0.391
        46  -9.3196    108.0091    100.7431   3.0677559422e+01   4.0980287905e+01       0.2123    0.1985913  55.04 0.0004004026    1.063    0.059
        47 -11.5753     28.0556     99.8819   5.9103514607e+01   5.3720455689e+01    0.4087828    0.2473899 -34.79   0.00188141    2.052    0.513
        48  -9.9992     69.8354     98.5540   4.2664185748e+01   4.8649821978e+01    0.2775384    0.1514514  30.77  0.001128132    2.001    0.500
        49 -10.9265    103.0292     95.6207   3.0775107526e+01   4.3167261788e+01    0.3426593    0.2369771 -54.26  0.001550337    1.461    0.316
        50 -11.3257     64.6068     96.1806   4.4022395716e+01   5.0086752484e+01    0.3292733    0.2951101  53.34 0.0006288305    1.122    0.108
        51  -9.4016      4.7315     95.8399   6.8099280081e+01   5.6519123534e+01    0.2374995   0.09522314 -45.03 0.0009523953    2.778    0.640
        52 -10.9412     89.9698     94.3266   3.4570127629e+01   4.6077452006e+01    0.2861156    0.2588493  50.90 0.0003913651    1.105    0.095
        53 -10.9140     16.1216     94.2844   6.3213456046e+01   5.6198946357e+01     0.303019    0.2525717  -6.70  0.001137445    1.428    0.300
        54  -9.1290    157.5499     93.4827   1.6323705458e+01   3.1622144469e+01    0.1477336    0.1410506 -50.63 0.0002022573    1.019    0.018
        55 -10.7015     38.3798     93.2333   5.3748575308e+01   5.4404408553e+01    0.2024417    0.1295654 -81.85 0.0003420572    1.615    0.381
        56  -9.2500    132.3326     91.2967   2.1447386700e+01   3.7731565801e+01    0.1536714     0.122895   9.68 0.0003628272    1.643    0.391
        57  -9.1326    108.6910     90.3470   2.7584047370e+01   4.3157430853e+01    0.1610897    0.1223632 -87.57  0.000704443    1.705    0.414
        58 -10.0472    176.5751     88.3141   1.1287947498e+01   2.8304737334e+01     0.226279     0.166102  32.34 0.0002148042    1.627    0.386
        59  -9.9112      2.6669     87.6356   6.8193831789e+01   5.8769334878e+01    0.2492803    0.1296111 -66.07 0.0007943669    1.656    0.396
        60 -10.5788     12.0146     85.8833   6.3890939538e+01   5.8694052257e+01    0.2024632    0.1798528 -76.87   0.00043307    1.023    0.022
        61  -9.4501    160.1709     81.1689   1.2383493202e+01   3.3242865611e+01    0.2055287    0.1670403 -65.84 0.0003996218    1.329    0.248
        62 -11.6200     54.4110     78.4725   4.3550671445e+01   5.6104455477e+01    0.3631624    0.3009307  73.69 0.0006072886    1.335    0.251
        63  -9.9465      4.7398     80.1581   6.6472302480e+01   6.0614737197e+01    0.2962392    0.1098618  32.16  0.001237827    2.694    0.629
        64  -9.4102    202.4934     79.5227   4.9248695482e+00   2.4130420070e+01    0.1369027    0.1217323 -39.46 0.0008102212    1.002    0.002
        65  -9.1664     77.9818     78.0221   3.4030815464e+01   5.2212341228e+01    0.1777278    0.1720355  59.66 0.0003146461    1.043    0.041
        66  -9.9212    143.9638     77.0628   1.4543718020e+01   3.7783273096e+01    0.2286522    0.2242378  81.94 0.0006616666    1.038    0.037
        67 -10.1000    152.6573     75.9919   1.2385772367e+01   3.5914755992e+01    0.2157867    0.1956654 -46.88  0.001118814    1.061    0.058
        68 -10.5833      3.0952     74.3330   6.6556086510e+01   6.2208342266e+01    0.3552461    0.1592772 -69.13  0.001485009    1.850    0.459
        69  -9.2414     48.5983     73.7156   4.4765264217e+01   5.8130022990e+01    0.1520781    0.1092744 -21.39 0.0006991389    1.783    0.439
        70  -9.3694     89.7150     72.3061   2.8008803861e+01   5.1164619918e+01    0.1524767    0.1207399 -88.37 0.0002152087    1.564    0.361
        71 -11.8669     64.1164     69.5764   3.6796652321e+01   5.6705399140e+01    0.2618296    0.2318652 -58.13 0.0002723834    1.101    0.092
        72 -10.1139      7.7695     68.9011   6.3494432146e+01   6.3373145818e+01    0.2079614    0.1909117  66.10 0.0005340819    1.151    0.131
        73  -8.9585    189.0000     67.9480   3.8324595346e+00   2.8788195236e+01    0.2309902    0.0741009 -32.88 0.0006787817    2.859    0.650
        74 -10.5343    101.5208     67.0337   2.2370921716e+01   4.9702458719e+01    0.3007224    0.2726771 -46.21  0.000715895    1.102    0.092
        75 -10.8742    100.1550     63.2110   2.1452799330e+01   5.0783805980e+01    0.4599656    0.2685391 -57.42  0.001707449    2.053    0.513
        76  -9.9581    192.0486     65.8989   2.8487105017e+00   2.8411091691e+01     0.203574    0.1847692 -47.61 0.0003695712    1.011    0.011
        77 -10.9757    250.2662     64.2510   3.5594304645e+02   1.6990403159e+01    0.3024405   0.07981887 -32.37  0.001209353    2.828    0.646
        78  -9.1790    204.4849     65.5180   1.1006881022e+00   2.5748414872e+01    0.1379386    0.1179669 -48.15 0.0002535966    1.048    0.046
        79 -10.6191      4.1904     63.7467   6.4567503795e+01   6.4882187755e+01    0.3078403    0.1985371 -72.02 0.0009136474    1.339    0.253
        80 -10.9053      2.6789     59.5810   6.4747217070e+01   6.6013458525e+01    0.3457545       0.2599 -13.22  0.001339885    1.500    0.334
        81 -10.9161     75.2111     64.4528   3.0595078598e+01   5.5833556944e+01    0.4603793     0.295381  84.52  0.001667345    3.068    0.674
        82 -10.1637     78.3856     62.7852   2.8785047949e+01   5.5568487317e+01    0.2395317    0.2281908  21.31 0.0002473221    1.102    0.093
        83 -10.0403    107.2611     61.4935   1.8704466621e+01   4.9473530899e+01    0.3130715    0.2460962 -60.21  0.001509018    1.363    0.266
        84 -11.1955    231.0713     59.9570   3.5676529572e+02   2.1074547639e+01    0.3684648    0.2143461 -61.14  0.001426983    1.944    0.486
        85  -9.2746    157.4077     61.1819   7.0084510441e+00   3.7271595248e+01    0.2116008     0.127362 -46.14 0.0006133496    1.607    0.378
        86  -9.8120    114.4401     60.9789   1.6510019235e+01   4.7862250576e+01    0.2264974    0.2035019  56.96 0.0003676607    1.109    0.098
        87 -11.9063     20.4716     58.8141   5.4760240695e+01   6.5059243409e+01    0.5750387    0.3448692 -21.95  0.002713622    2.071    0.517
        88  -9.0468     36.6912     60.3008   4.6552962135e+01   6.3006539287e+01    0.1403957    0.1066086  69.16 0.0003980418    1.600    0.375
        89 -10.2090     66.1299     57.9593   3.1912689721e+01   5.8993414865e+01    0.3235579    0.1968809  68.11  0.001221747    2.791    0.642
        90 -10.7148    124.9457     59.8248   1.3408928883e+01   4.5514926127e+01    0.2414671    0.2169581 -42.35 0.0003669432    1.114    0.102
        91  -9.0411     45.4600     56.5210   4.0896762938e+01   6.2742309672e+01    0.1411281    0.1344912 -51.41 0.0001951773    1.019    0.018
        92  -9.2201     99.4522     55.4996   1.8843476475e+01   5.2447252653e+01    0.1505771    0.1471298 -83.50 5.834344e-05    1.011    0.011
        93  -9.4279     95.7349     55.4105   1.9977098662e+01   5.3324054919e+01    0.2075765    0.1418961  41.23 0.0004617322    1.532    0.347
        94  -9.1422     78.9899     55.5136   2.5840665968e+01   5.6979247429e+01    0.2144282    0.1305327  22.76 0.0008103427    2.550    0.608
        95  -9.8475     88.5976     52.8446   2.1346181565e+01   5.5435696696e+01    0.2432795    0.1984681  40.60 0.0005065256    1.254    0.203
        96 -10.5005    149.6316     49.1598   4.6082878052e+00   4.1082755534e+01    0.4697805    0.1228072 -34.56  0.001433529    3.442    0.709
        97  -9.9408    112.0842     50.8274   1.3456582869e+01   5.0264459954e+01     0.279838    0.1984205  36.04 0.0005988945    1.626    0.385
        98 -10.1111     14.7793     48.2286   5.5330229548e+01   6.8138419696e+01    0.1860385    0.1356042 -38.73 0.0003815543    1.323    0.244
        99  -9.5663     64.2103     50.5554   2.9864468908e+01   6.0944894202e+01    0.2095385     0.139341  27.64 0.0009484178    1.749    0.428
       100 -10.9825    248.9868     52.8113   3.5352637144e+02   1.8606170824e+01    0.2809975    0.1094452 -48.98  0.001026183    2.352    0.575
       101  -9.8144    163.9557     48.5456   2.0075518470e+00   3.7589819724e+01    0.2816254    0.1686925  18.68  0.001009054    3.296    0.697
       102  -8.8538    122.6870     49.3116   1.0233010524e+01   4.7881108598e+01    0.1573956    0.1145959 -71.31 0.0003700866    1.632    0.387
       103 -11.6226     94.0243     48.4994   1.7824986398e+01   5.5013758780e+01    0.3043722     0.227632 -44.80  0.001475912    1.349    0.258
       104 -10.2599      4.3719     48.0433   6.1692537365e+01   6.8829856568e+01    0.2767272   0.08440488 -63.56  0.001099254    2.473    0.596
       105  -9.0112    157.4606     45.4795   2.0785418208e+00   3.9652946137e+01    0.1467093    0.1352353 -65.70 9.204712e-05    1.010    0.010
       106 -10.9872     39.5441     43.4368   3.9100345214e+01   6.6575610215e+01    0.3409101    0.2994527  10.63  0.001375422    1.190    0.159
       107 -10.0468    248.5216     44.5112   3.5171757632e+02   1.9669113780e+01    0.2207368    0.1182436  72.23  0.001233827    2.246    0.555
       108  -9.7946     31.9719     43.5534   4.3459382887e+01   6.7550350478e+01    0.1970795    0.1348055  23.91 0.0007061026    1.562    0.360
       109 -10.3747    185.9722     41.4869   3.5688754600e+02   3.3218901796e+01    0.2450343    0.1911803 -34.00 0.0003327379    1.223    0.182
       110  -9.8165    118.8156     41.4779   8.2236180845e+00   5.0114666201e+01    0.2922393    0.2055991  -7.44  0.001137283    1.931    0.482
       111  -8.9983    212.5116     40.5228   3.5379860512e+02   2.7330660038e+01    0.1331343    0.1108387 -50.38 0.0003485025    1.020    0.020
       112 -10.5122    158.8776     39.3770   3.5989964508e+02   4.0150055957e+01    0.2595027    0.2205773 -47.65 0.0002756974    1.114    0.102
       113  -9.5437      1.3139     40.1441   6.1982099489e+01   7.0906875069e+01    0.1779659    0.1066909 -84.26 0.0005081521    1.688    0.408
       114  -9.1746     57.3334     39.2913   2.8141163320e+01   6.4527250550e+01    0.1441974    0.1106456  -0.00 0.0003495236    1.633    0.388
       115 -10.3766    217.9373     38.3050   3.5274155955e+02   2.6441352883e+01    0.1731666    0.1546251 -63.10 0.0004965675    1.099    0.090
       116  -9.3636     96.1024     38.1191   1.2880422801e+01   5.6310419517e+01    0.1954937     0.170922 -85.89 0.0004042281    1.249    0.199
       117  -9.7103     64.4270     38.4600   2.4538747907e+01   6.3322218626e+01    0.2690552    0.1352243  56.35  0.001037022    2.518    0.603
       118 -10.3066     79.0260     36.1532   1.7642254448e+01   6.0633848215e+01     0.357697    0.2286566  47.08  0.001560292    1.537    0.349
       119  -9.9634     47.2978     35.9308   3.1598017581e+01   6.6968456883e+01     0.274074    0.1881321 -45.96  0.000325994    1.420    0.296
       120 -10.5072     51.7476     32.9797   2.7872010515e+01   6.6773836328e+01    0.2580764    0.2030277  47.41 0.0004225874    1.344    0.256
       121 -10.3671     48.3942     32.2920   2.9261385229e+01   6.7499535435e+01    0.2481103    0.1722593 -23.35 0.0005045346    1.655    0.396
       122 -10.5203     40.5251     35.8004   3.5251461986e+01   6.8075634515e+01    0.3600293    0.2003111  44.10  0.001039045    1.974    0.493
       123 -10.7171    189.8186     34.6641   3.5451741053e+02   3.3178072478e+01    0.2974501    0.1866946 -37.23 0.0009882498    1.421    0.296
       124  -9.5488    174.0356     34.9652   3.5643623124e+02   3.6943726683e+01    0.2113872    0.1684857  27.37 0.0009535656    1.613    0.380
       125 -10.4591    119.2078     34.9815   5.6199579041e+00   5.0985792553e+01    0.2540045    0.2050355  55.88 0.0003093417    1.217    0.179
       126 -10.2288     30.4918     33.3690   4.0154476378e+01   6.9996085063e+01    0.3524373    0.2231968  60.63  0.001602608    2.495    0.599
       127  -9.4288    153.7515     31.9908   3.5824871477e+02   4.2434785549e+01     0.196772    0.1815526 -60.59 0.0003959773    1.035    0.034
       128 -10.5628     92.4349     31.1974   1.0938698695e+01   5.8287556871e+01    0.2554172    0.2379621  66.36 0.0002750522    1.058    0.055
       129 -10.0573     17.8363     31.2696   4.7717225838e+01   7.1871653417e+01    0.2060374    0.1697977 -67.79  0.000471911    1.271    0.213
       130 -10.0076      4.7239     31.6385   5.7369986989e+01   7.2771384028e+01    0.3362477    0.1535829  35.27  0.001262462    2.462    0.594
       131 -10.7058     59.3749     28.3033   2.1822982199e+01   6.6171153278e+01    0.4541603    0.2602105 -25.05  0.001562509    2.150    0.535
       132 -10.2125    129.0050     28.9567   1.2898689365e+00   4.9264947292e+01    0.2177513    0.2023752  89.50   0.00038922    1.019    0.018
       133  -9.8966     65.0946     28.7603   1.9537558156e+01   6.4918932117e+01    0.2675513    0.1877178  29.57  0.001311726    1.581    0.367
       134  -9.8391    103.9186     28.1532   6.4283808327e+00   5.5868918450e+01    0.2165029    0.1898832 -79.54 0.0002892557    1.198    0.165
       135 -11.2993     47.2489     26.6659   2.6971492978e+01   6.8758315409e+01    0.3125179    0.2407414 -13.51 0.0001850636    1.448    0.309
       136 -10.1387    160.4928     27.1614   3.5572258011e+02   4.1310239839e+01    0.2419161    0.1895147  78.51 0.0004150959    1.248    0.198
       137 -10.3490     88.3580     25.2167   9.3925276786e+00   6.0156330511e+01    0.3181931    0.2014954 -55.41  0.001424027    1.918    0.479
       138 -10.4234    111.0054     24.9424   3.3678687223e+00   5.4481350680e+01    0.2968272    0.2033727  70.11  0.001091666    1.442    0.306
       139  -9.1397     83.3142     25.2776   1.1001561833e+01   6.1362372076e+01    0.1457502     0.107034  27.33  0.000196943    1.566    0.362
       140 -10.6492    240.3848     23.9476   3.4763058094e+02   2.3514742754e+01    0.2420102    0.1710022  77.44    0.0015563    1.601    0.376
       141  -9.8154    196.4115     23.0067   3.5063067992e+02   3.3008865628e+01    0.2388664    0.1922246  15.17  0.001363768    1.675    0.403
       142  -9.2750    128.9941     23.9983   3.5939876652e+02   4.9894819838e+01    0.1725348    0.1617046 -86.12 0.0003184927    1.003    0.003
       143  -9.7607     43.6536     22.7337   2.6786300761e+01   7.0100363195e+01    0.2473378    0.1575336  29.48 0.0008254051    1.681    0.405
       144  -9.6312     38.3334     22.8872   2.9980085109e+01   7.0965460993e+01    0.1854476    0.1580593 -30.90 0.0004244748    1.119    0.106
       145 -10.5967     20.2197     22.5562   4.2053770397e+01   7.3513812463e+01    0.3240376    0.1895666   4.48 0.0009501726    2.204    0.546
       146 -10.4189      2.0099     21.7512   5.6278971145e+01   7.5194132241e+01    0.3251404    0.1658715 -82.48  0.001510863    2.458    0.593
       147  -8.9474     56.2941     22.2835   2.0012350286e+01   6.7798550172e+01    0.1370917    0.1040563  11.56 0.0002328208    1.539    0.350
       148 -10.7429     98.4394     22.6465   5.3751463681e+00   5.8000147420e+01    0.2598067    0.2487066 -86.48  0.000459364    1.052    0.049
       149 -10.4428     66.4908     20.8604   1.4789797473e+01   6.5870349803e+01    0.2445298    0.1876373  43.15 0.0003459478    1.259    0.206
       150  -9.3505    159.2472     20.5823   3.5373184144e+02   4.2397687108e+01     0.182751    0.1252607  62.91 0.0002343942    1.457    0.314
       151  -9.2189    104.0589     20.3390   2.9551369978e+00   5.6857951289e+01    0.1999268    0.1774277  70.05 0.0005226457    1.076    0.071
       152 -10.2565     83.9120     19.8802   8.1387993139e+00   6.1968388412e+01    0.4012562    0.1964749  67.79  0.001546305    2.364    0.577
       153  -9.6655     48.4557     19.3622   2.2227757898e+01   6.9805055232e+01    0.1705351    0.1284162 -44.38 0.0009198333    1.405    0.288
       154  -9.9567     41.4967    244.5308   6.7433413707e+01   1.9563253039e+01    0.1130094   0.08121279  46.46 0.0007884899    1.011    0.011
       155  -8.9453    123.9928    205.9775   4.6330124878e+01   1.6129824822e+01    0.1486926    0.1245271  30.94 0.0009555958    1.006    0.006
       156  -9.9879     23.5998     16.7562   3.6363275964e+01   7.4270363612e+01    0.2139943    0.1728147 -68.55 0.0005561537    1.592    0.372
       157 -10.1879     85.9710     15.8495   5.4933281746e+00   6.1978465483e+01    0.3626794    0.1855308  60.82  0.001567831    1.851    0.460
       158  -9.7508     66.2999     16.0351   1.2180248164e+01   6.6601496358e+01    0.1897441    0.1752861 -11.63 0.0003559683    1.097    0.088
       159 -10.1978      1.5126    181.8990   7.3800374550e+01   3.5577303030e+01    0.3241307    0.1009454  88.39  0.001355575    3.100    0.677
       160  -9.5305    243.6910    180.3299   2.0048236575e+01   3.0964883063e+00   0.09697562   0.08430763 -38.95 0.0007040611    1.664    0.399
       161 -10.5178     20.2973    174.7144   6.8676126704e+01   3.5619857756e+01    0.2715343    0.1229758  47.72   0.00134227    1.803    0.445
       162  -9.3410      7.2987     15.6875   4.9156312108e+01   7.6181831785e+01    0.1157993   0.09552659  65.31 0.0002924422    1.604    0.377
       163 -10.6222     21.4810    170.2540   6.8098529626e+01   3.6539418059e+01    0.2334002     0.206224  60.91 0.0005375712    1.097    0.088
       164 -10.5859    224.4494    173.0171   2.1677140189e+01   6.5511002394e+00    0.1787211    0.1006543 -31.45  0.000689577    1.604    0.377
       165  -9.5302     27.6031    158.8172   6.5613102927e+01   3.8670182774e+01    0.1831337    0.1094402  81.86 0.0005315019    1.607    0.378
       166 -10.1722    162.0407     11.5359   3.5046674682e+02   4.2649976733e+01    0.2132291    0.1282789  80.23  0.001032461    1.606    0.377
       167 -10.2815      3.0509    156.0740   7.2448192356e+01   4.1390349172e+01    0.2330335    0.1532395  89.28 0.0004142771    1.349    0.259
       168 -10.2324      8.5310    150.0723   7.0583274097e+01   4.2435627530e+01    0.1929538    0.1116241 -88.57 0.0007158262    1.555    0.357
       169 -10.2953     40.4411    147.7642   6.0813244128e+01   4.0051346897e+01    0.2868711    0.1953924  20.74 0.0009428865    1.645    0.392
       170  -9.9345     25.2511    146.1468   6.5298000333e+01   4.1999476832e+01    0.2116665      0.18035  17.26  0.000749943    1.368    0.269
       171  -9.1557     74.9769    144.0078   4.9864216372e+01   3.6491160117e+01    0.1745364     0.155813  51.14 0.0004119289    1.056    0.053
       172 -10.9354     21.9538    141.3325   6.5920214643e+01   4.3503607095e+01     0.280942    0.2487456  42.23 0.0006559759    1.174    0.148
       173 -10.1787     18.4835    141.4461   6.7013484889e+01   4.3775389896e+01    0.2190946     0.167014  79.77 5.054983e-05    1.154    0.134
       174  -9.4754     92.0997    137.8306   4.3759247152e+01   3.5263335939e+01    0.1915352    0.1738252  -8.14 0.0003416701    1.294    0.227
       175 -10.0994     28.4289    138.1370   6.3586696240e+01   4.3713361875e+01    0.2005123    0.1867951  19.62 0.0004406315    1.252    0.201
       176 -10.5656     12.0219    137.5033   6.8760067573e+01   4.5284847435e+01    0.3439613    0.1230451  31.81  0.001471108    2.466    0.595
       177 -10.1783     11.4758    133.9825   6.8693398000e+01   4.6214402713e+01    0.2269185    0.1858993 -65.90 0.0005388994    1.270    0.213
       178 -10.7202      3.6428    136.0957   7.1319330561e+01   4.6232703503e+01    0.3691393    0.1380608  72.12   0.00148993    2.663    0.625
       179  -9.7332     83.2533    134.9783   4.5848174324e+01   3.7401266185e+01    0.1876395    0.1252478 -62.75 0.0004421699    1.529    0.346
       180 -10.0083    108.8199    132.5034   3.7961753398e+01   3.3565857325e+01    0.4177172    0.1932817 -53.23  0.001622365    2.225    0.551
       181 -10.7534     18.4828    132.6156   6.6309984507e+01   4.6010258389e+01     0.372234    0.1631773  43.50  0.001055542    2.062    0.515
       182  -9.0785     46.4831    131.4138   5.6932062132e+01   4.3490443550e+01    0.1397672    0.1286022  74.57 0.0008038912    1.029    0.028
       183 -10.5725     28.1633    127.4945   6.2590040241e+01   4.6466477874e+01    0.3169305    0.1787737 -79.52  0.001433419    1.661    0.398
       184  -9.8380    249.9996    127.0000   9.2232317201e+00   8.9639778776e+00    0.1615834   0.06748282  48.45 0.0007963761    2.901    0.655
       185 -10.6707    134.9255    124.3436   2.9315772316e+01   3.0328694715e+01    0.2733901    0.2161274 -38.20  0.000489947    1.299    0.230
