#   1 NUMBER                 Running object number                                     
#   2 MAG_AUTO               Kron-like elliptical aperture magnitude                    [mag]
#   3 X_IMAGE                Object position along x                                    [pixel]
#   4 Y_IMAGE                Object position along y                                    [pixel]
#   5 X_WORLD                Barycenter position along world x axis                     [deg]
#   6 Y_WORLD                Barycenter position along world y axis                     [deg]
#   7 A_WORLD                Profile RMS along major axis (world units)                 [deg]
#   8 B_WORLD                Profile RMS along minor axis (world units)                 [deg]
#   9 THETA_WORLD            Position angle (CCW/world-x)                               [deg]
#  10 FWHM_WORLD             FWHM assuming a gaussian core                              [deg]
#  11 ELONGATION             A_IMAGE/B_IMAGE                                           
#  12 ELLIPTICITY            1 - B_IMAGE/A_IMAGE                                       
         1 -13.3694    168.2109     56.3694   6.2471792749e+01   3.5778402026e+01     2.005649     1.263776  27.86  0.006139877    2.175    0.540
         2 -13.2914    182.7169     41.9760   5.5438512134e+01   3.4164959303e+01    0.9608045    0.9345506 -50.51  0.003249862    1.056    0.053
         3 -13.9293    204.6303     11.0973   4.3621236930e+01   3.2298480841e+01     1.182092     1.045657   1.87  0.004960946    1.393    0.282
         4 -11.2503    190.6883     15.2999   4.6386151434e+01   3.5410628786e+01    0.4851308    0.2723667  76.81  0.002006817    1.749    0.428
         5 -12.6817    235.6823      3.1166   3.8795369539e+01   2.5568870542e+01     1.094639    0.4618444  72.27  0.005015291    2.225    0.551
         6 -10.0979     59.3403      3.6845   7.0769520570e+01   6.7037082031e+01    0.1090682   0.09755759 -52.92  0.000388841    1.705    0.413
         7  -9.3727     16.1729    213.0810   1.2863648395e+02   2.8424158282e+01    0.1380035    0.1011162  82.15 0.0002846588    1.106    0.096
         8 -11.8549    249.2929    249.1684   9.0716619616e+01  -1.1359311152e+01     0.528878    0.2550921  39.02  0.003168786    1.814    0.449
         9 -18.7753     41.3602    238.2887   1.2583036406e+02   2.1011824283e+01     5.362096     4.496609  64.24   0.03752653    1.319    0.242
        10  -9.4228    222.9810    198.0464   8.6589395682e+01  -1.1849784655e+00    0.1564529    0.1317465  -9.23 0.0005707668    1.149    0.130
        11 -12.4356     67.9932    193.2605   1.1723567605e+02   2.6337091930e+01    0.4576646    0.3723545 -68.89  0.001469528    1.329    0.248
        12 -14.0933     11.9455    206.1168   1.2899371938e+02   3.0188821681e+01    0.4973773    0.2494899  41.44  0.003190375    1.921    0.479
        13 -12.1541    128.5833    195.2059   1.0480179943e+02   1.6400655630e+01    0.4072206    0.3074541 -81.72  0.001345304    1.529    0.346
        14 -11.6301    204.2982    200.1318   9.0423271144e+01   1.7818237496e+00    0.6124669     0.191442  35.17  0.002087238    3.617    0.724
        15  -9.7217    156.5096    189.8589   9.8096663885e+01   1.2335196518e+01    0.1905464      0.13817 -49.52 0.0008885511    1.532    0.347
        16 -11.6479    150.2469    188.4786   9.9171132645e+01   1.3764465231e+01     0.342323    0.2825325  88.00  0.001498243    1.435    0.303
        17 -10.3570     58.9780    188.2130   1.1857499512e+02   2.8597826882e+01    0.3699437    0.2300394 -45.95  0.001927199    2.332    0.571
        18 -11.3285    193.5003    196.1297   9.1765016611e+01   4.3543837956e+00     1.113839    0.5954176 -63.37  0.003637637    5.503    0.818
        19  -9.7582     90.9831    183.9849   1.1125599899e+02   2.4957218929e+01    0.3018554    0.1817212 -79.66  0.001514191    1.824    0.452
        20 -11.1495    151.3324    180.4240   9.7539436034e+01   1.5104886104e+01     0.379604     0.267002 -81.52   0.00132127    2.057    0.514
        21 -11.2982    145.3564    181.1093   9.8944575987e+01   1.6105607224e+01     0.336926     0.262629  48.19   0.00114265    1.178    0.151
        22 -12.2557    142.2790    176.0555   9.8721792167e+01   1.7695860696e+01    0.7361782     0.464727  82.89  0.002967701    2.810    0.644
        23 -10.9921    188.7320    176.4197   8.8990114806e+01   8.5640487929e+00     0.621519    0.4001613 -60.13  0.002447112    2.249    0.555
        24  -9.4366    186.9582    186.9263   9.1361056410e+01   7.0915367500e+00    0.2107372    0.1917013  40.95 0.0007151103    1.100    0.091
        25 -12.2955    133.8961    196.4494   1.0387923135e+02   1.5223896387e+01    0.4577729    0.3182793 -63.09 0.0006407714    1.625    0.385
        26  -8.6982    194.4931    172.5041   8.7054869696e+01   8.1172137978e+00    0.1410244    0.1303224  21.52 -0.0001219195    1.016    0.016
        27 -10.1484    123.4993    170.4375   1.0192497024e+02   2.2368403997e+01    0.1894275    0.1348812 -45.40 -6.849898e-06    1.570    0.363
        28 -19.1807     29.9944    101.0790   1.1441052281e+02   5.1866238075e+01     16.87082    0.8231437 -65.97   0.02675014   16.808    0.941
        29 -10.1802      7.3231    161.2747   1.2705752365e+02   3.9913048111e+01    0.1642658    0.1452307  59.86 0.0007753799    1.345    0.256
        30 -11.0715     95.3167    156.5104   1.0615477052e+02   3.0362346317e+01    0.2578206    0.2404277  78.96 0.0003622088    1.075    0.070
        31 -12.2189    100.3411    150.2840   1.0384685321e+02   3.0955843291e+01    0.6304282    0.4825168 -33.19   0.00321727    1.698    0.411
        32  -9.4753      3.1429    155.6237   1.2753781190e+02   4.1478024220e+01    0.1420957     0.134206  42.53 0.0004674578    1.470    0.320
        33 -11.1264    133.7388    145.3288   9.4716833554e+01   2.5880450525e+01     1.206237    0.2900367 -54.35  0.002890681    5.823    0.828
        34 -10.1148    113.2297    151.6268   1.0093897570e+02   2.8384485045e+01    0.2894709    0.2146072  81.70 0.0005602569    1.567    0.362
        35  -9.8001    174.8310    149.1005   8.6169007697e+01   1.6512134886e+01     0.228209    0.2084693 -87.59 0.0006812272    1.252    0.201
        36 -10.2155    143.9673    146.7141   9.2587736561e+01   2.3504494969e+01    0.4704747    0.2043798 -59.59    0.0015103    3.374    0.704
        37  -8.9198    115.5349    144.5210   9.8990872709e+01   2.9577063494e+01    0.1486921    0.1363423  85.35 9.111795e-05    1.048    0.046
        38  -9.2856    128.1757    139.7941   9.4886345161e+01   2.8219658847e+01    0.2333042     0.204419  81.40  0.001218618    1.192    0.161
        39 -11.5336    110.3038    137.1145   9.8796368150e+01   3.2244614737e+01    0.5116091    0.3122475 -39.40  0.002226472    1.932    0.482
        40 -11.8293     99.0721    136.3667   1.0153319404e+02   3.4412683047e+01    0.3139161    0.2884975 -44.98 0.0005077583    1.192    0.161
        41 -11.1973    105.9029    130.7946   9.8604344429e+01   3.4514353153e+01     0.391703     0.332215 -77.33  0.001123886    1.178    0.151
        42 -10.9570    135.9280    127.8439   9.0268688865e+01   2.9309428379e+01    0.7014564    0.1469046 -48.40   0.00174168    4.866    0.794
        43 -10.4342    116.4911    128.4940   9.5343036831e+01   3.3073958421e+01    0.2939712    0.2614162 -19.26 0.0006791974    1.334    0.250
        44 -10.5886    104.6301    124.0174   9.7461164172e+01   3.6327886281e+01    0.2853362    0.2462891 -35.90   0.00067591    1.273    0.214
        45  -9.5472    120.6081    123.2116   9.3057841876e+01   3.3481056080e+01    0.2187799    0.1391931 -40.85 0.0006906266    1.658    0.397
        46 -10.1755    160.8007    128.0896   8.4397081565e+01   2.3856868720e+01     0.388575    0.2967021 -72.61  0.001765837    1.651    0.394
        47  -9.6092    153.0703    120.0145   8.4191686809e+01   2.7289310259e+01     0.241914    0.2335051 -39.26 0.0006982619    1.040    0.038
        48  -9.4680    111.4633    117.9584   9.4226512894e+01   3.6466017199e+01     0.220674    0.1991695  48.76 0.0003104933    1.148    0.129
        49  -9.8666    231.2719    113.7863   6.6885595217e+01   1.0674887419e+01    0.2507231    0.2346426  25.05 0.0007706934    1.123    0.110
        50 -10.0701    167.4920    112.4655   7.8919328998e+01   2.5553024667e+01    0.3424417    0.2610481 -80.05  0.001471722    1.757    0.431
        51 -11.1266    119.0924    110.4754   9.0325224321e+01   3.6678903374e+01    0.5276064    0.2767285  58.08  0.001941624    2.519    0.603
        52  -9.8508    205.4557    110.1380   7.0522369297e+01   1.7092991648e+01     0.325982    0.2203714  41.19  0.000929338    1.570    0.363
        53 -10.4823    134.5560    104.7823   8.4762791306e+01   3.4682611342e+01    0.5548774    0.1500591 -45.45  0.001551474    3.630    0.725
        54 -10.0080     75.0090    104.2609   1.0135853535e+02   4.5867352332e+01    0.1888277     0.184233 -59.48  0.000500777    1.098    0.090
        55 -10.1226     63.3313     99.0022   1.0371160518e+02   4.8731928156e+01    0.2037512    0.1601414 -60.65 0.0005073864    1.123    0.109
        56  -9.6207    128.2750     95.5789   8.3842689861e+01   3.8036764833e+01    0.3029671    0.1521215  51.04  0.001140496    2.134    0.531
        57  -9.9833    190.3437     89.6009   6.7935627294e+01   2.4450075073e+01    0.3324008    0.2996393 -65.43  0.001703681    1.160    0.138
        58  -9.2217    151.8478     82.1662   7.3984341190e+01   3.5332417652e+01    0.2160089    0.1879727   9.83 0.0003750659    1.304    0.233
        59  -9.8452     76.9375     74.5066   9.2863892889e+01   5.2313337976e+01    0.2086842    0.1753411 -43.29 0.0004021304    1.073    0.068
        60 -10.9246    150.4144    249.2099   1.0778080068e+02   3.6560640796e+00    0.2654406    0.2225003 -76.69 0.0009781168    1.539    0.350
        61  -9.4602    162.8303    235.3779   1.0378185598e+02   3.6527390088e+00    0.1795964    0.1626323 -77.98 0.0008312737    1.397    0.284
        62 -12.7100    187.8636     35.3175   5.2641725704e+01   3.3729746673e+01    0.6365763    0.5610553  18.24   0.00179772    1.322    0.243
        63 -10.5988    167.2258    226.9774   1.0179667565e+02   4.1733048810e+00    0.3711458    0.1696439 -44.96  0.001146071    2.650    0.623
        64 -11.0814     11.3426    216.1269   1.2962280854e+02   2.8322501965e+01    0.1446193    0.1237541  73.68  0.000715268    1.359    0.264
        65 -11.0592     81.8141    195.1644   1.1459103078e+02   2.3987941832e+01    0.3798753    0.3153895  42.65  0.001879993    1.330    0.248
