#   1 NUMBER                 Running object number                                     
#   2 MAG_AUTO               Kron-like elliptical aperture magnitude                    [mag]
#   3 X_IMAGE                Object position along x                                    [pixel]
#   4 Y_IMAGE                Object position along y                                    [pixel]
#   5 X_WORLD                Barycenter position along world x axis                     [deg]
#   6 Y_WORLD                Barycenter position along world y axis                     [deg]
#   7 A_WORLD                Profile RMS along major axis (world units)                 [deg]
#   8 B_WORLD                Profile RMS along minor axis (world units)                 [deg]
#   9 THETA_WORLD            Position angle (CCW/world-x)                               [deg]
#  10 FWHM_WORLD             FWHM assuming a gaussian core                              [deg]
#  11 ELONGATION             A_IMAGE/B_IMAGE                                           
#  12 ELLIPTICITY            1 - B_IMAGE/A_IMAGE                                       
         1 -13.8315    176.7593     41.8975   6.6960260213e+01   3.5633566012e+01     1.067264    0.8622165 -33.67  0.000855926    1.243    0.196
         2 -14.0892    187.3085     32.4134   6.2329122729e+01   3.4131521070e+01     1.136353     1.055006 -33.46  0.002876589    1.095    0.087
         3 -14.9927    194.9983     21.6354   5.8019698720e+01   3.3412929465e+01     2.415635     1.604193  17.50  0.001504536    2.027    0.507
         4 -12.8719     42.4487     14.5637   9.3649067131e+01   6.7802879448e+01    0.3878431    0.2427663  -4.81   0.00217758    1.806    0.446
         5 -10.4866     82.6795      6.0171   7.4506009724e+01   6.2301987622e+01    0.1822908    0.1492836  -5.68 0.0004126124    1.120    0.107
         6 -11.7296     57.2061      3.0886   8.1791382841e+01   6.7217633990e+01    0.2090401    0.1869048  23.02  0.001222227    1.273    0.215
         7 -14.7355     53.4474    231.8080   1.3169869318e+02   2.2158953128e+01      1.01519     0.714862 -76.23  0.007763185    1.504    0.335
         8 -16.1067    122.1159    237.8764   1.2048178842e+02   1.1845578512e+01      6.63141     2.510547  40.82   0.03332537    2.177    0.541
         9 -19.3709     13.8315    131.3307   1.3149092119e+02   4.6084027347e+01     17.24925     1.635609 -73.71   0.03839853   10.754    0.907
        10 -12.3335     40.3849    213.3952   1.3268735190e+02   2.6874571036e+01    0.3018463    0.1258558  54.61  0.001559666    1.927    0.481
        11 -10.6232     43.9529    210.0226   1.3182612307e+02   2.7083603907e+01    0.2876106    0.1194437  58.82  0.001487227    2.094    0.522
        12 -10.6797     40.3056    207.7294   1.3231357255e+02   2.7915237199e+01    0.1978184    0.1079222  55.01 0.0008865246    1.477    0.323
        13 -12.4739    116.3786    211.6557   1.1859632826e+02   1.6919549935e+01    0.3604055    0.2582089  71.35 0.0008323427    1.433    0.302
        14 -12.1303     65.1591    210.8729   1.2806998382e+02   2.4367635219e+01     0.471161     0.260201  85.46  0.001273448    1.906    0.475
        15 -12.0624    107.2477    210.1278   1.2014418946e+02   1.8593403603e+01    0.4294324    0.3065459  38.27   0.00271074    1.407    0.289
        16 -12.1568    105.8650    201.8490   1.1943680236e+02   2.0277103153e+01    0.4350621    0.2042627  43.60  0.002086098    1.839    0.456
        17 -13.3049     69.0380    195.1875   1.2589649552e+02   2.6797182186e+01    0.6720018    0.5104088 -85.05  0.003342592    1.225    0.184
        18 -13.4573    113.6397    197.7317   1.1739647473e+02   1.9805589158e+01      0.57525     0.421426  76.58  0.003485549    1.444    0.307
        19 -12.8985    195.2231    194.7784   1.0113560266e+02   6.1016202099e+00    0.7435929    0.5947776  73.83  0.003697677    1.834    0.455
        20 -16.1024     72.1699    148.5199   1.1961170257e+02   3.6035654632e+01      5.19059     2.666012  82.00   0.02055753    3.284    0.695
        21 -10.3304     81.7180    194.9391   1.2338300675e+02   2.5123757999e+01    0.2776425    0.1591344  42.87  0.001587198    1.606    0.377
        22 -11.9343    121.0356    200.2319   1.1626581598e+02   1.8165740864e+01    0.3026024    0.2472461 -10.20  0.001692728    1.898    0.473
        23 -11.4535    207.6926    183.9509   9.6896189767e+01   5.4184148068e+00    0.2932713    0.2670584  15.86  0.001028533    1.090    0.083
        24 -11.7100    211.0154    181.1522   9.5765429396e+01   5.2155321446e+00    0.3684002    0.2611185  11.76  0.001635619    1.521    0.343
        25 -12.1225     80.2260    179.8815   1.2196645184e+02   2.8290686453e+01    0.3272558    0.2208368 -45.41  0.001859521    1.970    0.492
        26 -12.4390     83.8784    174.5768   1.2053574182e+02   2.8846233672e+01    0.4902078    0.3080911 -57.15  0.001014419    1.674    0.403
        27 -10.7698     99.4271    180.6286   1.1803608311e+02   2.5294414137e+01    0.2220109    0.2008158  59.23 0.0006168084    1.123    0.109
        28  -9.8080     74.5515    181.2912   1.2331227051e+02   2.8794016835e+01     0.159513    0.1067877 -60.22 0.0009020844    1.578    0.366
        29 -11.6265    197.6920    174.8904   9.7042382516e+01   8.6395037328e+00    0.4393684    0.3122136 -42.99  0.001481129    1.598    0.374
        30 -10.7612    203.3147    167.8069   9.4594170648e+01   8.6651978314e+00    0.2837945    0.2288258 -65.59  0.001296009    1.783    0.439
        31 -10.6132     46.8459    218.1526   1.3188909769e+02   2.5288858253e+01    0.3947925    0.2772763   9.47  0.002296085    3.381    0.704
        32 -11.2743    145.4990    168.2556   1.0629722228e+02   1.9765132424e+01    0.2623276    0.2236957  81.21 0.0008194504    1.308    0.236
        33 -10.4797    141.3542    158.0575   1.0531501721e+02   2.2507014205e+01    0.2407941    0.1866765  55.72 0.0003664512    1.262    0.208
        34  -9.5515    151.6589    151.3233   1.0174429373e+02   2.1813404066e+01    0.1466275    0.1117442  81.38  0.000705082    1.726    0.421
        35 -10.7304    134.2452    148.2515   1.0500885147e+02   2.5820496556e+01    0.4325012    0.2035054 -59.69  0.001650129    2.737    0.635
        36 -11.6552    133.5070    142.5152   1.0402667056e+02   2.7135796809e+01    0.6908343    0.2557367 -56.18  0.002292349    3.457    0.711
        37 -10.6241    174.4214    148.9052   9.6393281272e+01   1.7645853841e+01    0.2820869    0.2452602  63.33 0.0008777612    1.260    0.206
        38 -11.1328     71.2783    210.1768   1.2688596782e+02   2.3701614142e+01     0.529278    0.2013741  54.41  0.002603673    2.371    0.578
        39 -12.1178    107.7251    141.4894   1.0990895482e+02   3.2077130017e+01    0.5358549    0.3228963 -36.59  0.002406713    2.207    0.547
        40 -12.2996     95.9091    142.2630   1.1290290010e+02   3.3879560936e+01    0.2721585    0.2544182  69.43 0.0003571702    1.074    0.069
        41 -11.5666    115.0489    131.5367   1.0615697370e+02   3.2929030872e+01    0.3352516    0.2867345  23.31 0.0009933207    1.368    0.269
        42 -12.1433    119.4243    126.7900   1.0406619568e+02   3.3140944476e+01    0.5180412    0.3336513 -46.99  0.002192861    1.558    0.358
        43 -11.1541    102.8267    127.8961   1.0845455579e+02   3.5890576107e+01     0.276583    0.2563829 -16.57 0.0007700208    1.283    0.221
        44 -10.6026    160.6556    128.1052   9.4688414038e+01   2.4471077063e+01    0.3101781    0.2633582 -40.36  0.001623371    1.202    0.168
        45 -11.6511    136.3398    123.9394   9.9308329709e+01   3.0422881168e+01    0.6524073    0.3110488 -47.81  0.002392918    2.118    0.528
        46 -10.4203    110.2583    120.0284   1.0487974268e+02   3.6306674745e+01    0.2243998    0.2012936  50.94 0.0003059008    1.136    0.120
        47 -11.8212     65.0218    114.3018   1.1578396446e+02   4.4689364457e+01    0.2510067    0.2144133  82.34 0.0004553182    1.179    0.152
        48 -10.1548    167.7780    112.7282   8.9355307572e+01   2.5859786231e+01    0.3018254    0.2187378 -78.18  0.001293833    2.066    0.516
        49 -10.8751    105.6117    130.8057   1.0834526616e+02   3.4769629224e+01    0.3372939    0.2909147  78.38  0.001214653    1.186    0.157
        50 -10.0458    205.5097    110.1915   8.1135961170e+01   1.7687535726e+01     0.263754    0.2060699  47.52 0.0006203601    1.298    0.230
        51  -9.8325    134.5097    102.9448   9.4546532810e+01   3.5155625059e+01    0.2358614    0.1469653 -43.57  0.001030981    1.584    0.369
        52  -9.3761    128.9614     95.4420   9.3920196581e+01   3.7871115865e+01    0.2066398    0.1332633  72.15  0.000697654    2.412    0.585
        53  -9.9763     36.2243    223.1325   1.3401543105e+02   2.5612417710e+01    0.1379381   0.08157839  66.46 0.0002019918    1.293    0.227
        54 -11.7565    169.2448     68.9921   7.6783113920e+01   3.3428138323e+01    0.5463544    0.3590542 -79.80  0.001233937    2.507    0.601
        55  -9.0083     72.3206     67.7299   1.0235524409e+02   5.3988097550e+01    0.1268948    0.1066079  86.72 0.0003091674    1.565    0.361
        56 -10.7987    168.1483    247.9371   1.1372516876e+02   3.4107523297e+00    0.1641349    0.1249898  50.70 0.0002862526    1.221    0.181
        57 -13.8323     59.4664    210.4450   1.2907076255e+02   2.5161144758e+01    0.7112141    0.4648004  74.61   0.00320204    1.315    0.240
        58 -10.8113     86.0798    238.1939   1.2670002571e+02   1.6951267703e+01    0.1780553    0.1313508  79.10 0.0004525918    1.270    0.212
        59  -9.0402    157.6742     27.7089   6.5678123607e+01   4.2409293476e+01    0.1541381    0.1050761  32.28 0.0003768593    1.616    0.381
        60 -11.8875    182.0992    233.5159   1.0948297996e+02   3.0339233891e+00    0.3225842    0.1816033  46.44  0.001897427    1.511    0.338
        61  -9.7651     66.7089    233.0756   1.2956865406e+02   2.0318858665e+01    0.1335222    0.1034498  72.55            0    1.099    0.090
