#   1 NUMBER                 Running object number                                     
#   2 MAG_AUTO               Kron-like elliptical aperture magnitude                    [mag]
#   3 X_IMAGE                Object position along x                                    [pixel]
#   4 Y_IMAGE                Object position along y                                    [pixel]
#   5 X_WORLD                Barycenter position along world x axis                     [deg]
#   6 Y_WORLD                Barycenter position along world y axis                     [deg]
#   7 A_WORLD                Profile RMS along major axis (world units)                 [deg]
#   8 B_WORLD                Profile RMS along minor axis (world units)                 [deg]
#   9 THETA_WORLD            Position angle (CCW/world-x)                               [deg]
#  10 FWHM_WORLD             FWHM assuming a gaussian core                              [deg]
#  11 ELONGATION             A_IMAGE/B_IMAGE                                           
#  12 ELLIPTICITY            1 - B_IMAGE/A_IMAGE                                       
         1 -15.8834      4.8409    129.9424   1.4274108490e+02   4.8024121698e+01     6.337002    0.6395524 -74.03   0.01608002    7.943    0.874
         2 -13.6737    199.1260     28.8559   6.6652438417e+01   3.1228389127e+01    0.6824061    0.6161829 -60.58  0.003115696    1.100    0.091
         3 -13.8099    216.4892      8.7478   5.9665409696e+01   2.9147487553e+01    0.7980062    0.7256224  87.42  0.004427765    1.127    0.113
         4  -9.7047     98.4737    148.7152   1.2061765423e+02   3.2388076516e+01    0.1874163    0.1336598 -47.24 0.0009253419    1.510    0.338
         5 -13.3713    227.1585    249.5841   1.1057573501e+02  -7.9000485460e+00     1.038098    0.1567407  41.31  0.003261812    5.673    0.824
         6 -12.9506     66.3564    249.9448   1.3981076996e+02   1.6703771370e+01    0.6062842    0.1905632  35.84  0.002631303    3.386    0.705
         7 -13.4609     43.9928    215.5305   1.4134391668e+02   2.5842031959e+01    0.5777848    0.4298727  84.60  0.002418197    1.160    0.138
         8 -13.7336      9.6400    207.1715   1.4729553146e+02   3.1184242588e+01    0.7499657    0.5620547  33.76  0.003806034    1.673    0.402
         9 -15.6662     13.4210    241.9506   1.4836384802e+02   2.4353624995e+01      2.80932     1.308952  49.99   0.01877105    1.593    0.372
        10 -15.0837     31.6940    229.2066   1.4456043427e+02   2.4677980706e+01    0.8902466    0.8191007 -81.02  0.007225414    1.508    0.337
        11 -13.1977    122.2458    249.1968   1.2958823900e+02   8.6698004863e+00    0.7049221    0.1550696  41.09  0.002598796    3.487    0.713
        12 -13.6517    100.5691    248.1557   1.3349006459e+02   1.2159234909e+01    0.7362458    0.2803981  41.62   0.00363642    2.062    0.515
        13 -12.8809     79.9269    247.9055   1.3723109752e+02   1.5194495582e+01    0.5466285    0.1721465  52.40  0.002471945    2.673    0.626
        14 -12.1183     56.2418    199.6094   1.3752541934e+02   2.7508595704e+01    0.2418561    0.2124514  88.19 0.0005022731    1.191    0.161
        15 -12.3210     63.1470    190.9485   1.3517218188e+02   2.8407453367e+01    0.2432572    0.2119462  81.68 0.0004242288    1.106    0.096
        16 -13.2253     60.4526    176.0860   1.3410226482e+02   3.1981938669e+01    0.4933668    0.2705388 -47.32  0.002179168    2.379    0.580
        17 -10.9814     74.4311    177.6894   1.3106134119e+02   2.9688440768e+01     0.229635    0.1984255  71.33 0.0003522742    1.024    0.023
        18 -13.5267    246.4443    247.2776   1.0696801773e+02  -1.0387968647e+01    0.7601663    0.4801252  16.80  0.005121739    1.296    0.228
        19 -12.0090     67.5291    143.3150   1.2780422847e+02   3.8486942396e+01    0.6071041    0.3387904  57.80  0.001966379    2.017    0.504
        20  -9.8086    108.6114    137.1337   1.1569007944e+02   3.3200187558e+01    0.2029568    0.1350611 -42.73 0.0005387616    1.643    0.391
        21 -10.6459     94.9659    135.0177   1.1889944313e+02   3.6138812222e+01    0.2083928    0.2004056 -73.99 0.0003149568    1.062    0.058
        22  -9.2105    105.6855    124.2199   1.1366157605e+02   3.6681055238e+01    0.1436422    0.1100278  68.15 0.0002178528    1.483    0.326
        23 -12.2748     81.5813    169.3953   1.2823510489e+02   3.0458811581e+01    0.4306449     0.379765 -35.74   0.00154426    1.460    0.315
        24 -10.5933     95.2996    152.9710   1.2220032375e+02   3.1961751963e+01    0.2567436    0.2109569  35.89 0.0007208535    1.300    0.231
        25 -11.9751     83.7697    151.9276   1.2497227347e+02   3.4080615604e+01    0.2797759    0.2348237 -53.91 0.0005294213    1.264    0.209
        26 -13.0406    174.0555    249.4851   1.2002217021e+02   3.2133593735e-01    0.5891244    0.1697694  39.85  0.002440069    2.712    0.631
        27 -13.0280    151.7249    249.3720   1.2413034467e+02   3.9410854039e+00    0.6297628    0.2452036  30.94  0.002507281    3.353    0.702
