#   1 NUMBER                 Running object number                                     
#   2 MAG_AUTO               Kron-like elliptical aperture magnitude                    [mag]
#   3 X_IMAGE                Object position along x                                    [pixel]
#   4 Y_IMAGE                Object position along y                                    [pixel]
#   5 X_WORLD                Barycenter position along world x axis                     [deg]
#   6 Y_WORLD                Barycenter position along world y axis                     [deg]
#   7 A_WORLD                Profile RMS along major axis (world units)                 [deg]
#   8 B_WORLD                Profile RMS along minor axis (world units)                 [deg]
#   9 THETA_WORLD            Position angle (CCW/world-x)                               [deg]
#  10 FWHM_WORLD             FWHM assuming a gaussian core                              [deg]
#  11 ELONGATION             A_IMAGE/B_IMAGE                                           
#  12 ELLIPTICITY            1 - B_IMAGE/A_IMAGE                                       
         1  -9.0949     40.8492     21.3838   9.3523768858e+01   6.5499806534e+01    0.3281921     0.144013 -32.96  0.001387569    2.253    0.556
         2 -10.5677     10.2657     18.7166   1.0558318832e+02   6.9278698937e+01     1.261489    0.5133104 -12.43  0.004475594    5.995    0.833
         3 -11.1752     23.5458     32.4079   1.0490800264e+02   6.6096430143e+01     1.249456     0.482172 -30.33  0.004527768    2.644    0.622
         4 -10.9021     37.2946      9.8331   9.0158003375e+01   6.7266101727e+01    0.7506705    0.4265833 -36.28  0.002490346    2.104    0.525
         5 -11.0709     20.2951      7.1861   9.6136846929e+01   6.9668995026e+01    0.9620341    0.7571555  57.86  0.006218586    3.048    0.672
         6 -10.3452      4.7887     41.8651   1.1630223438e+02   6.6212958290e+01    0.7245581    0.3070782 -52.68  0.003919546    2.223    0.550
         7  -9.7491      2.3501     14.3842   1.0761925215e+02   7.0524599387e+01    0.3965846      0.20342 -50.27  0.002003543    2.739    0.635
         8 -10.5995      5.0303      4.6660   1.0218411456e+02   7.1510730319e+01     0.462843    0.3089982  10.11   0.00174527    1.242    0.195
         9  -9.9441     69.6313     40.7861   9.0509379069e+01   5.8688577556e+01    0.8621407    0.3624723 -30.11  0.003891347    2.572    0.611
        10  -9.0758     78.5681      4.0503   7.4398022244e+01   6.1036027731e+01    0.4228886     0.234246   1.04  0.002153234    2.275    0.560
        11 -10.1478     76.2524     32.0273   8.5276029919e+01   5.8675070763e+01    0.5619166    0.4106449  77.31  0.001020351    2.550    0.608
        12 -10.4054     73.7044     17.6772   8.0808375661e+01   6.0711241514e+01     1.161163    0.3247657 -26.45  0.004585873    4.120    0.757
        13 -10.2992     35.9138     37.9531   1.0181787438e+02   6.3918057274e+01    0.3560367    0.2100142 -22.89 0.0003612537    1.601    0.376
        14  -9.9046     63.8814      3.0738   7.8159063912e+01   6.3755392158e+01    0.4153261    0.2501586 -27.54  0.002644577    1.884    0.469
        15  -9.7745     60.7495     31.7540   9.0228113911e+01   6.1314102116e+01    0.7561527    0.3673196 -22.68   0.00287243    2.340    0.573
        16 -10.4492     50.6136     15.6309   8.7557826921e+01   6.4744904019e+01     1.233773     0.563957  15.79  0.005119069    3.807    0.737
        17  -9.7194     63.0412     20.9116   8.5364617349e+01   6.2212278465e+01    0.4501185    0.2478293 -43.97  0.001709939    2.601    0.616
        18  -9.9245     64.5485     13.3964   8.1986048160e+01   6.2727238507e+01     0.306361    0.2666231  -9.43 0.0001964073    1.263    0.209
        19  -9.7874    155.3620     25.8968   6.5588543068e+01   4.2655765411e+01    0.3897305    0.2778215 -41.45  0.002291654    1.546    0.353
        20  -8.3246    104.8984     14.5615   7.1687450075e+01   5.4943397929e+01    0.3057529    0.1818103   7.65  0.001591764    2.346    0.574
        21  -9.0446    103.2227     21.5576   7.4360262832e+01   5.4619898367e+01    0.3639418    0.1973834 -37.89 0.0007607752    2.151    0.535
        22  -8.7148    128.5520     24.8300   6.9974054669e+01   4.8845968232e+01    0.4343993    0.2316786 -19.76  0.001441894    2.437    0.590
        23  -8.2329    128.9662     16.2271   6.7371460972e+01   4.9615921380e+01    0.2840579    0.1569302 -45.79   0.00121716    2.181    0.541
        24  -8.8807    132.8324     17.3117   6.6991630818e+01   4.8653717349e+01    0.2930146    0.2119182 -33.64  0.001291419    1.597    0.374
        25  -8.9256    133.4664     11.4680   6.5213337810e+01   4.9057893978e+01    0.3155224    0.1672529 -50.42  0.001471634    2.391    0.582
        26  -9.4406    119.0255     21.5200   7.0877431773e+01   5.1277623586e+01    0.2373135    0.1985662 -26.40 0.0004677749    1.376    0.273
        27  -8.9660    109.9498      5.5503   6.7737156706e+01   5.4655383848e+01     0.448761     0.232312 -29.68  0.002482671    2.240    0.554
        28  -8.2319    104.7914      1.7623   6.7559102587e+01   5.6025036756e+01    0.3038348    0.1199783  52.21  0.001385332    1.927    0.481
        29  -9.3793    112.2641     17.0797   7.0902930004e+01   5.3162302133e+01     0.571104    0.2118694 -22.43  0.002415328    3.435    0.709
        30  -9.0423    113.9941     10.1940   6.8391684006e+01   5.3414407700e+01    0.3120689    0.1485647  46.28 0.0003735965    1.812    0.448
        31  -9.0930     96.2788     14.9485   7.3801324740e+01   5.6669747753e+01    0.4863248    0.2328447 -10.94  0.002270771    3.005    0.667
        32  -9.4681     85.2875     13.0511   7.5892985260e+01   5.9001841001e+01    0.3745894    0.2401912 -54.24  0.001588469    2.566    0.610
        33  -7.7352     80.5703     12.7190   7.7031849874e+01   5.9925734877e+01    0.1921218    0.1503035 -55.77  0.001221243    1.903    0.475
        34  -8.0897     85.5620      6.1745   7.3375265207e+01   5.9538156469e+01     0.366298    0.1570576  33.63  0.001752309    2.469    0.595
        35  -8.2907     88.7981      2.8195   7.1405783402e+01   5.9172349504e+01    0.1779832    0.1458025 -36.81 0.0007422633    1.537    0.349
        36  -8.6602    141.3456     12.4208   6.4189604321e+01   4.7210954003e+01    0.2075583    0.1778512  68.71  0.000666976    1.027    0.026
        37  -8.6693    124.9554     13.1268   6.7192514616e+01   5.0786141338e+01     0.197173    0.1675357 -45.12 0.0006079953    1.382    0.276
        38  -8.8714    126.7198      8.9984   6.5661347946e+01   5.0763679314e+01    0.2457886     0.178809  58.46 0.0007963647    1.133    0.117
        39  -9.6024    125.7509      5.1024   6.4691948259e+01   5.1300982432e+01    0.5902322    0.1527762  54.18  0.002427716    2.769    0.639
        40  -8.0842    156.0000      9.9315   6.1360600176e+01   4.4135868586e+01    0.1728345   0.07107852 -27.85 0.0007635607    2.910    0.656
        41  -8.3227    101.9927      8.3130   7.0278972880e+01   5.6086928887e+01    0.1904027    0.1568486 -50.07 0.0005629718    1.543    0.352
        42  -8.1623     97.6433      6.1332   7.0511849353e+01   5.7151817311e+01    0.2033715    0.1444233  18.52 0.0008029304    1.517    0.341
        43  -8.2917     95.6226      2.7705   6.9828214685e+01   5.7821439057e+01    0.1890376    0.1571297 -53.80 0.0005456813    1.588    0.370
        44  -8.4548    143.2953      5.3661   6.1978910480e+01   4.7400839999e+01    0.2647463    0.1439916 -64.00  0.001051556    2.523    0.604
        45  -8.9286    131.7374      5.7733   6.3884275203e+01   4.9932926660e+01    0.3035983    0.1256916  50.68  0.001475486    2.042    0.510
        46  -8.4826    136.3144      1.7886   6.2050759939e+01   4.9246819880e+01    0.2892189    0.1309474  46.02 0.0009449047    2.140    0.533
        47  -8.8541    115.4394      4.1770   6.6255968713e+01   5.3600498638e+01    0.2550499    0.1950525 -44.02  0.001291003    1.592    0.372
        48  -8.1638    151.1559      1.8582   5.9955746926e+01   4.5939341708e+01    0.1843951    0.1430323 -85.79  0.001009606    1.256    0.204
        49  -9.7800     27.5083    122.9832   1.2714135531e+02   4.7799849275e+01    0.5761853    0.3225287  73.72   0.00210782    3.105    0.678
        50 -11.7510    232.2041    250.4242   1.0109518349e+02  -1.2591640719e+01    0.2678203    0.1665638  38.38 0.0003358991    1.727    0.421
        51 -10.5587    204.7568    249.0092   1.0604914411e+02  -8.5115521514e+00    0.4247999    0.3575162  38.18  0.002752998    1.310    0.237
        52 -10.3324    199.4754    249.3141   1.0712983874e+02  -7.7711767009e+00    0.4283264    0.3455229  87.02  0.002423331    2.251    0.556
        53  -9.6946     41.3483    121.8166   1.2271690466e+02   4.6694476374e+01    0.6094404    0.3022744 -79.00  0.001988454    3.207    0.688
        54  -8.3557    247.4702    122.5020   7.3936715756e+01   7.2047110882e+00    0.1354485     0.115103 -48.09 -8.330448e-05    1.050    0.048
        55  -8.8939    158.1233    122.2354   9.0268195765e+01   2.5942870363e+01    0.2914695    0.2165067  70.37 0.0009610233    1.587    0.370
        56  -7.0279     81.6275    122.2834   1.1058944763e+02   4.1140243067e+01    0.1492896    0.1141118  73.23 0.0001473864    1.706    0.414
        57  -7.6106    183.0172    119.7487   8.4334995031e+01   2.0931381155e+01    0.2008625    0.1910875  72.44            0    1.079    0.073
        58  -9.0353    244.2586    118.9717   7.3680083253e+01   8.4371862179e+00    0.1905034    0.1574799 -51.30 0.0004680001    1.028    0.027
        59 -10.1234     91.9567    113.3082   1.0534210695e+02   4.1475303369e+01     0.627086    0.4440136 -73.70  0.001788967    1.861    0.463
        60  -8.1252      1.3688    116.3261   1.3388724004e+02   5.1322316902e+01     0.297219   0.09968664 -70.18  0.000923275    2.561    0.610
        61  -9.3488    151.9847    115.4668   8.9999124109e+01   2.8755643376e+01    0.3759593    0.2323319  63.28  0.001529165    1.966    0.491
        62 -10.2485     78.1391    113.0111   1.0941311197e+02   4.3853245195e+01    0.5500346    0.3405287 -72.41  0.001948796    2.314    0.568
        63  -7.8672     77.6957    105.6399   1.0769895823e+02   4.5584927756e+01    0.2412908    0.1716766 -31.65  0.001188759    1.468    0.319
        64  -9.1771     19.0755    116.2451   1.2852264938e+02   5.0102320786e+01     0.343845    0.1540545   8.70  0.001474274    3.395    0.705
        65  -7.9379    167.1908    114.2828   8.6301644090e+01   2.5594943188e+01    0.2953878      0.18834 -67.16 0.0008644429    2.048    0.512
        66  -9.1128    159.2275    112.2569   8.7542722596e+01   2.7808088736e+01    0.3882541    0.2489876 -64.48  0.001004755    1.936    0.484
        67 -10.6931     63.5383     97.0358   1.0997767519e+02   4.9590932863e+01    0.9905851    0.5583057 -70.85  0.002785631    3.068    0.674
        68  -8.9751     64.9307     85.9793   1.0652622311e+02   5.1703423373e+01    0.6359203    0.3598257  -7.05  0.002378643    3.461    0.711
        69 -10.0517     65.9717    111.0179   1.1269270391e+02   4.6138446393e+01    0.6644867     0.454196  72.45  0.001174156    2.348    0.574
        70  -9.9249     59.9530    110.1147   1.1437470860e+02   4.7176226645e+01    0.5385558    0.3676763 -42.15  0.002033198    1.357    0.263
        71  -9.1463     35.5658    110.8763   1.2232508686e+02   4.9858347096e+01    0.5557454    0.3257014  85.13  0.002261556    3.294    0.696
        72 -10.3318     14.1912    109.9779   1.2893710028e+02   5.1918708043e+01    0.7456796    0.3220232 -70.80  0.003347841    2.311    0.567
        73 -10.8555     20.4980    100.3741   1.2507946555e+02   5.3596673652e+01     1.020754    0.5642247  88.75  0.004163599    3.642    0.725
        74 -10.0363     34.6165     90.8533   1.1817350406e+02   5.4402601026e+01    0.5219409    0.2734284 -70.58  0.001738493    2.745    0.636
        75  -9.8875     36.7792     81.2086   1.1497928574e+02   5.6191212765e+01    0.9381708    0.4405875 -12.75  0.003060509    5.251    0.810
        76  -9.7419     20.5168     84.7261   1.2167318562e+02   5.6971673077e+01    0.7012442    0.2823479 -55.99  0.002187595    2.045    0.511
        77 -10.6687     25.7513     78.4562   1.1825815699e+02   5.7817081710e+01    0.7684508    0.6322841  82.36  0.003094352    1.801    0.445
        78 -10.8474     44.9057    102.5137   1.1745855495e+02   5.0757174054e+01    0.8210979    0.5027367  78.96  0.002998396    3.743    0.733
        79  -9.3777     40.0503    106.5808   1.1996621465e+02   5.0375900912e+01    0.4605018    0.1634277 -60.99  0.001753081    2.742    0.635
        80  -8.7589    150.1230     97.0248   8.5683348538e+01   3.2946250228e+01    0.3738116    0.2051065  35.54  0.001437037    2.344    0.573
        81 -10.0252    139.6552    103.4630   8.9839179365e+01   3.4003362688e+01    0.7128381    0.3411573 -45.09  0.001916636    2.081    0.520
        82  -9.5379      6.4722    103.8561   1.3030536186e+02   5.3827754026e+01    0.3997906    0.2597623  61.31  0.001497855    2.168    0.539
        83  -7.7967      1.4892    105.5143   1.3216296666e+02   5.3760290828e+01    0.1948419   0.08249804 -56.41 -2.750481e-06    1.728    0.421
        84  -8.8741    165.9774    104.1682   8.4043341680e+01   2.7922284400e+01    0.3193752    0.2152778 -45.06 0.0005225512    1.457    0.314
        85  -9.0901     92.7607    103.5266   1.0256512495e+02   4.3500828939e+01    0.6167157    0.3451115  18.96  0.002289912    2.904    0.656
        86 -10.0500    149.5110    103.2927   8.7460507378e+01   3.1836859967e+01    0.7237746    0.3146289 -55.62  0.002356237    3.110    0.678
        87  -9.5814     81.5136     99.4682   1.0489675619e+02   4.6312664014e+01    0.7106396    0.2884935 -50.18  0.002025103    2.397    0.583
        88  -8.1892     73.7372    102.1778   1.0804321856e+02   4.6968221987e+01    0.3222722    0.1526438 -45.02  0.001341148    1.970    0.492
        89  -9.1931    159.1445    101.2144   8.4762163572e+01   3.0067274251e+01    0.3071708    0.2285908 -58.04 0.0004503497    1.399    0.285
        90  -8.3218    243.9898    101.5078   7.0148957395e+01   1.1605828732e+01    0.1720272    0.1136911  31.97 0.0008106055    2.587    0.614
        91  -8.9670    169.0821     97.0644   8.1610533103e+01   2.8598373005e+01    0.4139492    0.2972072  12.52  0.001328038    2.347    0.574
        92  -9.4957     94.3067     97.0741   1.0035821493e+02   4.4594432625e+01    0.3850233    0.2662727 -56.48 0.0006639023    1.585    0.369
        93  -8.8244     96.1997     90.8158   9.8048766301e+01   4.5528112655e+01    0.4716676    0.3072442  -1.54  0.001925742    2.553    0.608
        94  -8.9967    164.5154     94.6186   8.1930468321e+01   3.0115877153e+01    0.3200382    0.2173589 -73.65 0.0007660764    1.936    0.483
        95  -9.4601    138.9207     92.7475   8.7154580388e+01   3.6302780340e+01    0.4899314    0.4047752 -76.17  0.001756845    1.394    0.282
        96  -8.3584    139.2339     87.8854   8.5758152219e+01   3.7159624821e+01    0.3387389    0.1944395  33.03  0.001346825    2.275    0.561
        97  -9.1841    150.5896     89.2769   8.3530704628e+01   3.4324172200e+01    0.3708172    0.2223162 -35.25  0.001471595    1.813    0.448
        98 -10.1516      4.2839     89.6823   1.2841226328e+02   5.7058906860e+01    0.5499622    0.3008875 -81.96   0.00191688    2.517    0.603
        99  -9.5778      5.9240     79.1083   1.2564721029e+02   5.9173658945e+01    0.6346798    0.2340388 -30.45    0.0027049    3.242    0.692
       100  -9.2794    157.9324     90.7964   8.2331344496e+01   3.2353926878e+01    0.4576188    0.2205792 -38.67  0.001703311    2.161    0.537
       101  -8.6841    107.9868     91.4987   9.4845994387e+01   4.3120238664e+01    0.4464587    0.2855754  32.88  0.001789449    1.700    0.412
       102  -9.6877    112.9093     89.1133   9.2808784479e+01   4.2596169224e+01     0.505339    0.3215228  39.10  0.002328021    1.598    0.374
       103 -10.3258     85.2262     86.5560   1.0015504679e+02   4.8350566407e+01    0.5504011     0.434155  73.09 0.0008969696    1.814    0.449
       104  -9.3988     87.1010     78.9584   9.7347713787e+01   4.9486849350e+01    0.5763874    0.3391056  22.13   0.00223339    2.196    0.545
       105 -10.5169     48.1331     83.3092   1.1152404034e+02   5.4482834068e+01     1.063627     0.403445 -47.42  0.002191306    2.290    0.563
       106  -8.5777    163.3650     87.2872   8.0284724620e+01   3.1749378374e+01    0.2601441    0.1766459 -53.15 0.0005937305    1.514    0.340
       107  -8.7493    229.6330     85.7819   6.8823844200e+01   1.7198262832e+01    0.2534021    0.1969082 -82.12 0.0005766059    1.261    0.207
       108 -10.4231    104.0317     82.5460   9.3393742497e+01   4.5636732644e+01    0.5394359    0.3425274 -55.87  0.001052257    1.906    0.475
       109  -9.5142    105.2478     71.4187   8.9742690654e+01   4.7402914143e+01    0.7661973    0.3841536 -30.29   0.00315757    2.365    0.577
       110  -9.4306    109.8522     63.9253   8.6207998987e+01   4.7714040368e+01    0.3400345    0.2758863 -55.06 0.0006365074    1.436    0.304
       111  -9.1725    110.9248     58.2354   8.4177512934e+01   4.8383071190e+01    0.3975043    0.2725147  27.46  0.001305261    1.633    0.388
       112  -8.7345    157.6107     83.6517   8.0527565737e+01   3.3740644830e+01    0.2683465    0.2320883 -71.25 0.0005990262    1.192    0.161
       113  -9.5970    140.5911     81.8373   8.3782115517e+01   3.7966712660e+01    0.5779898    0.3450466 -34.70  0.001396476    1.821    0.451
       114  -9.2155    139.8975     75.6438   8.2226415835e+01   3.9216092008e+01    0.4293808    0.2106462 -35.99  0.001365158    2.200    0.546
       115  -9.4666    150.1343     79.6390   8.1049350679e+01   3.6180423563e+01    0.5903258    0.2860268 -33.23  0.002309122    2.405    0.584
       116  -9.1905     74.1679     79.5910   1.0163686655e+02   5.1552897658e+01    0.5399046    0.2312821 -48.28  0.001556518    2.371    0.578
       117  -7.7580     63.4136     82.1364   1.0594469692e+02   5.2692325579e+01    0.1814801    0.1247072 -57.43 0.0004589271    1.665    0.399
       118  -9.2081    115.1727     72.1248   8.7268846757e+01   4.5241184974e+01    0.5058485    0.2648898 -35.03  0.000915177    2.043    0.511
       119  -8.9186    119.1285     80.5739   8.8702913810e+01   4.2910565162e+01    0.2838426    0.2427539 -65.44  0.000558076    1.336    0.251
       120  -8.3394    119.8573     75.9174   8.7164386245e+01   4.3589726725e+01    0.3324606    0.2514229  22.38 0.0009230034    1.547    0.354
       121  -8.0755     68.9593     79.8514   1.0342643697e+02   5.2317264330e+01    0.3087918    0.1607447 -39.17  0.001300252    1.846    0.458
       122  -9.6949    225.2698     89.6403   7.0249985251e+01   1.7443904139e+01    0.2348969    0.2112115 -63.59 0.0002501951    1.087    0.080
       123  -7.9219    184.1796     78.2935   7.4094621669e+01   2.8513182184e+01     0.232449    0.1934673 -31.54 0.0007949568    1.376    0.273
       124  -9.0788    166.2799     78.3383   7.7393285008e+01   3.2663559249e+01    0.2992614    0.2041256 -35.41  0.001230815    1.584    0.369
       125  -9.6934    157.1724     76.3441   7.8687516874e+01   3.5125585518e+01    0.5330402    0.2234767 -43.54  0.001850254    2.415    0.586
       126  -9.4758    127.4255     75.2631   8.5070134379e+01   4.2065672799e+01     0.398973    0.2927694 -79.40 0.0008322932    1.938    0.484
       127  -9.2585    129.9393     67.0431   8.2094527525e+01   4.2892538157e+01    0.7336998     0.465485 -19.83  0.003314047    2.114    0.527
       128  -8.6281    130.0064     58.0346   7.9458738577e+01   4.4285298763e+01    0.2902265    0.1939832 -47.48 0.0004745793    1.650    0.394
       129  -8.1942    130.4695     54.0162   7.8178361524e+01   4.4774008843e+01     0.280017    0.1675895  34.70  0.001286147    1.957    0.489
       130 -10.0174     62.1543     60.7923   9.9860359877e+01   5.6804389086e+01     0.554001    0.2703287  33.02  0.000800228    2.065    0.516
       131 -10.6783     55.2621     71.0269   1.0548707798e+02   5.5962681950e+01    0.6826042    0.4876001  67.45  0.001454019    2.671    0.626
       132  -9.5142     54.7502     63.5829   1.0336706268e+02   5.7379414792e+01    0.3927916    0.2511844   8.20  0.001433817    1.824    0.452
       133  -9.1325     83.3159     64.7735   9.4155234694e+01   5.2683523321e+01     0.437516    0.2898165   4.47  0.002102566    2.022    0.506
       134  -9.9420    186.8400    249.4839   1.0965766449e+02  -5.8644556599e+00    0.3053592    0.1534077  39.32  0.001456293    1.825    0.452
       135  -9.7336     15.9814     70.6533   1.1990490937e+02   6.0178063247e+01    0.5022533    0.2188506 -43.12  0.001166327    1.832    0.454
       136  -9.8113     16.9480     61.1911   1.1699098438e+02   6.1907064513e+01    0.7452742     0.217878 -48.14  0.003303978    2.583    0.613
       137 -10.3621    176.1882    248.9999   1.1172303995e+02  -4.1058267013e+00    0.4566984    0.1984816  33.43  0.002013761    2.167    0.539
       138  -9.8646    166.9367    248.3215   1.1350064039e+02  -2.5021561786e+00     0.366194    0.2318834  -9.06  0.001678995    2.588    0.614
       139  -7.3242     10.2818    247.3165   1.4446637872e+02   2.0575956574e+01    0.1000123   0.07947578 -64.95 0.0002177062    1.579    0.367
       140 -10.0324    187.8210    244.1507   1.0859684120e+02  -5.1271647275e+00    0.3141902     0.142403  27.93  0.001337343    2.420    0.587
       141  -9.1642    249.9775    240.0051   9.6117584006e+01  -1.3393982726e+01    0.2323131    0.1528609 -34.29 0.0003594373    1.434    0.302
       142 -10.2302     13.4507     45.4272   1.1370664844e+02   6.4972589952e+01      0.67647    0.3403597  -4.27  0.003103274    2.435    0.589
       143 -10.3059    187.8425    234.1674   1.0692387069e+02  -3.4047349055e+00     0.342953    0.3331994  23.64  0.001982133    1.169    0.144
       144 -10.1251    144.3649    227.3660   1.1496811142e+02   5.2594209238e+00    0.2433315    0.2338114  49.18 0.0002267054    1.040    0.039
       145  -9.5995      6.8877     32.5130   1.1228341020e+02   6.7566232785e+01    0.2385072    0.1675602  -2.16 0.0007283884    1.259    0.206
       146 -10.2032      7.1889     28.4364   1.1070218448e+02   6.8161686944e+01    0.3260542    0.2590435  21.36  0.001044771    1.527    0.345
       147  -8.4175    162.9310     73.2140   7.6715068370e+01   3.4315301600e+01    0.2599649     0.184826 -67.53 0.0008419346    1.620    0.383
       148  -8.7078    169.2999     70.9642   7.4925898923e+01   3.3201600463e+01    0.2710322    0.1897184 -43.96 0.0004739215    1.450    0.310
       149  -8.7875    170.5329     65.4594   7.3295610183e+01   3.3800548779e+01    0.3463067    0.2005378 -42.49  0.001335869    1.753    0.430
       150  -9.3106    147.0957     69.3982   7.8913720047e+01   3.8621495658e+01    0.3951409    0.2506631 -61.04 0.0009498202    1.973    0.493
       151  -8.2680    146.6903     64.6405   7.7689321531e+01   3.9480182347e+01    0.3401062    0.2166756  22.67  0.001425359    2.563    0.610
       152  -7.5593    211.8737     70.6334   6.7991269125e+01   2.3516054638e+01    0.1904215    0.1193762  78.62 0.0009356334    1.709    0.415
       153  -7.1292    174.2887     78.7125   7.5969811275e+01   3.0734479351e+01    0.1448632    0.1070295 -77.69 0.0003317067    1.536    0.349
       154  -9.8542     94.8242     68.3071   9.1773591633e+01   4.9973853275e+01    0.4201197     0.259794 -49.50 0.0009126621    1.861    0.463
       155  -9.3762     96.9068     59.0059   8.8248266236e+01   5.1093804083e+01    0.6628048     0.409045 -10.71  0.002982684    2.356    0.576
       156  -9.4706     43.6021     53.5738   1.0423385045e+02   6.0541450478e+01    0.3254407    0.1895534 -52.04 0.0008375101    2.095    0.523
       157  -9.4080     39.7634     52.1424   1.0522787537e+02   6.1242951180e+01    0.3803111    0.1668761 -34.79  0.001832635    2.165    0.538
       158 -10.4941     31.6626     64.9751   1.1235863992e+02   5.9873497410e+01     0.940551    0.4436333 -30.25  0.004491307    2.241    0.554
       159  -7.8846     23.2867     69.0310   1.1669981535e+02   5.9895168461e+01    0.1676195    0.1316137 -42.14 0.0003220725    1.124    0.110
       160  -9.1820    138.0923     66.3967   8.0038010315e+01   4.1166483781e+01    0.3969016    0.2289281 -45.17 0.0004632072    1.840    0.457
       161  -9.1669    141.9377     48.6168   7.4192911592e+01   4.2937215689e+01    0.2889307    0.2214393 -21.61 0.0004995558    1.552    0.356
       162  -7.9852    139.4787     61.4937   7.8345798381e+01   4.1623387712e+01    0.2653657    0.1715117  45.01 0.0008725242    1.522    0.343
       163  -9.4254    138.9246     56.7764   7.7127221657e+01   4.2462144253e+01    0.5648922    0.3644314 -50.88  0.002252153    1.744    0.427
       164  -8.3069    137.3083     52.7022   7.6308504564e+01   4.3421499911e+01    0.2545879    0.1651504  68.96 0.0005520796    1.660    0.398
       165  -9.0890    121.4231     66.1837   8.3907453488e+01   4.4899644661e+01    0.3327844    0.2641773 -84.04  0.001018114    1.663    0.399
       166  -8.3754    122.6347     61.0545   8.2086435735e+01   4.5450325581e+01    0.3339731    0.1973074  32.28  0.001237246    2.042    0.510
       167  -9.9417     81.5498     72.3226   9.7070588158e+01   5.1677062115e+01    0.4076613    0.2983024 -59.50  0.000995678    1.779    0.438
       168  -8.6773    157.4682     63.2029   7.5133034456e+01   3.7206303485e+01    0.2642863    0.2136039  84.45 0.0007155446    1.285    0.222
       169  -8.0181      9.8685     60.6514   1.1965023182e+02   6.2537831112e+01    0.2756363    0.1540819 -70.08  0.001402234    2.707    0.631
       170  -8.9223     80.0011     46.5151   8.9178895933e+01   5.6105712649e+01    0.3160388    0.1970105 -25.75   0.00128731    1.684    0.406
       171 -10.0986     72.9640     58.7781   9.5542452667e+01   5.5443789984e+01    0.5814814    0.2533289 -47.91  0.001043127    2.780    0.640
       172  -8.9595     75.7298     50.5163   9.1889179329e+01   5.6268591744e+01    0.4702482    0.2674724  20.99  0.002220069    2.175    0.540
       173  -8.2902    164.5023     60.0850   7.2996258231e+01   3.6043313807e+01    0.1983117    0.1357532 -41.74 0.0009092775    1.519    0.342
       174  -8.5103    152.4068     60.2466   7.5325644131e+01   3.8838715567e+01    0.1939464    0.1268762 -49.84 0.0009452009    1.633    0.388
       175  -8.6922    146.5900     59.2414   7.6217986234e+01   4.0336950758e+01    0.3037778    0.2174431 -67.42 0.0008346291    1.698    0.411
       176  -8.3995    147.6610     53.3164   7.4365165286e+01   4.0961698675e+01    0.4449034    0.1777722 -28.75   0.00163741    3.307    0.698
       177  -8.6084     87.6304     58.4874   9.0812131742e+01   5.2931118449e+01    0.2910731    0.2255425 -56.74  0.001062643    1.681    0.405
       178  -8.2669     87.3595     54.3320   8.9540435975e+01   5.3624297700e+01    0.4742477    0.2407551  22.14   0.00180392    3.281    0.695
       179  -9.3927    118.3186     54.6524   8.1212436800e+01   4.7350127342e+01    0.4441169    0.2898386 -37.90  0.001354048    1.637    0.389
       180  -7.4409    157.6282     56.2678   7.3254636451e+01   3.8219259525e+01    0.1431257    0.1022361 -85.24 0.0006992579    1.669    0.401
       181 -10.0457     50.0503     54.4671   1.0211803427e+02   5.9566318978e+01    0.5151796    0.3541006 -63.09  0.001491185    2.481    0.597
       182  -9.9059     56.2787     43.3446   9.6018472259e+01   6.0421870341e+01    0.8391483    0.4143073  10.06  0.003009517    4.502    0.778
       183  -8.5943     53.4982     39.0583   9.5486567394e+01   6.1440156325e+01    0.2980717    0.1303514 -33.79 0.0009918716    2.258    0.557
       184  -8.8502     54.5016     35.5089   9.3824094737e+01   6.1780994647e+01     0.405093    0.1887343 -21.53  0.001856333    2.714    0.632
       185  -7.1324    166.6902     49.7252   6.9934528711e+01   3.7042851304e+01    0.1312166    0.1006903  37.71 0.0002007356    1.553    0.356
       186  -7.6399    162.4934     46.4702   6.9804078187e+01   3.8470204185e+01    0.1960268     0.120701 -49.22 0.0007633576    1.723    0.420
       187  -8.8763    162.8276     54.1587   7.1751854165e+01   3.7313849740e+01    0.2617647    0.2013743 -62.74  0.000969143    1.371    0.270
       188  -7.9832    163.5539     50.5108   7.0673531436e+01   3.7664781132e+01    0.2465572    0.1657047 -49.76  0.001280707    1.557    0.358
       189  -9.0903    105.4933     51.7839   8.3587009831e+01   5.0462569295e+01    0.5130762     0.236612 -33.80  0.001704364    2.328    0.571
       190  -7.1027    152.5550     53.5355   7.3476438665e+01   3.9797028992e+01    0.1377547     0.124973  79.74 3.956795e-05    1.045    0.043
       191  -9.3871    130.2268     47.6709   7.6369479969e+01   4.5718169245e+01    0.6028221    0.2451791 -32.01   0.00138409    2.772    0.639
       192  -8.1474    132.3163     41.3319   7.4066154894e+01   4.6084168165e+01    0.3624079    0.2532194  31.09  0.001923923    1.648    0.393
       193 -10.1523     85.1423     48.0778   8.8133211654e+01   5.4953741849e+01    0.3605121    0.2808161 -55.12 0.0009365432    1.721    0.419
       194 -10.3124     89.5566     38.3977   8.3566068169e+01   5.5431925370e+01    0.8084115    0.2829354  37.23  0.003018277    3.262    0.693
       195  -8.3605    149.8852     47.8831   7.2442897912e+01   4.1207978402e+01    0.2255818    0.1874095 -64.81  0.000432228    1.290    0.225
       196  -8.9333    121.0712     46.9712   7.8220319711e+01   4.7835423442e+01    0.2773979    0.1845229 -39.15 0.0004706316    1.638    0.390
       197  -8.0785    122.8993     40.8499   7.5947321109e+01   4.8237402354e+01    0.3439866    0.2016426  18.72  0.001463011    2.855    0.650
       198  -8.6812    112.0231     46.8809   8.0366265706e+01   4.9790103024e+01    0.2278251    0.1918926 -43.98 0.0004861997    1.334    0.250
       199  -8.6067    113.7233     41.5448   7.8280930941e+01   5.0133909398e+01    0.3801621    0.2229829  11.01  0.001585149    3.047    0.672
       200  -7.1955    110.6355    224.6927   1.2197202252e+02   1.1602083982e+01    0.1361458    0.1111603  -6.87 0.0007038155    1.745    0.427
       201  -7.6892     16.9283    218.7132   1.4122452884e+02   2.5981121491e+01    0.1655749    0.1315295  73.10 0.0005166513    1.100    0.091
       202  -7.6373    145.8960    212.8640   1.1222313806e+02   8.0070048053e+00    0.1945883    0.1621872  63.69 0.0004234743    1.291    0.225
       203  -8.3561     15.5093    206.4961   1.4050803637e+02   2.8892690365e+01       0.2367    0.1498184  89.56  0.001184972    1.316    0.240
       204  -9.9592     78.9901     24.3476   8.1692687500e+01   5.9060945256e+01    0.5216805    0.2224308  31.52  0.001423104    2.769    0.639
       205  -8.9405     84.6862     21.8838   7.9193575486e+01   5.8260567403e+01    0.2153238    0.1954169  34.54 0.0006354465    1.136    0.120
       206  -9.0501     39.8209     35.3660   9.9316398072e+01   6.3812495270e+01    0.3106924    0.2526695  -6.20  0.001533314    1.045    0.043
       207 -10.0015     37.9419     42.2408   1.0254701789e+02   6.3034314792e+01    0.3264387     0.317323  73.87   0.00146115    1.645    0.392
       208  -9.7476      8.0014    208.2455   1.4217422927e+02   2.9235750707e+01    0.3242603    0.1948718  42.29  0.001674721    1.725    0.420
       209  -9.4959    148.7659     42.8741   7.1279784888e+01   4.2134677851e+01    0.4099153    0.1854939  67.35  0.001689363    2.366    0.577
       210  -9.3952    153.2117     40.7298   6.9894229137e+01   4.1383814473e+01    0.3306804    0.2492563 -66.87  0.001231789    1.475    0.322
       211  -8.9533    104.9812     41.2538   8.0352794108e+01   5.2002701656e+01    0.3075601    0.2059961 -50.11 0.0007992744    1.890    0.471
       212  -8.6002    105.9560     36.6329   7.8615388845e+01   5.2379761432e+01    0.2702003    0.2016456  34.30 0.0008725275    1.265    0.210
       213  -9.2688    139.4171     40.0540   7.2268188213e+01   4.4639573988e+01     0.385022    0.2685168 -46.86  0.001497469    1.589    0.371
       214  -9.0198    144.2538     36.5057   7.0353061986e+01   4.3974602515e+01    0.2769021     0.215318  84.09 0.0007025915    1.343    0.255
       215  -8.0895    160.2849     39.4298   6.8338755481e+01   3.9909336955e+01     0.215026    0.1172639 -35.84 0.0007136498    1.997    0.499
       216  -9.5868    221.3317     40.9213   6.0455675829e+01   2.5865289383e+01    0.3480074     0.220451 -43.78  0.001215828    1.556    0.357
       217  -8.8400    132.9543     35.9942   7.2378692429e+01   4.6601812613e+01    0.2449933    0.1844138 -37.20 0.0004865045    1.477    0.323
       218 -10.7017    134.1253     30.8427   7.0653592038e+01   4.6941349865e+01    0.3043687    0.2462482  15.56   0.00182623    1.494    0.331
       219 -10.8900     21.8029     53.4386   1.1276120839e+02   6.2891035194e+01     0.727962    0.4568593 -75.21  0.003099171    4.108    0.757
       220  -8.7271    118.9341     34.6279   7.4929334234e+01   4.9864584534e+01    0.2681462    0.1727998 -35.18 0.0006119242    1.723    0.420
       221  -9.1774    101.0996     32.5224   7.8493074179e+01   5.3866249054e+01    0.3444858    0.2162256 -30.43  0.001249515    1.750    0.429
       222  -8.1574    153.5397     34.9480   6.8286066426e+01   4.2027533802e+01    0.1786014    0.1302013 -35.74 0.0004071384    1.533    0.348
       223  -9.6680     11.7023    207.0079   1.4132899862e+02   2.9156374802e+01     0.362004    0.2195764  85.97  0.001410472    1.398    0.284
       224  -9.2598    191.7604    193.7148   9.8676212150e+01   3.6091545326e+00    0.8549715    0.3957995 -61.91   0.00244678    5.136    0.805
       225  -9.3238    249.9793    178.4079   8.4724581884e+01  -3.3826662104e+00    0.3548802    0.2031815 -52.23  0.001739672    1.920    0.479
       226  -7.7352     21.7640    177.2341   1.3629361268e+02   3.5178361168e+01    0.1695646    0.1298486 -57.42  0.000427932    1.322    0.244
       227  -9.2449    238.8586    174.0932   8.5755094550e+01  -8.2811914583e-01    0.2977152    0.2092005  46.50   0.00094553    1.666    0.400
       228  -8.7804     42.0345     28.0506   9.5681858104e+01   6.4513731738e+01    0.2362704    0.1565213  -2.08 0.0007776997    1.451    0.311
       229  -7.4995     50.3324     35.2604   9.5257868292e+01   6.2418307713e+01    0.1215768   0.07939368   6.80 0.0002296472    1.571    0.364
       230  -7.5928    194.9839     33.7087   6.1960951502e+01   3.2638500894e+01    0.1769053    0.1410471  80.52 0.0003353223    1.091    0.084
       231  -9.0414    110.2670     33.1882   7.6464720650e+01   5.1888597768e+01     0.279049    0.2009347 -51.33 0.0008474153    1.741    0.426
       232  -8.3727    157.4267     49.3056   7.1437952363e+01   3.9261571554e+01      0.22785    0.1563796  85.78 0.0006629709    1.666    0.400
       233  -8.0433    151.5135     30.9861   6.7566105314e+01   4.2963884920e+01    0.2679376    0.1245636  36.83  0.001034543    3.359    0.702
       234  -9.2779    239.4808    169.2440   8.4679497849e+01  -3.6782987773e-02    0.2769467    0.2413258 -17.85 0.0002774734    1.136    0.120
       235  -9.2235    239.7842    164.5786   8.3690740737e+01   7.7715983199e-01    0.2720081    0.2346719  56.76  0.001072233    1.404    0.288
       236  -7.7380    230.5012    167.9871   8.5984590548e+01   1.7280359102e+00    0.2045565    0.1118729 -60.06 0.0008103263    2.691    0.628
       237  -8.8027     91.2151     26.0052   7.8864612557e+01   5.6568510591e+01    0.2557891    0.2079717 -52.23  0.001079756    1.629    0.386
       238  -8.7020     91.8925     21.2845   7.7060227840e+01   5.6930316885e+01    0.3183422    0.1793326  27.61    0.0011422    1.964    0.491
       239  -8.9383    144.1190     25.6736   6.7375577338e+01   4.5252482969e+01    0.2054524    0.1693551 -55.32 0.0006894507    1.343    0.255
       240  -8.8775     94.3132    167.5030   1.1652628828e+02   2.7924812573e+01    0.2487885    0.2266186 -46.55 0.0003307157    1.157    0.136
       241  -8.1685    160.8006    165.3880   9.9604698136e+01   1.5710979435e+01    0.2382906    0.2000442 -58.50 0.0004104818    1.207    0.171
       242  -8.7416    249.0473    164.0331   8.2051776129e+01  -6.5723824355e-01    0.2027819    0.1729203 -37.09 0.0004849953    1.015    0.014
       243 -10.0157    207.6566    162.0980   8.8980872072e+01   7.0611724315e+00    0.2655861    0.2531671 -76.78 0.0005572098    1.145    0.127
       244  -7.8094    110.4610     26.4795   7.4281097921e+01   5.2597565748e+01     0.129702    0.1066302  38.55 0.0002628288    1.102    0.093
       245  -9.6147    140.3095     22.6694   6.7198692383e+01   4.6436475792e+01     0.647379    0.2455958  68.80    0.0025793    2.804    0.643
       246  -8.1052    140.0000     18.8943   6.6198663085e+01   4.6891526778e+01    0.2572033    0.1593021 -43.17  0.001032729    1.831    0.454
       247  -8.5962     93.4013    152.1466   1.1377482055e+02   3.1908332294e+01    0.2171584    0.2047746  13.81 0.0003804791    1.195    0.163
       248  -8.3703    133.5185    145.3876   1.0173372703e+02   2.5964231595e+01    0.4547491       0.1542 -53.17  0.001359414    3.168    0.684
       249  -9.3288     66.8031    144.3086   1.1959660406e+02   3.8023293660e+01    0.5577052     0.355309  70.11  0.002430856    2.192    0.544
       250  -9.1207    227.1683    144.7488   8.1748382593e+01   6.7978821414e+00    0.2521248    0.2094789 -54.04 0.0003189255    1.138    0.122
       251  -7.9154    213.1174    143.8058   8.4029166390e+01   9.6918098194e+00    0.2252915    0.1885988 -67.61  0.001202074    1.275    0.216
       252  -7.6619    150.3154     25.6755   6.6338550021e+01   4.3837517434e+01    0.2168884    0.1027629  74.99 0.0007697936    2.378    0.579
       253  -9.1985    135.5064    132.5154   9.8212047294e+01   2.8553198938e+01    0.6013082    0.2429489 -44.83  0.002047907    2.453    0.592
       254  -7.6661    189.1575     15.2052   5.8501529481e+01   3.6110765717e+01    0.1719975    0.1222794 -74.76 0.0005364426    1.307    0.235
       255  -8.4388    132.3283    131.6610   9.8811030019e+01   2.9415164030e+01    0.3025087    0.2261847 -82.04 0.0008384996    1.742    0.426
       256  -8.4673    112.1231    133.7178   1.0462070391e+02   3.2998464862e+01    0.3119195    0.2336963  89.74  0.001043864    1.775    0.437
       257 -10.5143     70.2928    126.3618   1.1489201227e+02   4.1914578707e+01    0.7147585     0.583219 -23.88  0.001562898    1.367    0.268
       258 -10.1074     58.3531    124.7721   1.1813863052e+02   4.3952411793e+01    0.7102462    0.4282882  79.38  0.002428735    3.167    0.684
       259  -9.7869     98.6912    128.7635   1.0717177155e+02   3.6684346965e+01    0.6704056    0.4217986  78.07  0.002422793    3.025    0.669
       260  -8.2063     82.0222    130.3124   1.1231240316e+02   3.9160559617e+01    0.3113813    0.1872091 -80.67  0.001167828    2.737    0.635
       261  -7.8914    161.8224    130.3876   9.1405081679e+01   2.3356262335e+01    0.2225303    0.1474545  36.13 0.0008219039    1.719    0.418
       262 -10.5252    140.9380    118.0573   9.3291642427e+01   3.0631434377e+01     1.029057    0.4644714 -47.22  0.001052325    2.190    0.543
       263  -9.8271    117.6527    123.9187   1.0076049136e+02   3.4201042874e+01      1.06931    0.5869842 -42.37  0.002490318    1.842    0.457
       264 -10.1530    108.9451    114.7023   1.0082430183e+02   3.8011198724e+01    0.7717814    0.4751031 -76.21  0.001511357    2.975    0.664
       265 -10.1053     46.3030     29.7756   9.4705754039e+01   6.3710838211e+01     0.381678     0.232871 -43.73 0.0009167175    2.072    0.517
       266 -10.6551    132.0486    119.9262   9.5987409850e+01   3.2131127435e+01    0.8598514    0.5988649  84.61  0.003494401    2.211    0.548
       267 -10.8944    133.3289    110.0518   9.3132533657e+01   3.4007880939e+01     1.008901    0.4899073 -43.01  0.002383923    2.059    0.514
       268 -10.3185    128.6197    100.6938   9.1852718597e+01   3.6979309684e+01     1.065422    0.5559717 -27.26   0.00276015    2.987    0.665
       269 -10.7921    124.0040     90.7506   9.0318767335e+01   3.9954749391e+01     1.135505    0.6724467 -31.61  0.002792482    1.948    0.487
       270 -11.3535    118.9876    109.4135   9.6700907337e+01   3.7167912981e+01     1.397875     1.125656  79.89  0.004601335    1.548    0.354
       271 -10.4473    107.8749     99.6999   9.7153507784e+01   4.1470569951e+01    0.6961457    0.5191181 -70.91  0.001829085    1.740    0.425
