#   1 NUMBER                 Running object number                                     
#   2 MAG_AUTO               Kron-like elliptical aperture magnitude                    [mag]
#   3 X_IMAGE                Object position along x                                    [pixel]
#   4 Y_IMAGE                Object position along y                                    [pixel]
#   5 X_WORLD                Barycenter position along world x axis                     [deg]
#   6 Y_WORLD                Barycenter position along world y axis                     [deg]
#   7 A_WORLD                Profile RMS along major axis (world units)                 [deg]
#   8 B_WORLD                Profile RMS along minor axis (world units)                 [deg]
#   9 THETA_WORLD            Position angle (CCW/world-x)                               [deg]
#  10 FWHM_WORLD             FWHM assuming a gaussian core                              [deg]
#  11 ELONGATION             A_IMAGE/B_IMAGE                                           
#  12 ELLIPTICITY            1 - B_IMAGE/A_IMAGE                                       
         1 -16.0894    183.5466     84.3541   6.7791670133e+01   2.7084744682e+01     9.224527     2.569252 -43.54    0.0208917    3.656    0.726
         2 -18.7951    238.7170     26.7339   4.4190280484e+01   2.2138916592e+01     10.53725     7.580402 -22.50    0.0529839    1.569    0.363
         3 -15.4073    197.1105     67.1585   6.0411410869e+01   2.6626740637e+01     2.314925     2.097859 -54.91    0.0123434    1.075    0.070
         4 -16.0879    249.2122     71.6813   5.3968387010e+01   1.3506084870e+01     4.108049     1.046943 -26.36   0.00830081    9.364    0.893
         5 -13.1294    104.0591     19.1663   6.3718410682e+01   5.6595450902e+01    0.5161363     0.304588  -6.52  0.001698756    2.021    0.505
         6 -11.5347     39.1183     18.8017   8.6770054564e+01   6.7947108114e+01    0.2439585     0.129405 -19.71  0.001236521    2.073    0.518
         7 -10.0893    157.2059     16.4496   5.1493209376e+01   4.3984270676e+01    0.2634205     0.160439 -61.43  0.001163072    2.065    0.516
         8 -10.5330    177.0064     14.5932   4.7944768492e+01   3.9037618782e+01    0.2034574    0.1775526 -56.44 0.0004025089    1.165    0.141
         9 -11.0253    164.2810     15.0282   4.9911299866e+01   4.2302526137e+01    0.4803886    0.3164581  14.70   0.00223972    2.021    0.505
        10 -10.3010    189.2759     13.8099   4.6127982409e+01   3.5937051188e+01    0.4155761    0.2434583 -43.51  0.001985204    1.701    0.412
        11 -12.1324    114.2811      1.9228   5.4125401291e+01   5.6012737744e+01    0.4538447    0.2376931  -7.21  0.001788471    2.238    0.553
        12 -12.5589    119.6029      8.7938   5.5748045015e+01   5.4138180488e+01     0.280485    0.2670994  30.31 0.0009103312    1.074    0.069
        13 -12.9527    118.9103      3.3276   5.3723232128e+01   5.4801614362e+01    0.5950585    0.3348641  39.63 0.0004886914    1.678    0.404
        14 -11.9574    124.1715      1.8328   5.2089523975e+01   5.3669392762e+01    0.4270959    0.2591055 -84.07  0.001907944    2.467    0.595
        15 -13.1508    135.8986      4.9948   5.1114309655e+01   5.0520254413e+01    0.7424001    0.3989772  43.79  0.003460687    1.766    0.434
        16 -11.8853    140.0215      9.0908   5.1869441336e+01   4.9111845423e+01    0.2849807    0.1846782  57.85 0.0007829855    1.378    0.274
        17 -12.2643    105.5012      2.3248   5.6247540858e+01   5.7996476227e+01    0.4351024    0.2370552 -21.66  0.002157295    1.907    0.476
        18 -10.8168    181.6990      2.4599   4.3710651280e+01   3.9030507951e+01    0.2816049    0.2079736  -0.95  0.001504744    1.704    0.413
        19 -10.3050    148.0153      3.4443   4.8545959473e+01   4.7607594914e+01    0.3077578    0.1381822 -20.75  0.001301652    2.449    0.592
        20 -10.8098     82.1621      2.9352   6.2693775463e+01   6.2918370251e+01    0.1840798    0.1760158 -13.42  0.001236555    1.269    0.212
        21 -12.6509     59.1067      2.2256   7.0102412701e+01   6.7235544702e+01    0.6297731    0.1006253  45.31  0.002035884    5.127    0.805
        22 -11.6051    136.0000    128.5426   9.0416023169e+01   2.9139278945e+01     1.150086    0.1955399 -49.16  0.002502191    6.407    0.844
        23 -11.1576    135.1816    121.0334   8.8808769073e+01   3.0978116296e+01    0.6474358    0.1972546 -46.75  0.001950292    3.242    0.692
        24 -12.2565    134.6549    107.6219   8.5501056328e+01   3.4043857212e+01     1.655321    0.2647941 -45.92    0.0035625    6.227    0.839
        25 -11.0638    132.1863     97.4668   8.3351543892e+01   3.6777435427e+01    0.3964193    0.2398806 -48.55 0.0006051103    1.647    0.393
        26 -10.6707    132.9363     93.5099   8.2027912718e+01   3.7450088949e+01    0.2284896     0.188082  64.42   0.00034963    1.341    0.254
        27  -9.6453     98.2629    132.9979   1.0106652564e+02   3.5342945489e+01    0.1792016    0.1204129 -58.06 0.0003494187    1.414    0.293
        28 -12.7346    161.2902    128.4092   8.4362943096e+01   2.3680971848e+01    0.5697992    0.4669812  31.57  0.001810635    1.301    0.231
        29 -13.7060     64.3155    154.7699   1.1338741920e+02   3.5364834796e+01    0.6367012    0.4227109  87.53  0.001532116    1.515    0.340
        30 -10.7965     98.0121    223.0280   1.1446305831e+02   1.6144912686e+01    0.2075692    0.1207346  67.43  0.001132414    1.772    0.436
        31  -9.3616    247.3056    174.2453   7.7668727792e+01  -1.9752430496e+00    0.1285879   0.08847848  10.64 0.0002090654    1.498    0.332
        32 -10.7039    127.0091    104.9522   8.6770101566e+01   3.6272871252e+01    0.2943539    0.2048901 -46.45  0.001331311    1.397    0.284
        33 -10.4877    140.3715    105.1018   8.3375752643e+01   3.3326052933e+01    0.2531159    0.2197004  30.96  0.000507845    1.236    0.191
        34 -11.0184    112.1862    104.1884   9.0572595119e+01   3.9473037562e+01    0.2912804    0.2458284 -86.81 0.0008954922    1.363    0.266
        35 -13.4304    167.2685     87.1222   7.1961966986e+01   3.0612433565e+01     1.194955    0.8418711  13.79  0.004899194    2.072    0.517
        36 -12.6428    153.7986     95.7677   7.7505401283e+01   3.2175289053e+01     1.098791    0.6226748 -54.97  0.003302715    2.103    0.525
        37 -12.4778    158.2813     84.4622   7.3182985166e+01   3.3326335637e+01    0.6742434    0.5327502  80.93  0.003110211    1.537    0.349
        38 -11.5548    122.0106    102.9972   8.7573279901e+01   3.7753630177e+01    0.3955372    0.2117537  31.93  0.001468273    2.438    0.590
        39 -11.4133    145.2589    101.5615   8.1190997503e+01   3.2970651204e+01     0.359463    0.2790837  28.90 0.0006727336    1.469    0.319
        40 -12.9814    151.6097     86.1973   7.5244762732e+01   3.4606159001e+01    0.4466151    0.3263956 -47.28 0.0006905487    1.379    0.275
        41 -14.0691     68.5006    144.8628   1.1089657500e+02   3.7120939163e+01     1.557101     1.037477  74.69  0.003613063    1.641    0.391
        42  -9.7854    113.4938     95.0129   8.7710120135e+01   4.1257131835e+01    0.2234515    0.1456918 -45.78 0.0003376389    1.468    0.319
        43 -11.6863    138.6310     91.3072   7.9928460888e+01   3.6623458061e+01    0.3523127    0.3009064 -71.19 0.0007230411    1.319    0.242
        44 -10.1601    206.9598     91.2589   6.5322048763e+01   2.0107525547e+01    0.2229676    0.1970638 -77.48 0.0004296357    1.242    0.195
        45 -12.5607    199.3575    162.9643   8.4113877063e+01   8.8186453215e+00    0.7155173    0.4078886 -68.13  0.002033175    5.977    0.833
        46 -10.6828    200.2970     88.0634   6.5654241297e+01   2.2282458956e+01    0.3391473    0.2670243 -78.87 0.0008889355    1.542    0.351
        47 -10.1084    197.5850     84.1807   6.5084704957e+01   2.3629718239e+01    0.2482933    0.2103015  79.65 0.0006878357    1.300    0.231
        48 -11.1203    124.6843     76.8364   7.9184580570e+01   4.2701940960e+01    0.2977131    0.2615042  50.58 0.0006188318    1.180    0.153
        49 -10.0610     87.3313     76.6774   9.0148292021e+01   5.0137860491e+01    0.2342127    0.1406233 -52.31  0.001058085    1.638    0.389
        50 -11.1934     86.4731     73.4891   8.9438218392e+01   5.0960073196e+01    0.2923997    0.2299115 -31.50  0.001134499    1.236    0.191
        51 -11.5525    152.4605     74.3910   7.1467231246e+01   3.6650158978e+01    0.5269016    0.2690909  52.48  0.002029445    1.963    0.491
        52 -10.4540    157.9625     73.0823   6.9817333512e+01   3.5529381689e+01    0.2299637    0.2272894 -79.06 0.0003137031    1.021    0.020
        53 -11.6409    246.5162    163.5172   7.5584813032e+01  -2.7823586625e-01    0.5257187    0.2954742   7.20  0.002182602    2.822    0.646
        54 -12.1987    119.7921     64.2866   7.6424379278e+01   4.6196926637e+01    0.5074614    0.1932954  44.72  0.001755077    2.688    0.628
        55 -10.2534     97.0144     60.2670   8.1716165592e+01   5.1680716025e+01    0.1984466    0.1868184  18.33 0.0003386051    1.087    0.080
        56 -10.6032    105.3138     54.3493   7.7095927221e+01   5.1103498147e+01    0.3529042    0.1216673 -42.20  0.001100258    2.884    0.653
        57 -12.1285    109.1005     38.8904   7.0241601749e+01   5.2836348934e+01    0.3657267    0.1889807 -41.55  0.001555032    2.051    0.512
        58 -14.2263     50.9568    164.5725   1.1775888400e+02   3.4802376478e+01    0.9062112    0.7429482 -18.65   0.00118583    1.956    0.489
        59 -11.5039    159.8121     30.1683   5.5609790096e+01   4.1708721141e+01    0.4916733    0.2794777 -21.60  0.001372711    1.968    0.492
        60 -11.1617     93.8259     30.3966   7.1331895618e+01   5.7296545647e+01    0.2265022    0.1749491 -25.84 0.0008632847    1.256    0.204
        61 -13.2770    115.4986     30.0810   6.5112197689e+01   5.2657211860e+01    0.6145764    0.2772296  50.83  0.002535664    2.073    0.518
        62 -14.6595      7.5833    188.2842   1.2877593014e+02   3.4167120203e+01     2.078411    0.7401475 -86.53   0.01041925    2.444    0.591
        63  -9.9958    169.5598     21.4677   5.1168001775e+01   4.0219289030e+01    0.2895304    0.1415257 -26.06  0.001203757    2.171    0.539
        64 -11.1249    159.7528     21.2099   5.2655687731e+01   4.2799684760e+01    0.2420314    0.2154793  38.31  0.000225264    1.147    0.128
        65  -9.3002     81.4912     22.5382   7.1908647873e+01   6.0793954468e+01    0.1334549    0.1164025   4.69 0.0001096517    1.013    0.013
        66 -14.9947     24.3065    181.4570   1.2506796830e+02   3.4011420769e+01    0.8950471    0.7386106  74.45  0.003736544    1.160    0.138
        67 -13.3083    192.7023    194.7031   9.1661935115e+01   4.7300496694e+00     1.029426    0.5639075 -64.67  0.003389848    5.377    0.814
        68 -10.5773    202.1614    248.1937   9.8514964082e+01  -4.3696794062e+00    0.1726731    0.1263729  25.03 0.0003907092    1.133    0.117
        69 -11.4262    110.1325    223.8888   1.1225430622e+02   1.4120880809e+01    0.1977354    0.1434086  64.28 0.0007676024    1.233    0.189
        70 -13.8542    165.3990     72.8836   6.8140331141e+01   3.3703754173e+01    0.7537155    0.5818505  -5.46   0.00148796    1.611    0.379
        71 -13.1536    188.2925    154.2934   8.4480507532e+01   1.2667362087e+01    0.5477096    0.3971443  73.83  0.002487871    2.015    0.504
        72 -12.7706    192.0000    152.9377   8.3424038257e+01   1.2142462530e+01    0.5410831    0.2610946 -48.78   0.00185766    2.390    0.582
        73 -12.3608    189.5941    148.7518   8.2985097568e+01   1.3431135605e+01    0.3649169    0.2730099 -63.91  0.001390366    1.738    0.425
        74 -14.6671     58.4223    159.5739   1.1542900669e+02   3.5020224283e+01     1.410978     1.246519  19.50  0.002820148    1.538    0.350
        75 -11.3106    133.9105    146.6794   9.4959734172e+01   2.5548533760e+01    0.8363845     0.246219 -55.54  0.002280117    4.551    0.780
        76 -10.5757    132.3153    138.8118   9.3658793373e+01   2.7611372805e+01    0.3560248    0.2138794 -64.44   0.00145816    2.027    0.507
        77 -10.1413    162.3097    147.6583   8.8595873099e+01   1.9468159055e+01    0.1538531    0.1204446 -89.36 0.0006251935    1.694    0.410
        78 -11.2134    144.1303    146.4574   9.2494461654e+01   2.3526259721e+01    0.3940384    0.2707635 -81.37  0.001661193    2.145    0.534
        79  -9.5142    205.2612    223.6621   9.4252024815e+01  -1.7456802934e+00     0.107335   0.09617357  69.42 0.0006966073    1.584    0.369
        80 -12.1100    167.9146    135.2221   8.4503654397e+01   2.0802905953e+01    0.6093255    0.2794819  57.85  0.002033752    2.934    0.659
