#   1 NUMBER                 Running object number                                     
#   2 MAG_AUTO               Kron-like elliptical aperture magnitude                    [mag]
#   3 X_IMAGE                Object position along x                                    [pixel]
#   4 Y_IMAGE                Object position along y                                    [pixel]
#   5 X_WORLD                Barycenter position along world x axis                     [deg]
#   6 Y_WORLD                Barycenter position along world y axis                     [deg]
#   7 A_WORLD                Profile RMS along major axis (world units)                 [deg]
#   8 B_WORLD                Profile RMS along minor axis (world units)                 [deg]
#   9 THETA_WORLD            Position angle (CCW/world-x)                               [deg]
#  10 FWHM_WORLD             FWHM assuming a gaussian core                              [deg]
#  11 ELONGATION             A_IMAGE/B_IMAGE                                           
#  12 ELLIPTICITY            1 - B_IMAGE/A_IMAGE                                       
         1  -8.8017     40.1177      1.8934   7.0372259264e+01   6.9849845754e+01    0.2773505    0.1405852  30.62  0.001509213    1.840    0.457
         2  -9.8343     38.9680      8.3379   7.4284014674e+01   6.9264976999e+01    0.5510544    0.3068947  -9.32  0.003000373    1.925    0.480
         3 -10.2098     50.5246     37.1877   8.2567023260e+01   6.3450542479e+01    0.9059486    0.6823884 -84.55  0.004329004    3.282    0.695
         4 -10.5004     39.6604     29.8535   8.4125870782e+01   6.6086139574e+01    0.5467172    0.3426602 -40.27  0.002517109    1.491    0.329
         5 -11.9303     44.9075     21.8950   7.8292172397e+01   6.6619549379e+01     1.041129    0.8337637 -50.29  0.006537817    1.789    0.441
         6 -11.6375    128.5352     15.2668   5.0293749226e+01   5.0843969440e+01    0.9429118    0.8693509 -56.49  0.005386225    1.214    0.176
         7 -12.1661    155.6376     21.1211   4.7503102371e+01   4.3605917029e+01     1.366871    0.5712947  63.61  0.005635476    2.164    0.538
         8 -11.2244    143.0220      3.7059   4.3840137713e+01   4.8394934730e+01    0.9565177    0.7629116  37.15  0.005710233    1.284    0.221
         9 -10.9261    121.0328      4.3527   4.7760838117e+01   5.3616143964e+01    0.7018101    0.4657663  71.47  0.002859957    1.508    0.337
        10 -10.7712    131.3671      3.5210   4.5629440360e+01   5.1230300729e+01    0.8521314    0.3542728  64.28  0.003332634    2.089    0.521
        11 -13.4099    170.1978     12.0540   4.2645169713e+01   4.0932660065e+01     2.196426     1.657798  37.05   0.01147842    1.505    0.336
        12 -11.0469     77.9529     15.3300   6.2917399079e+01   6.1922727219e+01     1.276727    0.5172457 -18.26  0.005201547    2.990    0.666
        13 -11.2451     84.4099      4.1222   5.5994441351e+01   6.1747406345e+01    0.8773143    0.5101341  53.26   0.00363901    1.582    0.368
        14 -10.0192     71.6737      5.7383   6.0502660035e+01   6.4116851882e+01    0.4571664    0.4030232  47.56  0.002459733    1.304    0.233
        15  -9.5854    104.4199     12.3862   5.4377578479e+01   5.6704840636e+01    0.5613064    0.4336594 -64.74  0.003140358    1.774    0.436
        16 -10.6069    116.3499     16.6099   5.3296587981e+01   5.3576670175e+01    0.8815622    0.3811949 -38.53  0.003740131    2.567    0.611
        17  -9.3572     94.0522     17.4724   5.9108737576e+01   5.8431531014e+01    0.3947417    0.3306492  83.27  0.002318777    1.604    0.377
        18 -11.3731    108.9455      5.2348   5.0515905337e+01   5.6335988600e+01     1.633041    0.5724048  68.08  0.005934542    3.416    0.707
        19  -9.6876    248.7722     15.1801   3.5729551696e+01   2.2270346031e+01    0.2723127    0.1311978 -45.23  0.001433736    1.708    0.415
        20  -9.5600     69.8728     14.1889   6.5047083478e+01   6.3569916145e+01    0.2977488    0.2425473 -29.96  0.001883829    1.377    0.274
        21  -8.9505     20.4999     14.2886   8.6204886525e+01   7.0681912868e+01    0.4287499    0.2038182 -25.15  0.002270965    2.037    0.509
        22  -8.4710     53.5720      1.7761   6.4829766522e+01   6.7740877520e+01     0.497511    0.1363298  45.88  0.002051748    3.210    0.689
        23  -9.6859     60.3873      9.8274   6.6326419639e+01   6.5741496507e+01    0.3931098    0.1708358 -28.90  0.001912688    2.233    0.552
        24  -9.7085     60.8471      2.7827   6.2688066617e+01   6.6387531864e+01    0.5197594    0.2807374  23.37  0.002738355    1.885    0.469
        25 -10.3697    248.7855      4.8079   3.3541350295e+01   2.3424759281e+01     0.766336    0.3114063 -50.82  0.003839335    2.035    0.509
        26 -12.3380    156.4718      7.4758   4.3102412957e+01   4.4764018245e+01     1.850122     1.090297  42.50  0.009227145    1.799    0.444
        27  -8.8881    229.6303      7.1455   3.5416742419e+01   2.7309902741e+01    0.1621305    0.1169144 -18.70  0.000949643    1.756    0.431
        28  -8.1731     49.0211      7.0140   6.9308069420e+01   6.7927433328e+01    0.1916025    0.1504965   7.91  0.001144954    1.024    0.023
        29  -9.3690    222.4968      3.4388   3.5126604689e+01   2.9297748784e+01    0.4157707    0.1168291 -37.16  0.001730595    2.867    0.651
        30 -10.2277    192.9906      5.4964   3.8235542356e+01   3.5998564647e+01    0.3125619    0.2092723 -84.80  0.001723656    1.434    0.303
        31 -10.2848    203.7612      4.1163   3.6860818604e+01   3.3564123500e+01    0.3873381    0.2185615  84.49  0.002003999    1.679    0.404
        32  -8.3680     17.2265      1.9985   8.1635643221e+01   7.2756189219e+01    0.1822055    0.1347107 -34.67 0.0007841424    1.511    0.338
        33  -8.3758    218.0156      2.0679   3.5161125457e+01   3.0455055634e+01    0.1538252    0.1286949 -74.20  0.001002272    1.010    0.010
        34  -9.7921    190.3557     11.5479   4.0110932901e+01   3.6030331168e+01    0.2775971    0.2020246 -68.86  0.001565549    1.342    0.255
        35  -7.8010     93.5134     57.4808   7.4908892463e+01   5.2771210079e+01    0.1439894    0.1315183  -6.55  1.80681e-05    1.013    0.013
        36  -8.9997    199.3033     55.8317   5.0907415856e+01   2.8237145143e+01    0.2442388    0.2401276  32.85 0.0005966372    1.146    0.127
        37  -8.1202     66.6290     55.2179   8.3234306212e+01   5.7889995725e+01    0.1994669    0.1142203 -34.24 0.0006751035    1.641    0.390
        38  -8.1490     23.3229     51.9116   9.9448209864e+01   6.3710828902e+01    0.1901464    0.1456481 -65.90   0.00093427    1.498    0.332
        39  -9.3068     81.7388     38.4136   7.1493009844e+01   5.8162962850e+01    0.4239573    0.3673402 -30.53  0.002542014    1.206    0.171
        40  -9.8921     82.4786     46.9264   7.4581402701e+01   5.6671929416e+01     0.554047    0.5088497  16.23  0.003359255    1.102    0.092
        41  -9.6676     91.8637     43.4422   7.0216713596e+01   5.5441164210e+01     0.497028    0.3313972 -69.45  0.002045585    3.120    0.679
        42  -7.8969    202.3347     46.3019   4.7930086524e+01   2.8882808117e+01    0.1391417    0.1075674  31.14 0.0007035997    1.659    0.397
        43  -8.0052    110.8339     46.4060   6.5808792646e+01   5.1017246490e+01    0.2083941    0.1248451  39.52 0.0007907367    1.676    0.403
        44  -9.0875     12.1718     33.9616   9.8572059097e+01   6.8069293158e+01     0.359125    0.2244931 -45.65  0.001465297    1.274    0.215
        45 -10.4372      3.5345     40.7801   1.0488516089e+02   6.7311873028e+01    0.4533834    0.4171826 -54.62  0.003252125    1.304    0.233
        46  -8.7218      6.5277     35.1635   1.0170596362e+02   6.8224396352e+01    0.2329487     0.194569 -12.09   0.00134217    1.242    0.195
        47  -9.4351    181.6526    245.7568   9.6015352016e+01  -1.7337491076e+00     0.241649    0.1242727  30.29  0.001267786    1.759    0.431
        48  -9.2420    163.4183    244.2244   9.9224459978e+01   1.3098616963e+00    0.1494593     0.119808 -64.35 0.0009572444    1.687    0.407
        49 -10.2582    174.1111    242.2262   9.6920651056e+01  -5.9415229520e-02    0.3140102    0.1454772  36.15  0.001571732    1.827    0.453
        50 -10.2606    205.1136    224.7829   8.8354873956e+01  -2.3611309239e+00    0.3238875     0.151602  27.87  0.001502088    2.198    0.545
        51 -10.7524    100.9994    175.9973   1.0228152144e+02   2.4707235661e+01     0.199138    0.1832891  78.62  0.001161113    1.004    0.004
        52  -8.5163     90.6532     28.6794   6.4721383515e+01   5.7797247973e+01    0.2542909    0.1988482  41.99 0.0008716661    1.232    0.188
        53  -8.6934     69.5945     36.7361   7.5020603796e+01   6.0584944386e+01    0.3385986      0.22199 -33.89  0.001822482    1.452    0.311
        54 -10.1278    225.1482     29.1466   4.0928252002e+01   2.5781061811e+01    0.4618469    0.2941731  65.75  0.002178038    1.586    0.369
        55  -9.3366     66.5158     29.9906   7.3307610991e+01   6.2119173475e+01    0.3393595    0.2065584 -15.77  0.001732829    1.750    0.428
        56  -8.9997     20.8215    155.8287   1.1902336956e+02   3.9791636146e+01    0.1784631    0.1242815  76.47  0.001077316    1.316    0.240
        57  -8.5767     11.6688    145.6690   1.2023710876e+02   4.2958311479e+01    0.1248253   0.07739768 -50.39 0.0007051985    1.721    0.419
        58 -10.1990      9.3740    142.2716   1.2047056585e+02   4.3936301589e+01    0.5178899    0.2624162 -12.04   0.00216821    4.604    0.783
        59 -12.6385    241.6871    131.5824   6.3041230327e+01   6.3822982750e+00     1.347512     1.279146  33.67   0.00598257    1.206    0.171
        60 -10.4153     12.8845    126.7323   1.1784699706e+02   4.7375997755e+01    0.5009985    0.1940683 -49.68   0.00226928    2.515    0.602
        61 -10.1416     10.2896    135.8265   1.1957195689e+02   4.5396270757e+01    0.3957815    0.2131095 -14.07  0.001837577    3.586    0.721
        62  -9.2799    132.9767     26.7337   5.3465086644e+01   4.8537361004e+01     0.300061    0.2520188  82.70   0.00127805    1.308    0.235
        63  -8.5434      5.2248    116.6745   1.1877021871e+02   5.0291664383e+01     0.257466    0.1307298 -20.19  0.001215255    3.270    0.694
        64  -7.3209    158.3489    113.6739   7.4704750737e+01   2.7550397734e+01    0.1636711    0.1259336 -82.57 0.0007049182    1.754    0.430
        65  -9.4324     17.8221    129.9111   1.1688708074e+02   4.6236644359e+01    0.3573969    0.1103024 -61.07  0.001512301    2.394    0.582
        66  -9.0364    103.3677     26.1710   6.0133036710e+01   5.5432906731e+01    0.3731016    0.1886499  55.72  0.001554166    1.952    0.488
        67  -9.8353     17.5942    104.7664   1.1341880065e+02   5.2289284860e+01    0.4947439    0.3157925  53.14  0.002789642    1.902    0.474
        68  -9.7450     46.7605    101.0695   1.0336988616e+02   5.0505199358e+01    0.4273716    0.1902668 -57.38  0.001876548    1.863    0.463
        69  -9.0265    111.4964     15.9912   5.4146376915e+01   5.4753681569e+01    0.2953806    0.2059365   7.15  0.001403295    1.615    0.381
        70  -8.3188     11.0952     22.8963   9.4894121794e+01   7.0130758955e+01    0.1662953    0.1432459 -34.10  0.001104512    1.276    0.216
        71  -9.7582     30.4003    101.9501   1.0886066924e+02   5.1926830072e+01    0.3974193    0.2106031 -48.34  0.002000994    1.662    0.398
        72  -8.5130     70.3131    102.3552   9.6078210354e+01   4.7190626444e+01    0.1521468    0.1032369 -28.83 0.0007044669    1.736    0.424
        73  -7.6473    198.5477     92.4371   6.0804586048e+01   2.2373407063e+01    0.1513585    0.1394145 -55.15   0.00023547    1.057    0.054
        74 -10.9592     43.1996     88.9446   1.0182006946e+02   5.3748684650e+01    0.9065118    0.3943645  14.79  0.003459852    3.749    0.733
        75  -9.7295     64.2555     16.1159   6.7912518517e+01   6.4347665220e+01    0.4350709    0.1722785  50.70  0.001865649    2.871    0.652
        76 -12.1219     43.4237     81.0707   9.9793561504e+01   5.5527721507e+01     1.135529    0.8367652  -1.94  0.006398555    1.627    0.386
        77  -9.4220      2.5252     87.5351   1.1554876132e+02   5.7266276740e+01    0.6196659    0.2090088 -75.54  0.002526406    2.928    0.659
        78 -11.7660     14.8902     74.1341   1.0863206059e+02   5.9580974619e+01    0.9505511    0.7136667 -35.89  0.006156967    1.257    0.205
        79  -9.1284    228.4409     78.9819   5.2655218658e+01   1.7879280070e+01     0.379558    0.2995402 -11.31  0.002009448    1.542    0.351
        80  -7.8749    138.4790     79.9620   6.9859208911e+01   3.8932014950e+01    0.2283708    0.1499021 -38.56 0.0004948569    1.496    0.332
        81  -9.3935     74.6600     69.6364   8.5320890668e+01   5.3798559008e+01    0.6219529    0.3651847  63.80  0.002272122    3.783    0.736
        82  -8.9707     83.7002     68.9645   8.2048196665e+01   5.2414314755e+01    0.3184471    0.2717206 -18.88  0.001767865    1.127    0.113
        83 -10.5957      3.9516     76.1685   1.1308044530e+02   5.9775436268e+01    0.5446613    0.3531211 -58.00    0.0021603    1.162    0.139
        84  -9.9516     25.3195     65.1455   1.0243201233e+02   6.0776925284e+01     0.463525    0.2462796 -52.55  0.001552738    1.492    0.330
        85  -9.0493     45.5904     62.7672   9.3765023426e+01   5.9255885650e+01    0.2425935    0.2033533 -59.47  0.001474968    1.319    0.242
        86  -8.6065     49.6186     61.5245   9.1810515077e+01   5.9026325267e+01    0.2600693    0.1917733 -45.85  0.001489208    1.215    0.177
        87  -8.7485     13.8626     61.9070   1.0617357353e+02   6.2330534759e+01    0.3019076    0.1557303  27.62  0.001648326    2.318    0.569
        88  -9.2056     77.4856     66.0236   8.3154653882e+01   5.4060934124e+01    0.3078829     0.239769 -16.20  0.001645198    1.326    0.246
        89  -9.7427     86.3433     31.3561   6.7140056768e+01   5.8300232597e+01    0.4784948     0.291366  -8.64   0.00227421    1.979    0.495
