#   1 NUMBER                 Running object number                                     
#   2 MAG_AUTO               Kron-like elliptical aperture magnitude                    [mag]
#   3 X_IMAGE                Object position along x                                    [pixel]
#   4 Y_IMAGE                Object position along y                                    [pixel]
#   5 X_WORLD                Barycenter position along world x axis                     [deg]
#   6 Y_WORLD                Barycenter position along world y axis                     [deg]
#   7 A_WORLD                Profile RMS along major axis (world units)                 [deg]
#   8 B_WORLD                Profile RMS along minor axis (world units)                 [deg]
#   9 THETA_WORLD            Position angle (CCW/world-x)                               [deg]
#  10 FWHM_WORLD             FWHM assuming a gaussian core                              [deg]
#  11 ELONGATION             A_IMAGE/B_IMAGE                                           
#  12 ELLIPTICITY            1 - B_IMAGE/A_IMAGE                                       
         1 -19.3880    218.1554     75.0268   7.0864077448e+01   2.1325418892e+01     8.073998     7.165469 -61.33   0.03627311    1.073    0.068
         2 -11.0092     48.0394     12.4030   9.0974970742e+01   6.5879453086e+01    0.2568743    0.1401507 -10.83 0.0009734992    1.981    0.495
         3  -9.9865    170.5712     10.9166   6.2090067320e+01   4.1033025169e+01    0.1855706    0.1481957  63.49 0.0005737473    1.143    0.125
         4  -9.1042    225.5609      7.3342   5.5491330981e+01   2.8960302223e+01    0.1180306   0.09009159 -88.69 0.0002590118    1.059    0.056
         5 -10.9522    208.4250      6.7495   5.6906947020e+01   3.2782919377e+01    0.2412823    0.1172673  60.14  0.001105383    1.940    0.484
         6 -11.0655    138.8381    172.6968   1.0991276935e+02   1.8685475297e+01    0.5011215     0.323846 -80.06  0.001961678    2.373    0.579
         7 -13.6674     34.4788    127.7722   1.2929044808e+02   4.5905689342e+01    0.7906896    0.6098577  19.01  0.004728434    1.576    0.366
         8 -11.0965    126.8922    127.9668   1.0298571192e+02   3.1595194372e+01    0.3925471    0.2612369  61.03  0.001656568    1.816    0.449
         9 -11.4438     41.9509    122.6290   1.2618136174e+02   4.6371269629e+01    0.3209023    0.1955488 -53.99 0.0004476809    1.390    0.280
        10 -11.7840    144.9819    168.2599   1.0752911313e+02   1.8489040011e+01    0.8519293    0.4868564  63.26  0.003063781    2.563    0.610
        11 -10.7999    235.0920    126.1528   7.9641561433e+01   8.5992977616e+00    0.4574305    0.1568995  46.70  0.001617529    3.334    0.700
        12 -12.0678    229.8017    125.0657   8.0269818809e+01   9.8579499167e+00    0.3625655    0.2753698 -72.64 0.0007866038    1.539    0.350
        13 -10.6981    101.8353    122.9942   1.0861241878e+02   3.7628810101e+01    0.3628576    0.2850409 -56.17  0.000856763    1.245    0.197
        14 -12.1071    204.9033    122.7461   8.4125724059e+01   1.5537210570e+01    0.5089555    0.3337933  54.56  0.001551504    1.625    0.385
        15  -9.5063    194.4683    118.2661   8.5061441340e+01   1.8734876275e+01    0.5877134    0.3189377  67.77  0.002154697    2.699    0.630
        16 -12.6332    148.5039    160.3934   1.0501624989e+02   1.9586900167e+01     1.402554    0.7823184 -75.37  0.004147218    4.153    0.759
        17  -9.2430    107.5159    122.5845   1.0691620260e+02   3.6670492006e+01    0.2870008    0.1446634 -61.34  0.001025975    2.494    0.599
        18  -9.4027    246.8637    146.1124   8.1975681785e+01   2.6967728692e+00     0.163369    0.1431837 -10.63 0.0009617705    1.241    0.194
        19  -8.5448    101.2841    146.3016   1.1403384178e+02   3.2138986325e+01    0.1484841     0.118124 -23.74 0.0002034796    1.554    0.356
        20 -11.8274    249.6102    111.8211   7.4381785602e+01   8.3755835086e+00     0.214332    0.1826355  53.23 0.0006019904    1.365    0.268
        21 -12.5915    158.9647    162.9617   1.0310109925e+02   1.6840230916e+01    0.5643593    0.4160891  57.83   0.00159749    1.483    0.326
        22 -10.5325     86.9572    106.5884   1.0887574641e+02   4.3987018037e+01    0.4685204    0.2028026 -55.13  0.001746908    2.438    0.590
        23 -12.5797    155.9848    158.9534   1.0292590908e+02   1.8366405769e+01    0.6549886    0.4184293  36.30  0.001980084    1.671    0.402
        24 -13.9675      4.3043    160.8412   1.4151524291e+02   4.0623743358e+01    0.4467822    0.3285577 -19.43  0.002634059    2.010    0.503
        25 -10.1477     93.8474    161.5574   1.1904132510e+02   2.9672255031e+01    0.2841779    0.2189561 -84.60 0.0008244858    1.401    0.286
        26 -12.1924    111.1969     72.7926   9.2137480931e+01   4.6290738152e+01    0.5711433    0.2516003 -45.00  0.001727431    2.413    0.586
        27 -10.7074    105.8651     70.8543   9.3043564099e+01   4.7711125082e+01    0.2374331    0.2256819  39.39 0.0003680495    1.095    0.087
        28 -12.1981    106.1549     62.6029   9.0383819835e+01   4.9056025666e+01    0.6431007    0.2815363 -37.86  0.001754667    2.348    0.574
        29  -9.7561    101.2677     70.0138   9.4109894586e+01   4.8764057468e+01    0.1949769    0.1721885 -26.25 0.0003436856    1.124    0.111
        30  -8.8416    102.5498    161.5014   1.1677189276e+02   2.8193333536e+01    0.1503737    0.1419051 -75.24 9.984409e-05    1.022    0.021
        31  -9.9824     54.8347     55.1342   1.0453428002e+02   5.9001768972e+01    0.2870673    0.1619737 -40.57  0.001011719    1.658    0.397
        32  -9.9544     90.5923     52.6126   9.1674366762e+01   5.3658042320e+01    0.4177063    0.1279412 -32.53    0.0013968    3.902    0.744
        33 -12.2624    107.9621     38.8412   8.2167630119e+01   5.2159829909e+01    0.4341047    0.2990314  48.09  0.002135004    1.319    0.242
        34 -13.8903     42.5428    145.5281   1.2993953376e+02   4.0784988997e+01     1.041662    0.8004143 -60.02  0.003723144    1.143    0.125
        35 -10.0785    178.6892     32.6814   6.6453937671e+01   3.6718001552e+01    0.3591446    0.1857968  55.38  0.001161727    1.790    0.441
        36  -9.7724    110.3150    151.4592   1.1271645194e+02   2.9246512291e+01    0.2604256    0.1845026 -78.43 0.0008509235    1.718    0.418
        37 -12.3577    232.8097     26.0415   5.8574923250e+01   2.5202250584e+01    0.4695824    0.1580896  65.80  0.002009384    2.675    0.626
        38 -13.6045     63.1178    138.6750   1.2306516011e+02   3.9965583884e+01     0.878587     0.638589 -68.36  0.001765522    1.293    0.227
        39 -14.7551     74.0315    134.3346   1.1910963194e+02   3.9495815835e+01      1.98158     1.789309   5.26  0.006721952    1.283    0.221
        40 -11.8371    108.3091     22.6305   7.6659123861e+01   5.3972510079e+01    0.2703721    0.2098479   8.57  0.001263032    1.403    0.287
        41  -9.4217    105.5154    142.9834   1.1218127876e+02   3.2186251204e+01    0.2360343    0.1469348 -57.77  0.001016021    1.584    0.369
        42 -10.3832    153.7752    219.8158   1.1512380634e+02   5.6103861955e+00    0.2202733    0.2101307  29.44 0.0003952196    1.053    0.050
        43 -11.7173    241.2352    242.2310   1.0152344902e+02  -1.2418198024e+01    0.1921451    0.1688677   1.30 0.0003291445    1.194    0.162
        44 -10.6546    250.6745    140.6908   8.0244469853e+01   2.9977293930e+00    0.2478361    0.1359417 -36.23 0.0006016835    1.665    0.399
        45 -13.3404    249.9224    135.4281   7.9268359103e+01   4.0840689454e+00    0.3580388    0.2238906 -41.36  0.001149744    1.381    0.276
        46  -9.8242    167.6603    187.4345   1.0617744543e+02   9.7049529106e+00    0.4809495    0.2489837  62.43  0.001551904    3.658    0.727
        47 -10.1252    239.4574    132.8343   8.0373139440e+01   6.5099556243e+00    0.3308602    0.1898205  46.07  0.001563312    1.985    0.496
        48 -10.9969    189.3343    130.4131   8.8968301005e+01   1.7397068257e+01    0.4678566    0.3197235 -62.04  0.001838948    1.683    0.406
        49 -10.1318    243.2450    139.1275   8.1097093253e+01   4.6349695984e+00    0.2066536    0.1870724  48.22 0.0009055134    1.260    0.206
        50 -10.0909    176.2404    190.3446   1.0486175450e+02   7.4284600900e+00    0.2470981    0.1824923  51.50 0.0006091503    1.432    0.302
