#   1 NUMBER                 Running object number                                     
#   2 MAG_AUTO               Kron-like elliptical aperture magnitude                    [mag]
#   3 X_IMAGE                Object position along x                                    [pixel]
#   4 Y_IMAGE                Object position along y                                    [pixel]
#   5 X_WORLD                Barycenter position along world x axis                     [deg]
#   6 Y_WORLD                Barycenter position along world y axis                     [deg]
#   7 A_WORLD                Profile RMS along major axis (world units)                 [deg]
#   8 B_WORLD                Profile RMS along minor axis (world units)                 [deg]
#   9 THETA_WORLD            Position angle (CCW/world-x)                               [deg]
#  10 FWHM_WORLD             FWHM assuming a gaussian core                              [deg]
#  11 ELONGATION             A_IMAGE/B_IMAGE                                           
#  12 ELLIPTICITY            1 - B_IMAGE/A_IMAGE                                       
         1 -14.8558    171.1905     32.1064   7.7223776751e+01   3.8175290381e+01     1.379513    0.9985684   6.33  0.004320123    1.667    0.400
         2 -13.2359    174.7268     25.0976   7.4431423741e+01   3.8089220165e+01    0.5329555    0.4284234  19.02  0.001408436    1.389    0.280
         3 -12.6832    187.6361      1.9742   6.5660900993e+01   3.7083267513e+01    0.6452771    0.2245281  71.70  0.002402981    2.697    0.629
         4 -12.1075    207.9707    186.0212   1.1004189911e+02   4.9325262037e+00    0.3303739    0.2463262  22.31  0.001014692    1.272    0.214
         5 -18.6291     62.7696    242.7398   1.4381740246e+02   1.9288407781e+01     5.858998     4.208547  45.45   0.04483192    1.404    0.288
         6 -12.5066    212.4350    182.4506   1.0854887436e+02   4.6280327938e+00    0.4017495    0.2637144  20.97  0.001196019    1.612    0.380
         7 -12.3599    184.0769    215.4143   1.1946978046e+02   4.9763644510e+00    0.2112598    0.1914013 -47.12  0.000986771    1.372    0.271
         8 -11.6572    166.0928    208.7757   1.2173727138e+02   9.0758109908e+00    0.3107674    0.2042933  50.82  0.001149313    1.410    0.291
         9 -11.4863     36.0966    183.9540   1.4388983223e+02   3.3060284648e+01    0.1670223    0.1311684  73.96 0.0003336283    1.072    0.067
        10 -12.3300    108.6408    182.8552   1.2914001089e+02   2.3481833663e+01    0.2587004    0.1734626  53.29  0.001195195    1.370    0.270
        11 -11.6807    199.2690    178.8572   1.1028298709e+02   7.6374319537e+00    0.3341538    0.2706168 -56.66  0.001052954    1.616    0.381
        12 -11.9221    141.3297    197.9315   1.2480579152e+02   1.5178131599e+01    0.2820158    0.2059221  82.44   0.00115981    1.778    0.437
        13 -12.3676    138.1079    171.3879   1.2112557515e+02   2.0595356564e+01    0.4552847    0.3013292 -87.17  0.002064237    2.408    0.585
        14 -13.0848    113.8683    170.8614   1.2620517496e+02   2.4989149426e+01      0.58374    0.4128363  70.68  0.002275679    1.566    0.362
        15 -12.5136    130.5089    206.1257   1.2807611734e+02   1.5606279228e+01    0.2501559    0.2244087 -85.50 0.0007070882    1.202    0.168
        16 -11.9792     11.8099    205.3407   1.4976410944e+02   3.1398813988e+01    0.2799297    0.2035984 -83.94  0.002245586    1.261    0.207
        17 -11.7594    102.8202    162.6714   1.2729313612e+02   2.8501121201e+01    0.2290572    0.2116418 -79.91 0.0003531009    1.083    0.076
        18 -13.2633    106.3543    156.1621   1.2540871091e+02   2.9279393473e+01    0.6256355    0.4563529 -32.73  0.001712341    1.827    0.453
        19 -11.4429    103.9900    153.3018   1.2545013998e+02   3.0278520552e+01    0.2243849       0.2004  76.58 0.0003665487    1.058    0.055
        20 -12.2603     24.8957    156.9853   1.4371395191e+02   3.9737371585e+01    0.3969681    0.2386262  42.63  0.002534186    1.752    0.429
        21 -12.1055    133.8865    145.7015   1.1715516901e+02   2.6488414009e+01    0.9376951    0.2092194 -52.70  0.002298383    6.199    0.839
        22 -10.7577      8.6485    150.0038   1.4653921260e+02   4.2616485551e+01    0.2430456    0.1303991 -61.41  0.001509491    1.713    0.416
        23 -13.5794    197.2457    197.0699   1.1402336423e+02   5.2795570599e+00    0.7007448    0.4407195  44.86  0.002413346    1.452    0.311
        24 -12.4625      7.0109    143.7151   1.4635109007e+02   4.4070378893e+01    0.4025207    0.2388667   8.42  0.002384324    2.985    0.665
        25 -11.1670     12.9917    142.2498   1.4489826255e+02   4.3913042867e+01    0.1715302    0.1479341  83.89 0.0003495199    1.171    0.146
        26 -12.5689    114.2912    140.4600   1.2063836142e+02   3.1236400150e+01    0.4502158    0.3592586 -30.59  0.002398618    1.509    0.337
        27 -12.6734    104.2886    140.5123   1.2303263857e+02   3.2971594982e+01    0.2787619    0.2539428  54.55  0.000431299    1.115    0.103
        28 -12.7433      5.0929    136.4136   1.4612358218e+02   4.5765648636e+01    0.2455786    0.2083253 -68.94  0.001619495    1.263    0.208
        29 -11.4373    105.9790    130.9837   1.2071387679e+02   3.4750693176e+01    0.3387921    0.2779122 -89.10  0.001332195    1.334    0.250
        30 -11.5692    107.9077    126.8357   1.1935604706e+02   3.5314620670e+01    0.3176993    0.2458776 -28.22  0.000537492    1.577    0.366
        31 -11.5783    119.4644    130.5090   1.1731596100e+02   3.2414020991e+01    0.2857848    0.2526062 -17.11 0.0007364121    1.333    0.250
        32 -12.3959    189.4133    186.9815   1.1366968962e+02   8.2348870636e+00    0.5611913    0.3651104 -46.78  0.002966171    1.816    0.449
        33 -11.6197    127.2275    128.4329   1.1498449177e+02   3.1370031101e+01    0.3974234    0.2636794  71.38 0.0009253981    2.130    0.530
        34 -12.0340    135.1919    195.7528   1.2568174715e+02   1.6621663989e+01    0.3024939    0.2244644  84.12 0.0008061815    1.666    0.400
        35 -19.1553     51.9412     99.5677   1.2866411725e+02   4.9656621717e+01     17.45127    0.8994554 -59.32   0.02707782   17.091    0.941
        36 -12.9430     91.0688    122.0308   1.2260922358e+02   3.9217787156e+01    0.4411858    0.3305336 -51.26  0.001221542    1.267    0.211
        37 -10.7632    113.2160    119.1926   1.1631125897e+02   3.6008305223e+01    0.2095187    0.1945487 -27.38 0.0005366285    1.158    0.137
        38 -11.6121    171.5694    117.2828   1.0218489080e+02   2.4178703367e+01    0.4184341    0.2988285  89.56  0.001597943    2.259    0.557
        39 -12.4171     72.3267    111.7293   1.2543781047e+02   4.4333618925e+01    0.3770624    0.3162735 -15.81  0.002198023    1.510    0.338
        40 -11.5076      4.5617    112.2396   1.4377408268e+02   5.1022225863e+01    0.2337241    0.1623219  12.83  0.001587722    2.050    0.512
        41 -10.9085    205.3672    110.1137   9.3652852213e+01   1.7726581258e+01    0.2579329    0.2019842  36.43  0.000723405    1.306    0.234
        42 -11.1047     94.7927    110.1406   1.1899111662e+02   4.1236403948e+01    0.1950922    0.1652573 -25.26 0.0007527635    1.346    0.257
        43  -9.9817     13.5106     59.5563   1.3231173512e+02   6.1814017095e+01     0.117841   0.09029318 -52.89 9.374204e-05    1.007    0.007
        44 -14.0338    159.0347     48.3980   8.4714738847e+01   3.9101699059e+01    0.7396341    0.6621035 -54.46  0.001734347    1.203    0.169
        45 -10.8739     17.5383    237.9515   1.5055737591e+02   2.5163797878e+01    0.1001983   0.07155689 -61.31 0.0007871281    1.991    0.498
        46 -11.8385    181.1157    195.0444   1.1667297970e+02   8.5144838838e+00    0.3645471    0.2720423 -81.59  0.001326871    2.253    0.556
        47 -10.6016    134.6602     30.1449   8.3460452292e+01   4.7579620782e+01    0.2426811    0.1948276  72.32  0.000862635    1.409    0.290
        48 -11.7022    189.6974     14.9797   6.9253948909e+01   3.5318190028e+01    0.1945956     0.184894 -42.64 0.0007172702    1.090    0.083
