#   1 NUMBER                 Running object number                                     
#   2 MAG_AUTO               Kron-like elliptical aperture magnitude                    [mag]
#   3 X_IMAGE                Object position along x                                    [pixel]
#   4 Y_IMAGE                Object position along y                                    [pixel]
#   5 X_WORLD                Barycenter position along world x axis                     [deg]
#   6 Y_WORLD                Barycenter position along world y axis                     [deg]
#   7 A_WORLD                Profile RMS along major axis (world units)                 [deg]
#   8 B_WORLD                Profile RMS along minor axis (world units)                 [deg]
#   9 THETA_WORLD            Position angle (CCW/world-x)                               [deg]
#  10 FWHM_WORLD             FWHM assuming a gaussian core                              [deg]
#  11 ELONGATION             A_IMAGE/B_IMAGE                                           
#  12 ELLIPTICITY            1 - B_IMAGE/A_IMAGE                                       
         1 -14.2033     24.5002     13.5098   3.4723732135e+01   7.5105460318e+01    0.9066785    0.3112929  39.45  0.003641751    2.790    0.642
         2 -12.7788     29.6620      8.7748   2.7651584992e+01   7.4998272684e+01    0.3018417    0.2817838   1.96 0.0009482655    1.125    0.111
         3 -15.4531     12.7170     20.8155   4.8837912537e+01   7.5256427893e+01     1.800762     1.069402 -26.53  0.007701807    1.770    0.435
         4 -13.6443    187.0267     24.3152   3.5504570724e+02   3.5396573917e+01     1.060089    0.3853365 -63.68  0.003871126    3.512    0.715
         5 -14.6059     98.2488     12.1868   2.8235100753e+00   5.8922822630e+01     1.272553    0.7501353  71.23  0.004643932    1.545    0.353
         6 -12.1131    245.8948     14.8798   3.4911138546e+02   2.4554849704e+01    0.3511283     0.112574 -45.77  0.001831537    2.047    0.512
         7 -13.6991    166.0052     29.8547   3.5868797427e+02   3.9652741322e+01    0.7706035    0.5183175 -83.35  0.003382852    1.453    0.312
         8 -13.3521    225.9590      6.9706   3.4837965318e+02   2.9083256734e+01    0.8723647    0.3035302 -47.99  0.004473828    2.020    0.505
         9 -12.2165    199.7813      7.4131   3.4985006934e+02   3.4405783526e+01     0.256438    0.1833667 -42.01  0.001632929    1.257    0.204
        10 -13.3036    212.2790      9.7602   3.4969625556e+02   3.1532050490e+01    0.5748148    0.2791741  88.86  0.003101871    2.049    0.512
        11 -13.3679     41.5734      3.9647   1.6930457322e+01   7.3328084447e+01    0.6093751    0.4694008  24.63  0.002935006    1.265    0.209
        12 -11.5762    244.8956      5.0211   3.4716984713e+02   2.5748924079e+01    0.2900372   0.08988491 -41.45  0.001527847    2.057    0.514
        13 -12.5937      7.8772      2.0116   4.1484904703e+01   7.9276110992e+01    0.2935691    0.1698795  14.32   0.00115163    1.775    0.437
        14 -11.7867     51.5116     19.8786   2.2089331824e+01   6.9185017084e+01    0.2976403     0.191751  57.14 0.0007211301    1.635    0.388
        15 -12.0597    226.9046    198.3069   2.7313430180e+01   2.4565452318e+00    0.1917492    0.1372621 -32.11  0.001299022    1.347    0.258
        16 -12.6911    248.8520    177.8656   2.0622290045e+01   2.6919950144e+00    0.3584016    0.1774554 -46.85  0.001921444    2.644    0.622
        17 -11.9502     97.5093    187.5128   5.2790298923e+01   2.2428768632e+01    0.1417613    0.1278064  34.92 7.042573e-05    1.006    0.006
        18 -13.8245     10.4650    183.4031   7.6559374917e+01   3.3655874945e+01     1.142269    0.3692685  21.42  0.004487187    2.972    0.664
        19 -14.0034     15.4826    175.5018   7.4730282679e+01   3.5180482371e+01    0.6668037    0.3819468  61.37  0.003350841    1.581    0.368
        20 -10.2090    218.7097    174.6401   2.4563872269e+01   6.8178445397e+00    0.1256772   0.07879759 -11.07 0.0007027013    1.692    0.409
        21 -12.0055    243.0030    170.3360   2.0137751705e+01   4.3817167581e+00    0.3129667    0.1358628 -43.58  0.001613954    2.370    0.578
        22 -13.0396    124.5143    166.7257   4.2422059339e+01   2.2772452015e+01    0.7073769     0.454532 -65.85  0.003210442    1.990    0.497
        23 -12.0296     30.6554    167.9100   6.9688224130e+01   3.5704297404e+01    0.3362329    0.2653042 -37.21  0.001828255    1.549    0.354
        24 -11.2708     77.3023    157.1199   5.3983704203e+01   3.2648775975e+01    0.2929814    0.2249627  21.49 0.0009473115    1.371    0.270
        25 -12.3191     73.5999    153.5380   5.4560169029e+01   3.4108504557e+01    0.3349905     0.301773 -81.54  0.001748606    1.133    0.118
        26 -12.7819    212.1711    155.5435   2.2080732770e+01   1.0648978325e+01    0.3391777    0.2191938  57.30  0.001799813    2.461    0.594
        27 -11.8865    111.4119    155.4642   4.3793570078e+01   2.7524247113e+01    0.4839235    0.3285404  82.81  0.002013711    2.339    0.572
        28 -11.3080    103.9441    149.5519   4.4757351495e+01   3.0204869605e+01    0.3013321    0.2084365 -36.89  0.001368931    1.647    0.393
        29 -12.1915    245.3249    151.6689   1.6473706857e+01   6.6735373238e+00    0.2336558    0.1991872   9.19  0.001754097    1.288    0.223
        30 -12.6929    246.9241    136.3723   1.3427170202e+01   8.6072771981e+00    0.4094649    0.2187784 -32.70  0.002404661    1.475    0.322
        31 -12.1437    133.5086    126.9782   3.1902760154e+01   2.9874000641e+01    0.5287906    0.2221329 -40.62   0.00186252    2.560    0.609
        32 -12.2403    223.0126    127.0228   1.4783935141e+01   1.3463373799e+01    0.1954642    0.1417852 -59.21  0.001145637    1.716    0.417
        33 -12.4875    110.4811    100.1857   3.1365715920e+01   4.0653359759e+01    0.3338224    0.3130067 -47.10  0.001564182    1.083    0.077
        34 -13.9972    104.3323    121.5999   3.8684999845e+01   3.6882857379e+01     1.308842     1.069513  64.45  0.006342704    1.334    0.250
        35 -14.1849    107.3561    108.9596   3.4643198530e+01   3.9286893183e+01     1.790519     1.159792  86.71  0.006471939    2.781    0.640
        36 -11.0240     78.5288    119.0166   4.6440280948e+01   4.2274021319e+01    0.2454371    0.1535153 -58.63   0.00103642    1.605    0.377
        37 -11.5378      5.1402    119.6464   7.4483484454e+01   5.0675228553e+01    0.3969248    0.1391555   5.19  0.001367249    3.749    0.733
        38 -11.3322     86.7330    114.8174   4.2674367266e+01   4.1888905483e+01    0.2583991    0.1973615 -32.35  0.001174825    1.529    0.346
        39 -12.0751     81.4922    114.8087   4.4457643391e+01   4.2838832900e+01    0.4605423    0.2981778  75.14  0.001781472    2.278    0.561
        40 -13.3050     18.1745    112.6029   6.8593868921e+01   5.1729249208e+01     0.641967    0.3815301  13.41  0.002928969    1.874    0.466
        41 -13.4633     21.4178    111.2216   6.7084790043e+01   5.1849246635e+01    0.9259649    0.3823546  86.46  0.002895617    3.200    0.688
        42 -10.7054    195.0033    113.2402   1.6071349681e+01   2.0478069956e+01    0.1600819     0.115614  50.05 0.0007414547    1.569    0.363
        43 -12.8067    249.4971    105.5255   7.1813204414e+00   1.2565718418e+01    0.2632007   0.09097582 -35.82  0.001228399    2.226    0.551
        44 -13.8409     10.5369    103.2011   7.0728912565e+01   5.4855859886e+01    0.6634138    0.4132482  27.43  0.003257628    1.662    0.398
        45 -11.6974    136.4167    102.9799   2.5193157536e+01   3.4406144890e+01    0.4007558    0.2046925  53.73   0.00155755    2.116    0.527
        46 -11.8385     46.6615     99.5624   5.4378314063e+01   5.2335953023e+01    0.4425617    0.2952045  66.95  0.001934191    1.819    0.450
        47 -13.1923      2.3212     96.6167   7.3676417439e+01   5.7104930503e+01    0.6853635    0.2607269 -80.58  0.002663799    2.404    0.584
        48 -14.3474     22.6963     94.9640   6.4145599689e+01   5.6210558726e+01     1.580896    0.5412102  18.79  0.005524914    3.115    0.679
        49 -12.5499     29.9985     89.9691   5.9834398954e+01   5.6879456382e+01    0.6053509    0.3384493  68.50  0.002400492    2.431    0.589
        50 -11.3220     60.9225     97.2623   4.7905267125e+01   5.0864051301e+01    0.3373714    0.2260969  64.39  0.001429408    1.857    0.461
        51 -11.3989    136.0313     94.5327   2.2997765295e+01   3.6227245775e+01    0.2198995    0.1345684  75.44  0.000809757    2.593    0.614
        52 -12.7798     20.7008     86.6887   6.3672310558e+01   5.8624090335e+01    0.5412259    0.2697707  25.36  0.002015741    2.033    0.508
        53 -12.9810    237.2600     79.7299   3.2229835534e+00   1.8093793838e+01    0.3269082    0.2356036 -88.01  0.002075708    1.751    0.429
        54 -12.9891    163.0181     71.9954   1.1153334903e+01   3.4212370866e+01    0.8274044    0.4919522  56.65  0.003853978    1.747    0.427
        55 -13.7859    170.5472     76.5222   1.1105932373e+01   3.1746935010e+01     0.952152    0.5484849  57.76  0.004434941    1.832    0.454
        56 -12.3855     56.4664     78.9212   4.4790082089e+01   5.6248375098e+01     0.776373    0.3052487 -38.57  0.002302919    3.835    0.739
        57 -13.3298     60.0876     75.3167   4.2078021188e+01   5.6522361111e+01    0.9634133      0.59659  58.35  0.003086105    2.067    0.516
        58 -11.9801    250.4118     80.7565   2.1663478152e+00   1.5802963137e+01    0.3020375   0.09341419 -33.41  0.001308051    2.682    0.627
        59 -11.8241    114.2330     79.7560   2.4280381105e+01   4.4238147163e+01    0.4542678    0.2696114 -52.71  0.001880991    1.779    0.438
        60 -12.4123    134.6395     79.2234   1.8933432404e+01   3.9563080565e+01    0.7446938    0.3458012  59.25  0.002760516    2.370    0.578
        61 -12.1871    210.7030     77.3048   5.6115923154e+00   2.3243650332e+01    0.4037061    0.2103012 -62.72  0.001807115    2.514    0.602
        62 -14.1316      7.0925     70.9792   6.8032188710e+01   6.3737148937e+01    0.8152337    0.7405742 -42.06  0.003704558    1.070    0.065
        63 -13.4830      4.3058     63.0011   6.8270123241e+01   6.5950081406e+01    0.7538933    0.5466273   3.45   0.00416382    1.479    0.324
        64 -12.6085     71.9404     74.8426   3.6934193500e+01   5.4464979154e+01    0.7973683     0.391439  24.38  0.002537697    3.421    0.708
        65 -12.5119    133.4988     65.8776   1.5109915701e+01   4.2287085224e+01    0.5652659    0.4110603  68.71  0.002725867    1.411    0.291
        66 -11.5692     82.0358     69.9463   3.1378010227e+01   5.3515126238e+01    0.3943971    0.2115221  50.11   0.00156624    1.899    0.474
        67 -12.5064     87.5603     65.5336   2.7836975127e+01   5.3249385065e+01    0.4647591    0.3488646  18.84  0.001342116    1.749    0.428
        68 -12.2212    200.7174     69.1644   4.9072888157e+00   2.6434280150e+01    0.3890164    0.2009058  67.14  0.001824518    2.226    0.551
        69 -11.4250     39.2920     68.0155   4.9753879595e+01   6.1497068036e+01    0.2112792    0.1934783 -54.76 0.0009186551    1.075    0.070
        70 -12.8191     57.4652     65.9834   4.0160389931e+01   5.9179257731e+01    0.4950814    0.2327797  37.05  0.001928558    2.106    0.525
        71 -10.9092     99.8814     64.8470   2.3550592665e+01   5.0576560091e+01    0.2174069    0.1819008  88.90  0.001040574    1.336    0.252
        72 -12.9976    162.4688     79.0161   1.3177862180e+01   3.3141133737e+01     0.877618    0.5487043  20.80  0.003303201    3.299    0.697
        73 -12.2744     78.8008     60.7882   2.9285634024e+01   5.6137450722e+01    0.4285879    0.3657295 -64.29  0.002200563    1.273    0.214
        74 -13.0109    177.9520     57.2644   4.8277940645e+00   3.3114227013e+01     0.671876    0.3705835 -51.38  0.003168158    1.700    0.412
        75 -12.4613     91.3879     57.7032   2.3664353795e+01   5.3933966858e+01    0.5016957    0.4283629 -48.58  0.002060411    1.207    0.171
        76 -10.8998     24.7908     60.2127   5.5431587296e+01   6.5135553635e+01    0.2010735    0.1540245 -29.91 0.0009022332    1.321    0.243
        77 -13.7571    119.7879     54.8606   1.4626103120e+01   4.7569262156e+01    0.5938865    0.4104522  47.13  0.001284437    1.505    0.335
        78 -11.0700     17.4138     54.7399   5.8344049307e+01   6.7174686787e+01    0.2639272    0.1328109 -70.87  0.001137996    2.094    0.523
        79 -11.3510    109.8473     53.7091   1.6718370969e+01   5.0228793682e+01    0.2614167    0.2158435 -24.69  0.001320856    1.390    0.281
        80 -12.5735    103.4578     50.6952   1.7347707358e+01   5.2317408040e+01    0.5511275     0.347064 -49.83  0.001379842    1.686    0.407
        81 -12.6290     97.5116     49.8443   1.8743262849e+01   5.3912344842e+01    0.6031207    0.3598724 -45.15  0.002364602    1.742    0.426
        82 -11.5229    136.1578     50.0887   9.4927483146e+00   4.4246653792e+01    0.3023303    0.1908509  50.24 0.0009649597    1.664    0.399
        83 -13.0905    207.2894     41.2945   3.5748928734e+02   2.8925110787e+01     1.185747    0.4746107 -83.16  0.003953723    5.082    0.803
        84 -13.1824    220.5825     41.8267   3.5647396793e+02   2.6181895787e+01    0.5178815    0.2869218 -76.08  0.002304982    2.019    0.505
        85 -13.1281    246.5574     38.1681   3.5381245528e+02   2.1831512709e+01    0.7327054    0.3258996 -67.86  0.003757051    2.592    0.614
        86 -11.7497    158.2678     43.0027   3.5624557453e+00   3.9808049423e+01    0.2632138    0.1685963  54.33  0.001291835    1.673    0.402
        87 -11.2917    109.6642     41.9329   1.2403713594e+01   5.2191262428e+01    0.2928283    0.2028511  68.61 0.0007218723    1.419    0.295
        88 -11.6763    133.5277     39.0214   6.3035996370e+00   4.6544130870e+01    0.5021317    0.2929501 -72.20  0.002108694    2.174    0.540
        89 -11.7495    113.6505     37.8929   9.9336388066e+00   5.1780617596e+01    0.3434147    0.2787465  58.92   0.00112974    1.179    0.152
        90 -13.3437    122.2250     36.5322   7.5952508542e+00   4.9780431901e+01    0.8685574    0.3711497  48.12  0.002939549    2.554    0.608
        91 -12.3526    130.6562     33.7125   4.9969845521e+00   4.8002545003e+01    0.4440823    0.2775068  55.48  0.002121922    1.580    0.367
        92 -11.7500     40.2153     40.1135   3.8804379860e+01   6.7708315583e+01     0.424745    0.1997647  35.23  0.001791436    2.080    0.519
        93 -11.6373     32.8713     40.1742   4.3274495729e+01   6.8800310334e+01    0.2474239    0.1834384  19.01 0.0008015577    1.360    0.265
        94 -11.7024     75.8984     37.0526   2.0554060548e+01   6.1178002689e+01    0.3117662    0.1952492  47.16 0.0007111459    1.505    0.336
        95 -14.0453      9.6131    245.2599   7.8998840967e+01   2.0369505981e+01    0.6796271    0.3108893  48.44  0.003323519    1.581    0.367
        96 -12.2054    208.4306    243.5582   3.7228460314e+01  -1.4043428006e+00    0.2076031    0.1723429  56.55  0.001406444    2.758    0.637
        97 -12.6568      3.2555     34.0850   6.2246654944e+01   7.3094261198e+01    0.4223373    0.2882905  -4.75 0.0005908759    1.472    0.321
        98 -13.3355    247.4576    236.6405   3.0049346099e+01  -4.3121599967e+00    0.3981056    0.2392799 -31.27  0.002982351    1.591    0.372
        99 -13.4084    148.5610     29.3318   7.3169729907e-01   4.4014789710e+01    0.6548578    0.4004574  67.35  0.003169712    1.551    0.355
       100 -13.4895    142.7906     29.9103   1.7430910674e+00   4.5398288672e+01     1.086915    0.4415368  79.11   0.00393131    2.937    0.659
       101 -10.6427    155.4632    239.5235   4.6517627490e+01   5.0074147115e+00    0.1203608   0.09299646  10.02 8.586126e-05    1.048    0.046
       102 -11.8253    120.9222     25.9045   3.9464125466e+00   5.1509007277e+01    0.3508341    0.2004338  86.39  0.001523132    1.969    0.492
       103 -13.4124    228.9147    228.4040   3.1687237931e+01  -1.6166514115e+00    0.3458599    0.3006344 -10.94  0.002833593    1.491    0.329
       104 -12.6484    248.0190    226.0788   2.8427771120e+01  -3.1763064214e+00     0.249566    0.2071111  25.18  0.002056072    1.790    0.441
       105 -12.7857     20.3823    223.3443   7.5801811252e+01   2.3757815774e+01    0.2479981    0.2192143  44.85  0.001733723    1.152    0.132
       106 -11.0468     36.1578     22.6725   3.2299138775e+01   7.1667110213e+01    0.2600898    0.1670806 -12.29  0.001223097    2.116    0.527
       107 -11.2411    115.3087     30.6448   6.8265970775e+00   5.2356450980e+01    0.1548984     0.102309 -67.00 0.0007042853    1.725    0.420
       108 -12.9371    249.1780    216.5827   2.6830748849e+01  -2.1824352419e+00    0.2996015    0.1873691  -8.09  0.001569557    1.280    0.219
       109 -13.6688    238.2866    214.7946   2.8174077651e+01  -8.9527027447e-01    0.4635201    0.2804517 -37.46  0.003156503    1.729    0.422
       110 -12.6426    239.4843    206.4694   2.6690425695e+01   1.8240645790e-02    0.3254799    0.1583809 -20.93  0.001904335    1.913    0.477
       111 -12.1229     56.2716     27.1092   2.3814383136e+01   6.7091938340e+01    0.4123645    0.2609393  61.36   0.00151237    1.866    0.464
       112 -12.2399    229.8385    214.2842   2.9401921143e+01   4.0295222615e-02    0.2576858    0.1349509 -37.48  0.001359174    1.849    0.459
       113 -11.0961     71.7941    206.3752   6.1779242495e+01   2.1779914044e+01    0.1939687    0.1187949  18.83 0.0009511876    1.695    0.410
       114 -13.1448    248.6390    196.8748   2.3810819242e+01   2.7004590166e-01    0.5462354    0.2470243 -36.26  0.003012842    1.888    0.470
       115 -12.5236    141.8695     21.7946   3.5920332253e+02   4.6605678898e+01    0.8601934    0.4527434 -82.48  0.003682723    2.201    0.546
