#   1 NUMBER                 Running object number                                     
#   2 MAG_AUTO               Kron-like elliptical aperture magnitude                    [mag]
#   3 X_IMAGE                Object position along x                                    [pixel]
#   4 Y_IMAGE                Object position along y                                    [pixel]
#   5 X_WORLD                Barycenter position along world x axis                     [deg]
#   6 Y_WORLD                Barycenter position along world y axis                     [deg]
#   7 A_WORLD                Profile RMS along major axis (world units)                 [deg]
#   8 B_WORLD                Profile RMS along minor axis (world units)                 [deg]
#   9 THETA_WORLD            Position angle (CCW/world-x)                               [deg]
#  10 FWHM_WORLD             FWHM assuming a gaussian core                              [deg]
#  11 ELONGATION             A_IMAGE/B_IMAGE                                           
#  12 ELLIPTICITY            1 - B_IMAGE/A_IMAGE                                       
         1  99.0000     66.9367     31.4360   6.5949214859e+01   6.1964136889e+01     1.553498    0.8381996 -57.74   0.00520844    5.667    0.824
         2 -11.7461     60.3365     46.5224   7.4520692926e+01   6.0786685936e+01     1.067372    0.6878507 -31.79  0.005710495    1.499    0.333
         3 -13.1530     42.9185     45.1301   8.1289732126e+01   6.3552987188e+01    0.7542814    0.5913516  44.10  0.001208815    1.651    0.394
         4 -12.5027     58.0506     30.1342   6.8801189087e+01   6.3675650163e+01    0.4155252    0.2799472  -6.90   0.00176157    1.576    0.366
         5 -11.1304    154.6089     23.9298   4.1831021901e+01   4.3500500550e+01     2.105082    0.7234847  46.63  0.007608568    3.431    0.709
         6 -12.1629    120.0250     57.4461   5.9270744096e+01   4.7205704649e+01     2.335659     1.387927 -72.98   0.00800619    3.880    0.742
         7 -12.0962    136.5962     23.2023   4.4578545653e+01   4.7889425153e+01     1.244236    0.7270349  59.73  0.006347746    1.496    0.332
         8 -11.6550    130.7481     14.7304   4.2920659927e+01   5.0140508585e+01     3.674191    0.5095469  58.78   0.01134313    4.214    0.763
         9 -11.4821    165.3485     17.8837   3.8624609149e+01   4.1589229733e+01    0.5704483     0.341088  33.98  0.002765027    2.397    0.583
        10 -13.2922    118.8252     39.8128   5.3696477957e+01   5.0069487036e+01     1.153202    0.8427352 -22.09  0.003669186    1.529    0.346
        11 -12.1131    106.4699     32.3573   5.4127562515e+01   5.3825731655e+01    0.7647132    0.4235642  14.16  0.002980473    3.268    0.694
        12 -10.3452     10.9985     30.2028   9.1187635595e+01   6.9505575930e+01     0.333986    0.2064873 -44.83  0.002077566    1.441    0.306
        13 -10.4416     79.5504     33.5610   6.2413585354e+01   5.9319497923e+01    0.7759033    0.4532578  -8.36  0.003572122    2.338    0.572
        14 -10.4607     47.1836     19.2200   6.8444742480e+01   6.6877043656e+01     0.312091    0.2345149  -6.43  0.001164535    1.203    0.169
        15 -11.5846     13.9369     23.5494   8.6883133250e+01   7.0375564506e+01    0.6442643    0.5277236  38.70  0.003085257    1.787    0.440
        16 -12.1457     36.2500     17.5621   7.2609815819e+01   6.8700778358e+01    0.6493936    0.4344556 -28.22  0.002403942    1.436    0.304
        17 -11.9158     48.4575     12.9249   6.4937549909e+01   6.7431952763e+01    0.6130749    0.2939345  43.13  0.002159263    1.946    0.486
        18 -12.4530     20.2153     21.1924   8.2434142722e+01   7.0135377963e+01    0.6096539    0.2221739 -38.87  0.001251689    2.428    0.588
        19 -12.6221     17.2866     12.3446   7.9869139881e+01   7.1738015115e+01    0.6366458    0.4740777   0.28  0.002945669    1.080    0.074
        20 -12.1713     22.7706     11.5850   7.6490205408e+01   7.1224015270e+01    0.4918458     0.299688   5.22  0.002118944    1.579    0.367
        21 -10.8507     86.7715      7.3984   4.9661034303e+01   6.0723243752e+01    0.5794252    0.3153621  58.22   0.00282865    1.651    0.394
        22 -11.1846     90.7583     20.5863   5.3864632837e+01   5.8601407050e+01    0.5839653    0.3322426 -28.54  0.002674768    1.908    0.476
        23 -11.3407     85.8488     14.4181   5.2763235080e+01   6.0268758688e+01    0.6942075    0.4005802  17.27  0.002908268    2.183    0.542
        24  -9.3392     78.2606      7.4627   5.2020638051e+01   6.2482292742e+01    0.2497658    0.1872919  65.14 0.0008535584    1.488    0.328
        25 -11.0507     74.9069      3.5495   5.1303525162e+01   6.3496052611e+01    0.5048651    0.2662956  52.81  0.002646458    1.614    0.381
        26 -10.9103    178.8022     21.0969   3.7788093992e+01   3.8063956415e+01    0.5281329    0.2442449  49.78  0.001792635    2.428    0.588
        27 -11.9440     68.3305     18.0002   5.9721108686e+01   6.3376018227e+01    0.5097097    0.3860075  37.42  0.001580518    1.163    0.140
        28 -11.7594    232.7625      6.2754   2.9536163500e+01   2.7791921476e+01     0.640047    0.3775534 -75.15   0.00396071    1.456    0.313
        29 -12.2622    246.2609      8.0334   2.8996936885e+01   2.4914460359e+01     1.086912    0.4852112 -31.42  0.005782676    2.516    0.603
        30 -11.1526    242.1972      3.7501   2.8438965251e+01   2.6175193620e+01    0.4504197    0.2045287  63.90  0.002518742    2.330    0.571
        31 -11.8811    237.9133     15.9545   3.1091895278e+01   2.5672780312e+01    0.5097055    0.3583154  67.41  0.003141528    1.552    0.356
        32 -11.4143    227.5669     15.3549   3.1746420936e+01   2.7857874239e+01    0.4777626    0.2857948  88.55  0.001516157    1.527    0.345
        33 -10.9736    218.8755      3.0563   2.9851657412e+01   3.1010924117e+01    0.2794327    0.2683563 -68.36  0.001369278    1.361    0.265
        34 -10.9013    223.8666      2.0406   2.9292477830e+01   3.0067891998e+01    0.3797612    0.2153496  89.83  0.001433416    1.548    0.354
        35 -10.5913    211.2608     17.7229   3.3611770099e+01   3.1068150036e+01    0.3283607    0.1786007 -36.84  0.001798112    1.824    0.452
        36  -9.2522    191.2419     16.7892   3.5327761615e+01   3.5654615203e+01    0.2762974    0.2033352   3.31   0.00154857    2.185    0.542
        37 -11.5489    192.3456      8.1249   3.3155593837e+01   3.6312777353e+01    0.6123925    0.4542291   5.42  0.003077922    2.170    0.539
        38 -11.5087     27.2617     27.9737   8.1755000023e+01   6.8315720622e+01    0.9341828    0.4846079  31.47  0.002489781    1.971    0.493
        39 -12.1716    104.7268     12.5764   4.7327475545e+01   5.6348297116e+01    0.4998102     0.425879 -35.83  0.001650338    1.355    0.262
        40  -9.9503      5.0715     12.5351   8.7082005464e+01   7.2860056323e+01    0.2823454    0.1719273  25.42  0.001849256    1.765    0.433
        41  -8.7451      5.3452      9.3205   8.5380333831e+01   7.3316105880e+01    0.1859957    0.1147563 -11.50  0.001118156    1.380    0.275
        42 -11.3996    211.8439      9.6485   3.1792029833e+01   3.1828179340e+01    0.4537978    0.3256063   3.56   0.00192807    2.534    0.605
        43  -8.9914     61.9958     12.0331   5.9281273958e+01   6.5190209249e+01    0.1455658    0.1207839  15.20 0.0004093749    1.054    0.052
        44 -10.0981     65.9785     10.3243   5.7118187165e+01   6.4624120215e+01    0.2618886    0.1801018  48.41 0.0009385436    1.364    0.267
        45 -10.0865     62.8204      6.8022   5.6586805592e+01   6.5554146630e+01    0.3357011    0.1949008  30.35   0.00164561    1.569    0.363
        46  -9.8249    169.0516      9.4755   3.5920617816e+01   4.1563273813e+01    0.3478307    0.1356275  52.24  0.001506564    2.608    0.617
        47  -9.2710    163.0782     10.1536   3.6814760099e+01   4.2905455980e+01    0.1921155    0.1529763  58.52 0.0005948051    1.239    0.193
        48  -9.4827      1.1267      7.4932   8.7114833330e+01   7.3927370233e+01     0.260324   0.06871042 -46.20  0.001078208    3.393    0.705
        49 -11.2119      2.3883      1.9995   8.3510839504e+01   7.4603707848e+01    0.2713642    0.1547501   3.04  0.001453413    1.597    0.374
        50 -10.1184     12.4960      1.4846   7.6979669801e+01   7.3687019192e+01    0.4590552    0.1370606  33.03  0.002153968    3.199    0.687
        51  -9.6207    169.6683      2.8146   3.4113994187e+01   4.2040556436e+01     0.272309    0.1358819 -77.51  0.001208027    2.343    0.573
        52 -11.0494    177.2365      5.9342   3.4112665259e+01   3.9992472799e+01    0.4335836    0.1925919  83.94 0.0009327707    2.290    0.563
        53 -10.6229    183.6946      5.2611   3.3296892728e+01   3.8567576033e+01    0.3652207    0.2431015 -44.69  0.001121363    1.504    0.335
        54  -8.9657    186.4286      1.4963   3.2132277892e+01   3.8299683359e+01    0.1717123   0.09935093 -89.63 6.714118e-05    1.572    0.364
        55  -9.0380    157.6062      7.1518   3.6671031172e+01   4.4480371625e+01    0.1992322    0.1295009  41.38 0.0007417688    1.791    0.442
        56 -12.3124    124.9421     27.6203   4.8244054277e+01   5.0154531722e+01    0.6403081    0.5003834  54.65  0.001755866    1.144    0.126
        57 -10.6868    122.0785      5.2000   4.1312529996e+01   5.3019945163e+01    0.1820431      0.17777  53.44 0.0003934672    1.144    0.126
        58  -9.9521    116.8596      2.8824   4.1448609031e+01   5.4412712864e+01    0.2372064    0.1959525  34.64   0.00117373    1.241    0.194
        59  -8.8200    100.4997      1.5201   4.4134925731e+01   5.8219521178e+01     0.221488    0.1036562  60.83  0.000860322    1.778    0.438
        60 -10.3234    105.5094      1.8280   4.3220760087e+01   5.7077158521e+01    0.3211798    0.1704934  70.07  0.001084161    1.820    0.451
        61 -10.2998    110.5228      1.7331   4.2212585197e+01   5.5951060538e+01    0.4565096    0.1786183  71.29  0.001904624    2.673    0.626
        62 -10.4737     41.4282      4.6267   6.3828863372e+01   6.9456728980e+01    0.3424663    0.1933863  10.32  0.001482945    1.960    0.490
        63 -11.7678    134.6054      2.9056   3.8563320556e+01   5.0278501756e+01    0.5132442    0.2775126  80.70   0.00204001    1.870    0.465
        64  -9.8152    143.1551      3.6975   3.7579094687e+01   4.8199342273e+01     0.318091    0.1694979  77.04   0.00160838    1.740    0.425
        65 -10.0498    207.4980      2.5307   3.0592048313e+01   3.3505969152e+01    0.2150729    0.1808638  67.92  0.001094048    1.334    0.251
        66 -10.2134    204.0331      1.7548   3.0694554029e+01   3.4339912470e+01    0.2677068    0.1749296  80.22 0.0008466012    1.323    0.244
        67  -9.1134    157.3210      3.0622   3.5576810367e+01   4.4912222018e+01    0.1698842    0.1516774 -81.98   0.00102147    1.102    0.092
        68  -9.2107    151.8722      1.3625   3.5765951032e+01   4.6339657613e+01    0.2445047    0.1050742  74.88 0.0009132058    2.089    0.521
        69  -8.3977    108.5186      5.9400   4.4105180149e+01   5.6072418168e+01    0.3141497    0.1308284 -17.18  0.001385837    3.009    0.668
        70 -10.9082     82.2678      1.3440   4.8338319395e+01   6.2164103418e+01    0.2044957   0.09828102  57.27 0.0002936907    1.776    0.437
        71  -9.0436     33.5422      1.5207   6.5787490966e+01   7.0980128147e+01     0.117736   0.08825154  11.58 0.0003457624    1.038    0.036
        72 -11.3127     46.7080    146.8928   1.0511456975e+02   3.9606527411e+01    0.7263214    0.3238414 -61.27  0.002680027    1.933    0.483
        73  -8.3108    217.0000    250.0079   8.1627279782e+01  -8.3034904499e+00    0.1741297   0.06227904 -39.42 0.0007935785    2.881    0.653
        74 -10.1033    143.0778    249.8700   9.6243841867e+01   2.1164726725e+00    0.1984741    0.1571525  46.10  0.001233028    1.240    0.194
        75 -10.1934     41.5125    149.0776   1.0695481710e+02   3.9622476773e+01    0.2575875    0.2055539  36.41 0.0004315776    1.374    0.272
        76 -10.9681     62.8195    150.8868   1.0104668241e+02   3.6575199941e+01    0.4878339    0.3234484   0.45  0.002145031    2.299    0.565
        77  -8.7346     87.2420    151.0295   9.4017982551e+01   3.2936812690e+01      0.20019    0.1232433 -57.81 0.0006443113    1.551    0.355
        78  -9.6391    234.1973    150.0874   5.9947161266e+01   5.4645395706e+00    0.3059776     0.212698   2.93  0.001541902    1.968    0.492
        79 -10.0940    239.6503    146.5979   5.8340879749e+01   5.1681933869e+00    0.2410388    0.1840087 -31.45  0.000683164    1.130    0.115
        80 -10.8661    249.0124    142.1876   5.5991925772e+01   4.3961191980e+00    0.5018718    0.2426045 -31.60  0.002302018    1.988    0.497
        81  -8.7965     93.8170    146.6587   9.1267627713e+01   3.2962621101e+01    0.2102707    0.1363396  46.40 0.0003221851    1.612    0.380
        82 -11.0304     33.2426    144.4586   1.0871158905e+02   4.1664078106e+01    0.4559942    0.3190282  43.48  0.001907131    1.540    0.351
        83  -8.9943    233.9720    143.4700   5.8601279185e+01   6.6814723775e+00    0.1647849    0.1210273  85.23 0.0008055426    2.308    0.567
        84  -9.4404    104.9804    142.8166   8.7275575206e+01   3.1975601751e+01    0.2307121    0.2029785  81.65 0.0004008905    1.247    0.198
        85  -9.3489    132.9713    140.7662   7.9193904182e+01   2.7105748884e+01    0.2194672     0.219046  53.79 0.0007893207    1.024    0.023
        86 -10.9134     22.9014    127.0265   1.0937385418e+02   4.7046714798e+01    0.2707098    0.2099891  31.45 0.0003299982    1.484    0.326
        87 -11.3231     25.5107    135.5042   1.0977299421e+02   4.4671120358e+01    0.5160564    0.3976049  18.21  0.002755822    1.558    0.358
        88 -12.4219     30.0507    132.9641   1.0802233825e+02   4.4911900043e+01    0.9000161    0.7215381 -11.34 0.0003637446    1.539    0.350
        89 -10.6357     39.4605    137.7677   1.0587107933e+02   4.2753205740e+01    0.3917551    0.2189499  46.38  0.001822718    1.981    0.495
        90  -9.8527     80.1376    136.8565   9.3277632626e+01   3.7677565692e+01    0.4774816    0.2886862 -31.09  0.001927009    2.209    0.547
        91 -10.2407     47.1807    135.4580   1.0312678596e+02   4.2502454522e+01    0.5073561    0.1722544 -63.31  0.001655519    2.566    0.610
        92  -9.9590    245.1588    134.8555   5.5061752220e+01   6.2903432851e+00    0.1999692     0.159879 -49.91 0.0004618509    1.208    0.172
        93 -10.5606     74.1717    132.5168   9.4200491310e+01   3.9695820135e+01    0.3360037    0.2198553 -29.04  0.001453766    1.950    0.487
        94 -10.1251     61.4017    132.4092   9.8148406525e+01   4.1528533329e+01    0.4560874    0.3171401   6.56  0.002138411    1.905    0.475
        95 -10.5220    216.9863    138.3320   6.0363348780e+01   1.0668118107e+01    0.3615791    0.2719202 -53.87  0.001055221    1.375    0.273
        96  -9.8168    103.8235    130.9582   8.4933360369e+01   3.5120297142e+01    0.2411041    0.2214185  31.71 0.0002839294    1.136    0.119
        97  -9.7501     93.0392    129.6455   8.7817314748e+01   3.7372323758e+01    0.3609279    0.2310794 -72.37  0.001481035    1.969    0.492
        98 -10.8632      9.5602    128.2389   1.1366479705e+02   4.7734132634e+01    0.4972725    0.2842098 -54.01   0.00264307    1.530    0.346
        99  -9.8577     93.3565    135.1542   8.8959706288e+01   3.5940405656e+01     0.222976    0.1424933 -66.44 0.0004696012    1.723    0.420
       100  -9.9551     81.0690    125.5243   9.0545718356e+01   4.0397465994e+01    0.4833471    0.3752726  52.41   0.00237908    1.419    0.295
       101  -8.9419    223.8391    126.7892   5.6669394952e+01   1.1520867295e+01    0.1936235    0.1510189 -58.06 0.0005005993    1.339    0.253
       102  -9.9771     40.9420    126.5495   1.0355860356e+02   4.5474703567e+01    0.2677684    0.1615967 -51.86 0.0006437327    1.484    0.326
       103  -9.9325      2.1974    126.0247   1.1563617927e+02   4.8744131752e+01    0.2637102    0.1809286  79.98 0.0009652764    1.473    0.321
       104  -9.6561     53.5090    125.5221   9.9322213346e+01   4.4301266074e+01    0.3255729    0.1532552 -55.45  0.001114852    1.848    0.459
       105  -9.3932     56.6450    122.0811   9.7619541274e+01   4.4783777407e+01    0.2732965    0.1860503 -42.90  0.000844361    1.442    0.307
       106 -12.5785    103.7321    122.3945   8.2905716432e+01   3.7224993470e+01    0.4405506    0.3955614   2.08 0.0006457261    1.231    0.188
       107  -9.3026     94.0371    123.4983   8.6078733151e+01   3.8719250360e+01    0.2354422    0.1949882 -54.04  0.001167191    1.162    0.139
       108 -10.0164     49.5173    123.2676   1.0018151799e+02   4.5355176226e+01    0.3099836    0.2327597 -17.49  0.001128556    1.620    0.383
       109 -11.0819     44.8130    119.0473   1.0091819663e+02   4.6962714928e+01    0.5980882    0.3638807 -84.08  0.002183181    2.054    0.513
       110  -9.8914     18.9525    122.7290   1.0999988583e+02   4.8445195077e+01    0.2262935    0.1624526 -69.10 0.0004853412    1.171    0.146
       111  -9.1805     71.3552    120.8899   9.2585318737e+01   4.3056567310e+01    0.2125743    0.1786492 -50.11 0.0005021114    1.107    0.097
       112  -9.0668    221.4738    120.4981   5.5663950341e+01   1.3119018205e+01    0.1420522     0.123656 -46.67 8.090238e-05    1.038    0.037
       113  -8.7295    148.3181    119.9970   7.0242045730e+01   2.8631650771e+01    0.2580385    0.1242304 -26.55 0.0007038238    4.195    0.762
       114 -10.4541     32.6724    118.1679   1.0479498960e+02   4.8427847891e+01    0.4230787    0.2215863  44.83  0.001480349    2.241    0.554
       115  -9.0403    210.6577    118.3409   5.6981046308e+01   1.5648103241e+01    0.1500333    0.1077029 -70.78 0.0007048681    1.777    0.437
       116  -9.4990     58.5249    117.2060   9.5978567508e+01   4.5770724863e+01    0.3767672     0.122622 -56.15  0.001301433    2.636    0.621
       117  -9.5234    113.7026    116.0837   7.8406572130e+01   3.6795102160e+01     0.302494    0.1910527 -43.88  0.001284876    1.554    0.357
       118 -12.8210      2.1955    111.3853   1.1385370537e+02   5.2350053298e+01    0.6860588    0.3874024 -85.67 0.0004656129    1.738    0.425
       119 -11.3763      5.6396    107.2208   1.1213434266e+02   5.3177711077e+01    0.5247554    0.2456245 -73.38  0.001640125    1.842    0.457
       120  -9.4427     79.2411    114.4715   8.8540233770e+01   4.3430789981e+01    0.2981295    0.1975022 -52.07  0.001369186    1.415    0.293
       121  -9.4606     66.9959    114.4766   9.2554991867e+01   4.5290872511e+01    0.3418436    0.2100982  58.52  0.001433941    2.248    0.555
       122  -9.8486     65.7468    110.9959   9.2161556899e+01   4.6328359219e+01    0.4464253    0.3088653  15.96  0.002123011    1.721    0.419
       123 -11.8439     49.3027     98.9008   9.5029001103e+01   5.1423491962e+01     1.814512    0.7812595 -44.00  0.007312955    2.195    0.544
       124  -9.9660     42.9790     94.7518   9.6355917982e+01   5.3140763431e+01    0.4723241    0.3410679 -36.64  0.001870977    1.309    0.236
       125 -11.9199      7.3972     88.8433   1.0854707658e+02   5.7488281317e+01    0.6055675    0.4423377  20.91  0.001947605    1.627    0.385
       126 -11.6243      9.6173     97.3314   1.0920248349e+02   5.5341418591e+01    0.5740192    0.4952925  -0.78  0.001472444    1.352    0.260
       127 -10.7465     16.1081    109.7076   1.0895487615e+02   5.1901762481e+01    0.3498669    0.2483618  56.41 0.0008949078    1.689    0.408
       128 -11.0913     18.6916    106.0381   1.0745711230e+02   5.2619395764e+01    0.2426195    0.2314645 -41.21 0.0001858881    1.151    0.131
       129 -12.0125     42.4353     85.7031   9.4316068319e+01   5.5313468315e+01     0.910929    0.4664406  22.17  0.002458324    2.199    0.545
       130 -12.2354     34.8154     94.0770   9.9243006667e+01   5.4149202253e+01     1.252343     0.683326 -23.20  0.005518739    2.388    0.581
       131 -11.4701     27.4287     86.5563   1.0035609359e+02   5.6600133122e+01    0.9480085    0.5396971  22.76  0.004848714    1.964    0.491
       132 -11.6794     17.2196    100.9882   1.0709847397e+02   5.3959453699e+01    0.5131501    0.2908092  21.80  0.000574177    2.042    0.510
       133 -11.9742     25.8366    113.5890   1.0629429098e+02   5.0185526098e+01      1.12909    0.4333074  10.35  0.004079412    4.093    0.756
       134 -12.0727     25.2370    107.8479   1.0549267547e+02   5.1661828712e+01     1.193734    0.6170639 -15.42  0.005037361    2.941    0.660
       135 -11.6935     22.8037     94.8613   1.0390100119e+02   5.5019775499e+01    0.4819542    0.3505379 -16.96  0.002393285    1.522    0.343
       136 -11.4764     18.3276     90.3636   1.0468316383e+02   5.6428128837e+01    0.3878388    0.2772314 -59.39 0.0005552113    1.180    0.153
       137  -8.9729    126.5262    113.5391   7.4166401126e+01   3.4746914087e+01    0.1559835    0.1527449 -37.34  0.000286719    1.007    0.007
       138 -10.6087    108.3020    112.1029   7.8934548104e+01   3.8790827223e+01    0.6342629    0.4721334  71.00  0.002815842    1.789    0.441
       139  -9.2810    103.1742    105.8421   7.8789669526e+01   4.1235418356e+01    0.4907345    0.3705175  59.59  0.001453076    1.563    0.360
       140  -9.5116    103.6928    112.3598   8.0370230828e+01   3.9623535544e+01    0.2753573    0.2266659 -78.00 0.0005965683    1.444    0.308
       141 -10.2408    101.5101    109.4761   8.0268735103e+01   4.0714131831e+01    0.3696494    0.2935583  24.44   0.00117505    1.379    0.275
       142  -9.3480     94.1333    112.8501   8.3412873893e+01   4.1283680574e+01    0.2380581    0.2121805  86.40    0.0010918    1.286    0.223
       143 -10.0868     49.5196    112.0300   9.7909844028e+01   4.8185534395e+01    0.4179508    0.2856951 -27.06   0.00204606    1.687    0.407
       144 -10.5666    170.5295    110.4211   6.2732802714e+01   2.5753906825e+01     0.458427    0.3450842 -31.63  0.001457043    1.389    0.280
       145 -10.4121    175.2775    107.6051   6.1028469373e+01   2.5261547073e+01    0.3094562    0.2350762 -12.01  0.000964298    1.738    0.425
       146 -10.4128    147.1937    111.5058   6.8321207708e+01   3.0720382465e+01     0.317965     0.221123 -44.01  0.001424848    1.403    0.287
       147 -10.1640    131.4642    110.5725   7.2059260425e+01   3.4358652652e+01    0.4781252    0.3344607  82.28  0.001909578    2.255    0.557
       148 -10.0866    120.4397    108.9098   7.4604142998e+01   3.7064403723e+01    0.3444909    0.2711666 -20.38 0.0009872674    1.486    0.327
       149 -11.5021     79.6150    108.1175   8.6838244316e+01   4.4910517901e+01    0.6233239    0.3386714  28.37 0.0007572367    2.092    0.522
       150  -9.5278    157.7065    106.1335   6.4438632824e+01   2.9500966748e+01    0.2965482    0.2035603  21.85 0.0009108489    2.083    0.520
       151 -10.4660    143.4535    106.0123   6.7776973132e+01   3.2720458936e+01    0.3110471    0.2803581  64.97  0.001086419    1.166    0.142
       152 -11.5627    145.5854    100.1737   6.5675286005e+01   3.3461270263e+01    0.4273107    0.3359152 -33.97 0.0004765406    1.311    0.237
       153 -10.3222     85.7283    103.6653   8.3677687227e+01   4.4939352297e+01    0.3928175     0.218954 -33.19  0.000441737    2.153    0.536
       154  -9.7878    181.1817    103.4865   5.8807359428e+01   2.4752112026e+01    0.3174665    0.1846247 -55.39  0.001316642    1.899    0.474
       155  -9.5376     57.2520    102.3127   9.3011723763e+01   4.9605362469e+01    0.2537655    0.1969969 -56.97 0.0008276191    1.209    0.173
       156  -9.6638    120.6875    101.4610   7.2492162155e+01   3.8659950127e+01    0.2773835    0.1916266 -23.79  0.001077434    1.798    0.444
       157 -10.0734     65.0294     99.2326   8.9505539592e+01   4.9269485246e+01    0.4195799      0.15997 -47.15  0.001540341    2.391    0.582
       158 -10.9770     67.8568     95.2254   8.7455013800e+01   4.9791987698e+01    0.4692804    0.3112291  42.53  0.002246875    1.666    0.400
       159 -11.0954     89.9077     89.5290   7.8338497408e+01   4.7386568894e+01    0.6580303    0.3725321 -32.34  0.002691656    2.031    0.508
       160 -11.6740     76.3517     79.8856   8.0016251180e+01   5.1838491793e+01     1.208444    0.8762794  73.42   0.00203506    2.303    0.566
       161  -9.5153     63.8651     75.8929   8.3312318926e+01   5.4671709122e+01    0.2715573    0.2294611  32.64  0.000778499    1.260    0.206
       162 -11.1271     80.0518     93.1336   8.2661149972e+01   4.8327335347e+01    0.7692928    0.3440244  38.82  0.002988752    2.315    0.568
       163 -10.1553     80.5020     98.4742   8.3997599319e+01   4.7034349302e+01    0.3041293    0.2458265 -20.52  0.001541688    1.332    0.249
       164  -9.9816     77.6837     96.6925   8.4458566526e+01   4.7911550027e+01    0.2412362    0.2025733  10.60 0.0004481857    1.285    0.222
       165  -9.3734     57.5070     97.9005   9.1829862756e+01   5.0626706363e+01    0.2272871    0.1306413 -53.82   0.00103103    1.586    0.369
       166 -10.0282    210.0789     98.1876   5.2405185956e+01   1.9453327042e+01    0.3181196    0.2614416  -9.46  0.001701355    1.556    0.357
       167 -11.1115     89.4644    104.6343   8.2731788484e+01   4.4058874854e+01    0.3984931    0.3437968  16.25 0.0005626469    1.244    0.196
       168 -11.1175    124.6290     93.8717   6.9260509020e+01   3.9428125371e+01    0.6476668    0.3487564  47.04  0.002007746    1.877    0.467
       169 -10.0739    116.9846     94.4941   7.1553988785e+01   4.0939935317e+01    0.3980943    0.3016821  -2.97   0.00179239    1.760    0.432
       170 -10.8749    120.9437     87.6376   6.8446790441e+01   4.1508902082e+01    0.6480386    0.3629153 -45.43  0.002249903    1.797    0.444
       171  -9.5575    160.6758     93.9149   6.0526565860e+01   3.1263834822e+01    0.3087892    0.2062596  73.34  0.001312137    1.942    0.485
       172 -10.7486    152.3033     92.2851   6.1936582531e+01   3.3509958409e+01    0.3656114    0.2944759  71.52  0.001182258    1.375    0.273
       173  -8.7665    137.6191     93.6846   6.5827980978e+01   3.6583397392e+01    0.1622217     0.122625  10.31 4.331024e-05    1.813    0.449
       174 -10.7032     98.7762     91.1165   7.5978715531e+01   4.5365949198e+01    0.3170921    0.2676785  36.37  0.001071351    1.203    0.169
       175 -10.0545     66.5764     88.7846   8.6132631866e+01   5.1455147767e+01    0.3240445    0.2269667  -8.05  0.000995397    1.799    0.444
       176  -8.5245    211.6839     88.3002   4.9840261731e+01   2.0842225293e+01    0.1441198    0.1002491 -69.16 0.0002989505    1.615    0.381
       177 -10.5456    183.3443     85.2780   5.3769515382e+01   2.7646267176e+01    0.7839899    0.2843513 -49.10  0.002628465    3.003    0.667
       178 -10.5259    104.9546     87.0174   7.2864451001e+01   4.5005411376e+01    0.5082223    0.3054839 -24.91  0.001959771    2.206    0.547
       179 -11.2280    113.9279     84.0390   6.9332495426e+01   4.3744688414e+01    0.6084339    0.4772482 -43.62  0.003024185    1.278    0.218
       180 -10.8007    109.2650     80.6545   6.9644702921e+01   4.5405012113e+01    0.3548017    0.3053724  -7.06  0.001048708    1.267    0.211
       181 -10.8894    142.9217     84.4681   6.1910768714e+01   3.7182075397e+01    0.5337556    0.3200642  39.55  0.001642362    1.835    0.455
       182  -9.2327    135.2713     86.3893   6.4325584383e+01   3.8565145752e+01    0.2370297    0.1528286  45.74 0.0006361111    1.557    0.358
       183 -10.2803    165.6455     83.6689   5.6718010652e+01   3.2034494795e+01    0.3641617    0.2719531 -55.87  0.001187816    1.373    0.272
       184 -10.3686     67.1673     82.3053   8.4040057321e+01   5.2799158664e+01     0.400192      0.29113 -39.51  0.002062134    1.284    0.221
       185 -10.4673     60.5955     83.6021   8.6839624005e+01   5.3485442128e+01    0.2739739    0.2391191 -53.09 0.0002757924    1.180    0.153
       186  -9.3640     46.9216     75.5784   8.9770506687e+01   5.7050218966e+01    0.3315917     0.242985 -37.74  0.001827897    1.217    0.178
       187 -11.6113     53.2735     76.1575   8.7440734374e+01   5.6115979896e+01    0.6611723    0.3846299 -52.09  0.003177695    1.649    0.394
       188 -10.8404     58.2816     77.5448   8.5926938994e+01   5.5133406129e+01    0.3587449    0.2667656 -46.34 0.0007399536    1.263    0.208
       189  -9.8892    127.5226     82.8853   6.5273886894e+01   4.0995407430e+01    0.2831548    0.2164796  49.24 0.0008464275    1.304    0.233
       190 -10.9105    103.4545     75.8200   6.9857975639e+01   4.7558854930e+01    0.6568958    0.3733398 -50.05  0.002785685    1.941    0.485
       191  -8.6950     30.0936     80.1730   9.7772394351e+01   5.7829322212e+01    0.1621105    0.1475083 -76.96 0.0003792232    1.281    0.219
       192 -11.7919      2.1316     71.3824   1.0728209422e+02   6.1763561097e+01     0.892453    0.2115771 -64.94  0.003340739    3.305    0.697
       193 -13.2664      4.2753     61.7579   1.0421229662e+02   6.3759146771e+01    0.4275202    0.3063352 -33.55 0.0006416061    1.195    0.163
       194 -11.7266      9.9137     62.2110   1.0179872175e+02   6.3337753737e+01    0.5237491    0.3301457 -38.47  0.002116534    1.308    0.236
       195 -10.2321    233.1647     77.7753   4.4519149019e+01   1.8138889469e+01    0.3096196    0.2228158 -38.16  0.001179936    1.315    0.240
       196  -9.9352     10.3226     68.3101   1.0311554156e+02   6.1992782525e+01    0.2254686    0.1298113 -48.77 0.0006500647    1.365    0.267
       197 -10.1145     14.7222     67.4097   1.0099208157e+02   6.1901955847e+01    0.3142005    0.2097666  15.61  0.001701917    1.667    0.400
       198 -10.1371     95.0154     76.3796   7.2652249949e+01   4.9145652682e+01    0.5953881    0.3394091  37.16  0.002260458    1.795    0.443
       199 -11.4189     85.4603     73.3427   7.4803871709e+01   5.1563568434e+01     1.069349    0.7152538  58.78  0.004874088    2.012    0.503
       200 -10.9340     76.0420     63.6794   7.4842710521e+01   5.5116032708e+01    0.5784433    0.3305675 -47.30  0.001554099    1.850    0.459
       201 -12.3460     74.6726     53.1610   7.1605010422e+01   5.7239945106e+01    0.9333276    0.7751109   7.99  0.002151987    1.161    0.138
       202 -11.1434     72.9366     47.8431   7.0255039792e+01   5.8435850198e+01    0.4242742    0.3475043 -49.08  0.002434967    1.473    0.321
       203  -9.0022    134.4982     77.4811   6.1895161887e+01   4.0432555630e+01    0.1489658    0.1452325  86.31 4.868026e-05    1.039    0.038
       204 -10.1397    126.7983     76.9247   6.3667936878e+01   4.2290448738e+01    0.2725664     0.240374  30.36 0.0003084631    1.173    0.148
       205 -12.2302    186.3455     70.7950   4.9536917874e+01   2.9431415135e+01    0.8969423    0.5888001 -41.72  0.003336961    1.462    0.316
       206  -9.8668    184.4887     61.4635   4.7433653711e+01   3.1349629551e+01     0.347242    0.1734622 -45.79  0.001266167    1.924    0.480
       207 -10.0758    153.4883     72.7900   5.6197620273e+01   3.6828828239e+01    0.4783999     0.238873  40.68  0.001676378    2.404    0.584
       208 -12.0349     37.4434     71.6848   9.2487917063e+01   5.8977372833e+01     1.443422    0.5965697  18.01  0.005801831    3.060    0.673
       209  -9.7943    174.9238    247.2951   8.9360013258e+01  -2.1441305227e+00    0.2335061    0.2144712  23.12  0.001596194    1.196    0.164
       210 -11.0896     20.9217     46.4754   9.2000823628e+01   6.5709147333e+01    0.3330317    0.2519323 -40.00  0.001193533    1.163    0.140
       211 -11.1820     60.8048     36.0748   7.0194566383e+01   6.2361280540e+01    0.4108882    0.2609738 -22.23  0.001229131    1.607    0.378
       212 -11.8865     24.8555     57.8015   9.3811915635e+01   6.3125507996e+01     1.009104    0.7513823  16.17  0.006234085    1.424    0.298
       213 -11.4758     33.3162     52.9999   8.8428554604e+01   6.3242572233e+01     1.006883    0.3693074  38.73  0.004085153    3.401    0.706
       214  -9.1954    163.6042    243.7686   9.1143361321e+01   9.3517419432e-02    0.1562952    0.1251357 -58.33 0.0007339576    1.626    0.385
       215 -11.2331     26.6507     47.4393   8.9595028192e+01   6.4991851390e+01    0.4183867    0.2233421 -17.92 0.0009906702    2.204    0.546
       216 -11.0205     24.2412     38.7970   8.7627904102e+01   6.6814624681e+01     1.131294    0.6450208  49.17  0.005298317    3.390    0.705
       217 -11.7576     53.9066     50.4391   7.8594707265e+01   6.1095858942e+01    0.4959183    0.3437129  49.38 0.0007773556    1.913    0.477
       218 -11.1350    127.4832    242.2751   9.8517162268e+01   5.8066852203e+00    0.3332604    0.3091595  -3.49  0.001505799    1.199    0.166
       219  -9.8815     67.9916    240.5012   1.1093908335e+02   1.4692445496e+01    0.1907326    0.1095121  36.74 0.0009753418    1.585    0.369
       220 -11.6595     48.4689     30.7838   7.3048167028e+01   6.5095667190e+01     0.829508    0.3120997  41.71  0.003587984    2.759    0.638
       221 -11.8679     52.1460     61.7814   8.3327667630e+01   5.9225592181e+01    0.3327406    0.3300927  11.59  0.002143629    1.267    0.211
       222 -11.4160     43.4078     61.9352   8.7000588184e+01   6.0326344157e+01    0.3749982    0.2713262 -64.24 0.0003792596    1.784    0.440
       223 -12.0385     46.4227     58.7579   8.4672782711e+01   6.0576677135e+01    0.5916288    0.4474674  43.83  0.003360842    1.644    0.392
       224 -11.6594     13.9874     74.6315   1.0303593800e+02   6.0355925088e+01    0.6113642    0.3932062 -70.24  0.002436528    1.593    0.372
       225 -11.8015    122.9505     69.0719   6.2239404715e+01   4.4584014042e+01    0.5533343    0.4931027  40.45  0.001483041    1.100    0.091
       226  -9.1069     19.7387     71.9408   9.9979674298e+01   6.0543782508e+01    0.1793417     0.114679 -24.52 0.0006915701    1.565    0.361
       227  -9.5507    162.1810     71.0398   5.3937834462e+01   3.5067737110e+01     0.269344    0.2169326  83.58  0.001288757    1.337    0.252
       228  -9.7398    171.9194     68.8485   5.1505813339e+01   3.3126475106e+01    0.3289142    0.2370519 -48.01  0.001263531    1.358    0.264
       229 -10.3571    170.2376     63.6484   5.0397334407e+01   3.4366363657e+01    0.4599475    0.3191027 -80.97  0.001798731    1.762    0.433
       230 -11.4177    219.7258     66.5708   4.3704023922e+01   2.2668351188e+01    0.6175485    0.3282898  60.89  0.003012751    1.985    0.496
       231 -10.7542     59.0432     62.9932   8.0979995288e+01   5.8003794123e+01    0.4894257    0.3371449 -48.27  0.001819862    1.491    0.329
       232  -9.6193    192.3842     65.7663   4.7306178695e+01   2.8848988322e+01    0.2640437    0.1966532 -76.34 0.0007093658    1.419    0.295
       233 -10.2737    199.8833     63.9246   4.5743939594e+01   2.7430406401e+01    0.4180167     0.258984 -80.20  0.001927701    2.041    0.510
       234 -11.4305     91.7134     62.9780   6.9288572640e+01   5.2318476866e+01      0.78283    0.4153889  51.10  0.003339919    2.073    0.518
       235 -10.7594     87.6562     56.6952   6.8422804592e+01   5.4211178802e+01    0.5636988     0.236165 -34.37  0.001677593    2.557    0.609
       236 -10.2682     91.9502     57.5108   6.7323067844e+01   5.3224569000e+01    0.3334126    0.2756143  62.43  0.001013926    1.446    0.309
       237 -11.5902    234.8786     61.2122   4.0736424646e+01   2.0333578870e+01    0.4553202    0.3410369 -65.55  0.001878764    1.185    0.156
       238 -10.1736    159.0175     62.5645   5.2169893250e+01   3.7213553574e+01    0.5306842    0.2174084  47.98  0.001980629    2.537    0.606
       239  -9.7368    106.5024     64.0012   6.5117685986e+01   4.9094063999e+01    0.2985026    0.1965382  31.61  0.001381826    1.653    0.395
       240 -11.2205    147.9165    237.9083   9.3569174231e+01   3.4842482574e+00    0.5284141    0.2349092  39.56  0.002397351    1.983    0.496
       241 -11.4902    157.2197     52.5784   4.9656583922e+01   3.9176512737e+01     1.502786    0.9705483 -17.26  0.006908508    2.098    0.523
       242 -10.0466    167.6090    237.7827   8.9418257490e+01   5.0275059364e-01    0.1629189    0.1259194 -56.72  0.000948844    1.665    0.399
       243 -10.8474    198.4673    232.9843   8.2410580811e+01  -3.2667500071e+00    0.3623916    0.3268818 -18.99  0.002433693    1.235    0.191
       244  -9.9522    242.9442    232.3269   7.4046535546e+01  -9.0888042002e+00    0.2246308    0.1829455 -18.45  0.001585623    1.230    0.187
       245  -9.3891     15.3643    233.6186   1.2104503239e+02   2.2273708952e+01    0.2166417    0.1224683 -78.81  0.001145963    1.616    0.381
       246 -11.0485    155.6177     42.3473   4.6991919519e+01   4.1002162691e+01    0.4767812    0.3501398  58.06  0.002007461    1.281    0.219
       247 -13.0269    153.0009     35.7599   4.5525702302e+01   4.2488368910e+01    0.3660577    0.3203768  64.53 0.0005065951    1.070    0.065
       248 -11.9718    159.2150     31.2903   4.3226462692e+01   4.1544121432e+01    0.5437452    0.4027429 -76.94  0.002995282    1.429    0.300
       249 -11.2675    164.0636     27.7473   4.1506063769e+01   4.0801719259e+01    0.3065735    0.2645079  83.21 0.0006174892    1.033    0.032
       250  -9.4725     23.7415    231.6273   1.1928206796e+02   2.1824487240e+01    0.1646448   0.08752462  46.45 0.0007970679    1.588    0.370
       251 -10.2124    247.7696    232.0070   7.3159041793e+01  -9.6261673125e+00    0.2572092    0.2022444 -47.03  0.001431536    1.923    0.480
       252 -12.2775    115.3749     24.7545   4.9315071355e+01   5.2697245155e+01    0.8797626    0.2796924  57.70  0.002968516    2.679    0.627
       253  -9.7050     64.8250     61.2812   7.8154346010e+01   5.7442890859e+01    0.2990305    0.1562099 -47.11 0.0008396423    1.957    0.489
       254  -8.7235    205.9762     61.7270   4.4368873785e+01   2.6402719659e+01    0.1583782    0.1149766  68.51 0.0004055743    1.397    0.284
       255  -9.4614    150.8686     61.1390   5.3371229378e+01   3.9387663522e+01     0.225871    0.2133349  58.80 0.0006749085    1.055    0.052
       256  -9.2798    146.9975     60.7860   5.4066092153e+01   4.0367173050e+01    0.2781587    0.1895035  52.92 0.0007632517    1.415    0.293
       257 -10.9002    105.6500     58.1101   6.3387998653e+01   5.0278883358e+01    0.6089742     0.373345  66.33  0.002458059    2.273    0.560
       258  -9.3386    104.2642     53.9608   6.2366131356e+01   5.1251236001e+01    0.2240659    0.1860013  12.31 0.0004229612    1.286    0.223
       259 -10.1618    136.3817     50.4049   5.3165874541e+01   4.4480147474e+01    0.7535512    0.2929927  39.20  0.002392954    3.834    0.739
       260 -10.0159    145.4793     39.5130   4.7983512554e+01   4.3815943551e+01    0.2368714    0.1271135  61.46  0.000672079    1.723    0.419
       261 -10.1670    136.3779     56.8747   5.5177659729e+01   4.3502814697e+01    0.6187776    0.4001083  -5.74  0.002322459    2.479    0.597
       262 -11.2327    145.5232     48.1938   5.0597775501e+01   4.2619923966e+01    0.9221426    0.4627539 -20.98  0.002866024    2.863    0.651
       263 -10.0850    238.0912     55.8431   3.9253085511e+01   2.0469100103e+01    0.2115608    0.1589373 -44.46 0.0002790822    1.224    0.183
       264 -10.4407    240.3029     50.5577   3.7924736525e+01   2.0776151339e+01    0.2737818    0.2196537 -36.29 0.0009325206    1.367    0.268
       265 -10.1782     66.8726     54.6502   7.5022904751e+01   5.8324015854e+01    0.3740462    0.2076936 -50.58  0.001703376    2.159    0.537
       266  -9.3158    211.2671     52.9510   4.1623855472e+01   2.6532477616e+01    0.1917374    0.1609922 -59.93  0.001166168    1.060    0.056
       267  -9.8252    201.6515     53.0771   4.2869118249e+01   2.8658217517e+01    0.4447032    0.2963285  58.18  0.002094311    1.562    0.360
       268 -10.1278    201.6795     48.6780   4.1806361907e+01   2.9280426094e+01    0.3524321    0.2615456  17.99 0.0009072082    2.252    0.556
       269 -10.9789    200.9943     45.5060   4.1130135543e+01   2.9877449830e+01     0.544784    0.3060823  79.26  0.002637908    1.900    0.474
       270 -10.9334    174.0886     48.2520   4.5586363702e+01   3.5760535942e+01    0.5436746    0.3394401  79.50  0.002612681    1.735    0.424
       271 -11.9846    114.0979     38.6796   5.4450047856e+01   5.1300684671e+01    0.5115379    0.4732546   4.69  0.001623887    1.133    0.118
       272  -9.2682     91.0561     48.0408   6.4222303509e+01   5.4941156305e+01    0.3074729    0.1745619 -50.63  0.001349776    2.325    0.570
       273 -10.8933     12.7748     48.1061   9.6485444619e+01   6.6045230468e+01    0.3909654    0.1761876 -33.36  0.001776658    2.022    0.505
       274  -9.8765     17.3950     42.0295   9.2202592584e+01   6.6851508114e+01    0.2714838    0.1498194 -25.00 0.0009726856    1.728    0.421
       275  -9.6835      1.9764     48.5277   1.0188332483e+02   6.6632843662e+01    0.3616831    0.1738541 -58.96  0.001948582    1.796    0.443
       276 -10.0053      5.9903     42.9497   9.8245774606e+01   6.7507192768e+01     0.337272    0.1646238 -31.43  0.001823129    1.798    0.444
       277  -9.3353    181.3175    228.3048   8.5083670197e+01   3.9960097519e-02    0.1344332    0.0929492  -0.83 0.0007027295    1.627    0.385
       278  -9.9779      5.9281     31.2331   9.4324632118e+01   6.9696857597e+01    0.3826479     0.175483 -21.01  0.001760738    2.317    0.568
       279 -10.3593    245.3648     51.2351   3.7576589940e+01   1.9682406338e+01    0.2148858    0.1626088  81.90  0.001297859    1.352    0.260
       280 -10.7515    134.8813     45.8364   5.2055073137e+01   4.5490956562e+01    0.4222777    0.1958766  61.47 0.0007264786    2.142    0.533
       281 -10.3343    139.0647     43.7879   5.0543532684e+01   4.4779870563e+01    0.3830346    0.2268083  36.96  0.001414193    2.006    0.501
       282 -10.7078     94.3490     41.2877   6.0736832152e+01   5.5263657090e+01    0.7607774    0.2680772  51.91  0.002841734    2.769    0.639
       283  -9.9113    177.0856     43.1321   4.3766713927e+01   3.5756083200e+01    0.4040478     0.163933  55.88  0.001665336    2.338    0.572
       284  -9.9833     86.1305     30.8407   5.9244726454e+01   5.8362934016e+01     0.389191    0.2394659   8.83  0.001831311    2.216    0.549
       285 -10.7585     80.3859     39.0946   6.4308642276e+01   5.8388506285e+01    0.5815985    0.4590751 -85.69  0.003043295    2.150    0.535
       286  -9.9256    233.8555    223.1863   7.4075982322e+01  -6.6287659198e+00     0.177081    0.1217339  -4.88  0.001032718    1.332    0.249
       287 -10.2775    189.2196     40.0520   4.1291043047e+01   3.3317845580e+01    0.5134553    0.2226433 -27.09  0.002081127    2.919    0.657
       288 -10.1559    231.7391     39.2045   3.6368929421e+01   2.4059976272e+01    0.2823817    0.1520145 -50.70  0.000931876    1.577    0.366
       289  -9.7892    217.4290     38.7770   3.7696475293e+01   2.7142501817e+01    0.2505245    0.1027033 -40.82   0.00114677    2.147    0.534
       290  -9.9243    183.0026     32.4782   4.0179232872e+01   3.5740248215e+01    0.2528362    0.1137077  62.82 0.0005122062    2.034    0.508
       291 -10.6578    189.1873     27.5441   3.8179037547e+01   3.4899483778e+01    0.3166052    0.2694488  30.27  0.001924245    1.576    0.365
       292 -11.0190    176.9435     36.3030   4.1984194300e+01   3.6687585230e+01    0.4561513    0.3624513 -21.58    0.0026166    1.531    0.347
       293 -10.8726    174.7597     31.4155   4.0995372508e+01   3.7815311043e+01    0.7116628    0.2431607  47.26  0.001904267    3.865    0.741
       294 -11.1913    183.1635     25.4738   3.8377789215e+01   3.6544578953e+01    0.5242147    0.2531408  56.88  0.002485279    2.008    0.502
       295  -9.1438    183.8558     38.1693   4.1523164578e+01   3.4817321945e+01    0.2034968    0.1566374 -75.69 0.0007509125    1.249    0.199
       296  -9.7758    132.8918     36.9226   4.9640605018e+01   4.7155782220e+01    0.3307851    0.2067154 -71.01  0.001462108    2.369    0.578
       297  -9.3551    206.6514     37.0616   3.8466527511e+01   2.9736202897e+01    0.1785293    0.1499136 -55.77 0.0007362108    1.130    0.115
       298  -9.0680     47.9105     37.1200   7.5941681646e+01   6.4207963154e+01    0.1624117    0.1231496  -8.19            0    1.207    0.172
       299 -10.4608      5.0154     37.0722   9.6852055371e+01   6.8687667763e+01    0.4235516    0.2411527 -45.82   0.00214164    1.404    0.288
       300  -9.1539     94.1827     35.9113   5.8783492630e+01   5.6036641924e+01    0.1900036    0.1798742 -79.70 0.0006176968    1.295    0.228
       301 -10.8982    240.1241     31.7254   3.4077457068e+01   2.3321999117e+01    0.4131725    0.2677937 -40.12  0.001608277    1.471    0.320
       302  -9.7801    240.4996     26.4733   3.2990242320e+01   2.3902070774e+01    0.2151906     0.162527 -51.17  0.000664973    1.190    0.160
       303  -9.3875     35.8403     31.7840   7.9188016945e+01   6.6687247350e+01     0.153746     0.140271  21.21 0.0005422942    1.369    0.269
       304 -10.7979    199.0425     28.8727   3.7383218286e+01   3.2480587717e+01    0.4202679    0.3656758 -41.85  0.002144981    1.271    0.213
       305 -10.3231    164.7088    212.3342   8.5908814392e+01   5.5631832075e+00    0.2554919    0.2214525  36.33 0.0007246452    1.151    0.131
       306  -8.6276    199.3214    210.3337   7.8321920443e+01   3.7315879387e-01    0.1408799   0.09452827  -5.02  0.000704989    1.703    0.413
       307  -9.7695    153.2052    207.4944   8.7618911344e+01   8.4305916371e+00    0.2742444    0.2347052 -78.46 0.0008719501    1.486    0.327
       308 -10.4104    124.8744    206.4066   9.3946572914e+01   1.3414469731e+01    0.3524877    0.2028603  50.20  0.001580411    1.826    0.452
       309  -9.4628     61.1387    206.5078   1.0904440910e+02   2.2997245367e+01    0.1957577    0.1673822  88.92 0.0006822808    1.086    0.079
       310  -9.8885    238.3488    204.5622   6.9938976998e+01  -4.3848782243e+00    0.2541983       0.1363 -33.60  0.001341754    1.636    0.389
       311  -9.2641    196.3857    205.1281   7.7962091553e+01   1.7506462818e+00    0.1794341    0.1246825 -49.79 0.0008883799    1.673    0.402
       312  -8.9811    221.6414     30.1650   3.5384553733e+01   2.7342472889e+01    0.1624792     0.114063 -27.32 0.0009429173    1.742    0.426
       313  -9.1081     99.5307     30.4781   5.5254847380e+01   5.5583539285e+01    0.2160164    0.1220842  54.31 0.0001263538    1.637    0.389
       314  -9.9278     97.7591     26.5306   5.4251361887e+01   5.6437499169e+01    0.2723603    0.2347506 -56.92  0.001117738    1.436    0.303
       315 -10.1065    230.2811     27.4864   3.4039845655e+01   2.5857962285e+01    0.3067606    0.1773488 -43.52  0.001221439    1.537    0.349
       316 -10.0471    250.2333     27.2260   3.2390000782e+01   2.1897496476e+01    0.2282444    0.1594886 -26.10  0.001049878    1.891    0.471
       317  -8.6798      1.2834     27.2844   9.5449304589e+01   7.0700604823e+01    0.1181744   0.06451688 -27.84 0.0005307968    1.521    0.343
       318 -10.1850    214.2165     24.2133   3.4776662606e+01   2.9668978471e+01    0.2809005    0.2466196 -79.54  0.001356593    1.118    0.106
       319 -10.4229     16.9261    203.4219   1.1879846306e+02   2.8730568652e+01    0.3297235    0.1457615 -73.84  0.001638089    1.968    0.492
       320 -11.5389      6.0504    198.0371   1.2080050218e+02   3.0961313723e+01     1.170549          nan -68.21  0.003231136    6.698    0.851
       321 -12.1094      4.5993    184.2514   1.2019597360e+02   3.4301395827e+01     0.662479    0.4475047  79.51  0.003443768    1.246    0.197
       322 -10.7436    234.4675    197.3224   6.9276411073e+01  -2.6862716867e+00    0.5075206    0.3186654 -32.01  0.002843535    1.390    0.281
       323 -10.7080    245.6487    200.8840   6.8001567595e+01  -4.8004137679e+00    0.2074455     0.152883   7.13 0.0006950635    1.310    0.237
       324  -9.5210    169.0011     23.8727   3.9760883676e+01   4.0068378222e+01    0.2383801     0.159427  63.05 0.0009312539    1.368    0.269
       325  -8.5967    195.3171    199.6790   7.7165815246e+01   2.9063607340e+00    0.1264264    0.1123442  83.97 0.0004209363    1.662    0.398
       326  -8.9790     27.6582    199.3279   1.1608799282e+02   2.8608358796e+01    0.1405179   0.07766008  64.70 0.0007051303    1.740    0.425
       327  -9.5899     74.7464     19.4491   5.8197849176e+01   6.1987057351e+01    0.2517308    0.1627294  23.71  0.001379997    1.562    0.360
       328  -9.5228     82.7939    196.1919   1.0257260160e+02   2.2408200107e+01    0.3311731    0.2126483  17.12   0.00151318    2.100    0.524
       329 -10.5362    246.5486    193.7193   6.6515962546e+01  -3.7997690891e+00    0.2462074    0.1035986 -35.00  0.001144256    2.053    0.513
       330  -9.8268    169.9554    191.3533   8.0960554844e+01   8.8062797383e+00    0.3823495      0.21523  22.57   0.00157018    2.202    0.546
       331  -8.9324    162.6617    191.2897   8.2572924366e+01   1.0104736027e+01    0.1416695    0.1150809  70.56 0.0003843677    1.640    0.390
       332  -9.1330     16.4712    191.5193   1.1801229280e+02   3.1548057665e+01    0.1262763    0.1034378  86.42  4.95736e-06    1.033    0.032
       333 -10.1928    239.7999    184.6480   6.5934641156e+01  -1.3767239852e+00    0.2551449    0.1893293 -16.68 0.0006635485    1.213    0.175
       334  -9.9283    214.5696    184.7973   7.0509479173e+01   2.4789149235e+00    0.1928867    0.1217921 -47.28 0.0009575078    1.682    0.405
       335  -8.7345      1.2786     20.7010   9.2906830971e+01   7.1834305410e+01   0.09016556   0.08813628 -14.31   0.00042695    1.539    0.350
       336 -10.1235    250.4238    178.6240   6.3005502927e+01  -1.9195500422e+00    0.4570223    0.1004845 -35.71  0.001406616    4.554    0.780
       337  -8.9641    194.5181     19.4243   3.5618691569e+01   3.4615107876e+01    0.2173109    0.1060416  72.66 0.0007404706    1.870    0.465
       338  -9.0368    157.6277    179.7398   8.1489734628e+01   1.3451332553e+01    0.1518219    0.1138946   2.48 0.0006977635    1.654    0.396
       339 -10.0559    231.0512    175.5744   6.5673100653e+01   1.4846999197e+00    0.3630031    0.1537122  38.48   0.00133153    2.620    0.618
       340  -9.2826    205.3521     17.4256   3.4086125784e+01   3.2402794542e+01    0.2255057    0.1023831  68.03  0.001114457    2.009    0.502
       341 -10.1329    186.5006     15.1358   3.5423796554e+01   3.6921893885e+01    0.2406614    0.1773103  84.55 0.0004925511    1.184    0.156
       342 -10.4260     52.0034    173.5265   1.0739134118e+02   3.2165620429e+01    0.5520753     0.261735 -86.86  0.002082103    2.826    0.646
       343  -9.2433    223.7102     21.9496   3.3438321330e+01   2.7901984140e+01     0.200859    0.1443973  72.99 0.0008103615    1.377    0.274
       344  -9.7045     28.0227    175.9808   1.1385812862e+02   3.4203266131e+01    0.2082494    0.1735589  84.24 0.0007901398    1.037    0.036
       345  -9.7354     75.9203     13.9670   5.5495025720e+01   6.2336796971e+01    0.2080575    0.1516868  44.20 0.0003658696    1.199    0.166
       346  -9.9758    247.7298    173.9191   6.2530464395e+01  -7.6031282286e-01    0.3976222    0.1699162  25.39  0.001478491    4.170    0.760
       347  -9.8848     39.2021    173.3935   1.1072285601e+02   3.3681894177e+01    0.3331473    0.2150443  48.24  0.001750658    1.546    0.353
       348 -11.0260     35.2916    169.9347   1.1134498864e+02   3.4969309918e+01    0.3935016    0.2713151 -69.10  0.001589218    1.287    0.223
       349  -8.5663     94.6344     12.2910   4.9602059173e+01   5.8601271148e+01    0.1226769   0.09703419 -81.67 0.0004813184    1.707    0.414
       350  -8.9676    207.0000    172.8958   6.9569854181e+01   5.9302909575e+00    0.2320536   0.07417499 -42.14 0.0007962221    2.900    0.655
       351  -8.9123    170.5416    172.0157   7.6990249984e+01   1.2700592061e+01    0.2200099    0.1425641 -44.38 0.0006185398    1.514    0.340
       352 -12.2170     22.6766    149.3170   1.1236978190e+02   4.1401849632e+01    0.7552903    0.3764917 -51.86  0.001616582    1.920    0.479
       353 -11.5630     15.9896    147.6921   1.1405858325e+02   4.2370397241e+01    0.5877268    0.3247566  22.62  0.003002026    2.156    0.536
       354 -11.8903     12.7337    139.5130   1.1406075895e+02   4.4680819887e+01    0.8342862    0.4634241 -72.29  0.004313635    1.481    0.325
       355 -11.7171      9.6799    166.7003   1.1760270686e+02   3.8132381422e+01    0.5073357    0.4030099  81.00  0.002266742    1.100    0.091
       356 -11.9749     13.5726    159.4975   1.1594015808e+02   3.9603409888e+01    0.7732245    0.4605702 -85.25  0.003445755    1.474    0.321
       357 -11.1687      3.3538    147.0369   1.1747577690e+02   4.3456003092e+01    0.5372756    0.2599439 -76.89  0.002088116    1.688    0.407
       358 -12.2566      2.3309    141.8547   1.1725986858e+02   4.4808181124e+01     1.172704     0.499974 -84.30  0.001342719    2.177    0.541
       359  -9.3431    156.3124    166.1091   7.9017130298e+01   1.6678258169e+01    0.2129749    0.1846779 -45.34 0.0004988734    1.146    0.127
       360  -8.9752    152.4575    166.5187   8.0014548683e+01   1.7326780436e+01    0.1513422    0.1460235 -13.32 0.0001052677    1.015    0.015
       361  -9.1823     80.3211    166.3201   9.8697963614e+01   3.0126634238e+01    0.1494808    0.1130349 -28.68 0.0004408044    1.669    0.401
       362 -10.3197     19.0898    164.9305   1.1503417158e+02   3.7784302527e+01    0.3239099    0.2758335 -18.88  0.001787935    1.546    0.353
       363  -9.2300    198.1171    167.9235   7.0291638856e+01   8.4501164466e+00    0.2123737    0.1942496 -54.07 0.0007865954    1.233    0.189
       364  -9.8410    204.9745    162.9539   6.7895333539e+01   8.1799333981e+00    0.2510193    0.2054453  23.05 0.0005541676    1.296    0.228
       365  -9.7110    208.4796    160.4891   6.6701451207e+01   8.0235987365e+00    0.2486837    0.1277839 -40.60  0.001080767    1.775    0.436
       366  -9.9697     39.3245    161.9362   1.0930605801e+02   3.6564321876e+01    0.5021667    0.2453067  67.17  0.001980686    2.784    0.641
       367 -10.7434     28.1368    162.1011   1.1234973524e+02   3.7662949397e+01     0.475085    0.2201782 -60.35  0.002186792    1.879    0.468
       368 -10.3924    246.4255    159.0744   5.9804468675e+01   1.9263301617e+00     0.409209     0.109045 -37.31  0.001410237    3.346    0.701
       369  -9.2635     79.1616    160.2146   9.7981693945e+01   3.1852746284e+01    0.2095458    0.1694029  77.00 0.0006275616    1.322    0.244
       370  -9.5622    224.2879    157.3679   6.3152373935e+01   5.8359714536e+00    0.3425637    0.1760905 -49.51  0.001500797    2.065    0.516
       371  -9.2631    215.6369    157.6639   6.4767494359e+01   7.2848905157e+00    0.2239599    0.1601502  -8.74  0.001110736    1.688    0.408
       372 -10.3639    104.8612    154.1521   8.9687855910e+01   2.9174445772e+01    0.4046077    0.3297775 -35.25  0.001991073    1.329    0.248
       373 -10.3200     33.2417    154.4138   1.1003188280e+02   3.9115324069e+01     0.290499    0.2391398  49.12  0.001009857    1.287    0.223
       374 -10.3577     31.1722    151.6159   1.1025761888e+02   4.0033748209e+01    0.3210378    0.2429219 -22.28  0.001561768    1.718    0.418
       375  -9.4161     74.5379    153.9898   9.8201198486e+01   3.4133008416e+01    0.2931485    0.1444014 -66.19  0.001150452    2.069    0.517
       376  -9.9588     71.2203    151.4056   9.8699934798e+01   3.5278178899e+01    0.2872736    0.2213253  31.15  0.001457854    1.404    0.288
       377  -9.6936    188.8287    163.9485   7.1349028672e+01   1.0943107530e+01    0.2466319    0.1606744 -17.74 0.0009795718    1.975    0.494
