#   1 NUMBER                 Running object number                                     
#   2 MAG_AUTO               Kron-like elliptical aperture magnitude                    [mag]
#   3 X_IMAGE                Object position along x                                    [pixel]
#   4 Y_IMAGE                Object position along y                                    [pixel]
#   5 X_WORLD                Barycenter position along world x axis                     [deg]
#   6 Y_WORLD                Barycenter position along world y axis                     [deg]
#   7 A_WORLD                Profile RMS along major axis (world units)                 [deg]
#   8 B_WORLD                Profile RMS along minor axis (world units)                 [deg]
#   9 THETA_WORLD            Position angle (CCW/world-x)                               [deg]
#  10 FWHM_WORLD             FWHM assuming a gaussian core                              [deg]
#  11 ELONGATION             A_IMAGE/B_IMAGE                                           
#  12 ELLIPTICITY            1 - B_IMAGE/A_IMAGE                                       
         1 -10.3059    138.5658     64.3674   2.8704167913e+01   4.1530267289e+01    0.4091967    0.2093284 -33.37   0.00170351    2.139    0.533
         2  -9.8729     63.1551     48.2798   4.5596064025e+01   5.9455412114e+01    0.2645026     0.142281 -25.64  0.001224967    2.114    0.527
         3 -10.7851     41.0218     13.8478   4.0544006680e+01   6.7695386340e+01    0.2000026    0.1541037  14.40 0.0002586826    1.058    0.055
         4  -9.3911     97.6149     12.1588   2.1175174838e+01   5.7468294843e+01    0.1698277    0.1143373   1.35 0.0009483156    1.785    0.440
         5  -9.1142     67.5011      1.3699   2.5116501223e+01   6.4487491681e+01    0.1200531   0.09266543  34.80 -0.0003590662    1.040    0.038
         6 -11.0927    167.0497    241.9904   6.1392819008e+01  -5.4197407149e-02    0.2036334    0.1741732  18.82 0.0008177801    1.032    0.031
         7 -10.1221     53.4746    249.4695   8.5723537994e+01   1.5243351728e+01    0.2120895    0.1788135  56.32 0.0006965084    1.130    0.115
         8 -10.1014     20.7208    249.3987   9.1923635761e+01   1.9084489523e+01    0.2106588    0.1139445  83.29  0.001263581    1.676    0.403
         9 -10.0337     13.4120    250.3317   9.3297848559e+01   1.9673784231e+01    0.2117155    0.1106267  43.84   0.00104318    1.616    0.381
        10  -9.4046     16.3459    237.6756   9.2052481959e+01   2.1886850969e+01    0.1281914   0.06291532  63.00 0.0007050108    1.742    0.426
        11 -10.8114     91.1029    230.8007   7.6108377754e+01   1.3864471754e+01    0.3533717    0.1722414 -53.93  0.001662174    2.277    0.561
        12  -9.3771    230.8965    234.1269   4.7690321754e+01  -8.0734013998e+00      0.17373    0.1546738   0.22  0.001223986    1.250    0.200
        13  -9.0903    237.3291    229.3275   4.5719425956e+01  -8.2260623807e+00    0.1280082   0.07906982  -3.76 0.0006616092    1.706    0.414
        14 -10.8502    162.2757    225.3821   5.9809852957e+01   3.6199462961e+00    0.3872795    0.2800804  18.69  0.002105958    1.410    0.291
        15 -11.0817     98.5676    225.3664   7.3807607876e+01   1.3873238249e+01    0.3703919    0.2433352  31.86  0.001198668    1.518    0.341
        16 -10.8987    126.2670    220.8657   6.6998843592e+01   1.0411436667e+01    0.3119457    0.2375823  60.33 0.0008125966    1.410    0.291
        17  -9.6833    108.8399    222.1700   7.1094873859e+01   1.2946754238e+01    0.1801863    0.1621536   2.99 0.0008010384    1.323    0.244
        18 -10.8935     87.3788    227.3479   7.6520091256e+01   1.5132968669e+01    0.3078545    0.1456299  36.63  0.001237037    1.930    0.482
        19 -10.0628    115.0314    220.9780   6.9538468612e+01   1.2209673834e+01    0.2085831     0.166434 -10.41 0.0007025804    1.682    0.406
        20 -11.1668     95.7214    217.8677   7.3489093517e+01   1.5903543843e+01    0.4678092    0.3471139  69.71  0.001601182    1.415    0.293
        21  -9.5662     99.8752    217.1583   7.2450342830e+01   1.5415513632e+01    0.2434411    0.1916596  58.83  0.000514555    1.209    0.173
        22  -9.2601    143.5879    216.7626   6.2498770307e+01   8.3634691079e+00    0.1792018    0.1363312 -65.01 0.0009475814    1.578    0.366
        23 -10.1292    170.4726    215.3064   5.6389138796e+01   4.1340640299e+00     0.259956    0.2273297  18.05 0.0008056724    1.046    0.044
        24  -9.4637    151.3322    216.3349   6.0714965517e+01   7.1461694187e+00    0.1427494      0.10522  -3.69 0.0007052206    1.733    0.423
        25  -9.8871     74.7468    219.1275   7.8375577197e+01   1.8718067501e+01    0.2431391    0.1559011  50.09  0.001000399    1.403    0.287
        26  -8.9469    131.3175    214.3282   6.4871849577e+01   1.0915762184e+01    0.1395718    0.1082782  -7.16 0.0007046199    1.680    0.405
        27 -10.2476     76.9028    211.4651   7.6992134465e+01   2.0111525145e+01    0.2781911    0.2311108 -53.32   0.00127433    1.362    0.266
        28  -9.3579    116.3110    210.6296   6.7746599956e+01   1.4190705145e+01    0.1479214    0.1035219  70.75 0.0007034988    1.771    0.435
        29  -9.6397    213.3505    207.7034   4.6317546575e+01  -1.4359247721e+00     0.119101    0.1069934  74.18 0.0003329341    1.684    0.406
        30 -10.1770    124.0240    205.9840   6.5238768267e+01   1.3904785768e+01    0.2013553    0.1881141  50.57  0.001171883    1.019    0.019
        31 -10.2866    164.9174    202.3920   5.5328401936e+01   7.5652533496e+00    0.3819891    0.2162442 -53.28  0.001713233    2.016    0.504
        32 -11.5852    166.5540    197.7991   5.4134186481e+01   8.1924510396e+00    0.4505556    0.2687403 -52.37  0.001842255    1.863    0.463
        33 -10.9642    162.6468    194.2853   5.4351592155e+01   9.5977525866e+00    0.3819954    0.2656302  65.71  0.001401676    2.084    0.520
        34  -8.8604    130.3186    201.3318   6.3013281146e+01   1.3833134039e+01    0.1450629    0.1124023  -9.80 0.0003947039    1.691    0.409
        35 -11.6610    172.7474    195.5319   5.2359276000e+01   7.5489952913e+00    0.3933445    0.3033971 -51.18  0.001409705    1.415    0.294
        36 -10.1997    180.9984    199.9754   5.1416665059e+01   5.2458617449e+00    0.2055138    0.1916849  13.35  0.001219917    1.052    0.049
        37 -11.6839    177.9756    196.9943   5.1505488395e+01   6.3436101905e+00    0.3518842    0.3033203  14.81  0.001187881    1.118    0.106
        38 -10.3576    125.8418    196.9722   6.3341106524e+01   1.5561251763e+01    0.4038239    0.2065957  32.32  0.001305093    2.021    0.505
        39 -11.2485     13.4772    194.7824   8.9751579639e+01   3.1499323395e+01    0.3444662    0.2444323 -34.79 0.0006576502    2.066    0.516
        40  -9.9132     22.0283    191.0000   8.7518165575e+01   3.1560765393e+01    0.3823785    0.1515643  29.93  0.001749571    2.687    0.628
        41  -9.5458     66.0513    194.0378   7.7409015554e+01   2.5662285984e+01    0.2316195    0.1478742  70.74  0.001127485    1.718    0.418
        42  -9.7718    113.0176    194.2740   6.5975033247e+01   1.8365389260e+01    0.2024536    0.1818136  44.63 0.0003864748    1.066    0.062
        43  -9.5145    155.5334    191.5496   5.5447715106e+01   1.1444948491e+01    0.2288339     0.186517  73.41 6.335898e-05    1.568    0.362
        44  -9.2646    104.3579    189.2699   6.7285387813e+01   2.0970986172e+01    0.2213851    0.2077625   7.97 0.0005586655    1.204    0.169
        45 -11.2062     97.9106    188.0333   6.8689220298e+01   2.2319012303e+01    0.5892591     0.330815  60.08 0.0008288501    2.219    0.549
        46 -11.2815     94.5748    182.4854   6.8642716886e+01   2.4177247695e+01    0.5227764    0.3816898 -78.45  0.002136826    1.492    0.330
        47  -9.3053    105.0772    197.9125   6.8471930600e+01   1.8858146308e+01    0.2195593    0.1732686 -21.53  0.000961898    1.676    0.403
        48 -10.8741    204.6364    187.1898   4.4136002963e+01   3.5939462760e+00    0.4964142    0.2379023 -48.16  0.002107112    2.256    0.557
        49  -9.7183    138.6466    188.4382   5.8802703601e+01   1.5174607457e+01    0.3659188    0.1312786 -47.47  0.001264606    2.867    0.651
        50 -10.9736     11.5357    187.4130   8.9611773885e+01   3.3381418819e+01    0.2821896    0.1886909  81.80 0.0006048452    1.290    0.225
        51 -11.2772      7.6921    187.6652   9.0497812953e+01   3.3658337641e+01    0.4329752    0.1305689 -61.72   0.00184385    2.839    0.648
        52  -9.6013    165.3786    186.2084   5.2212858446e+01   1.0763870609e+01    0.2042017    0.1383566 -57.25 0.0006975112    1.707    0.414
        53 -10.0891    109.5404    184.6902   6.5238260378e+01   2.1169762792e+01    0.3371405    0.2866049  59.14  0.001802252    1.172    0.147
        54 -11.3503    174.4676    182.9161   4.9562195116e+01   9.7714107267e+00    0.4777696    0.2439916 -54.99  0.001897168    2.399    0.583
        55  -9.5444    120.0000    183.9564   6.2513171186e+01   1.9524637049e+01    0.2419153   0.08428851 -54.35 0.0008032928    2.948    0.661
        56 -10.5532     44.9426    180.4373   8.0950112501e+01   3.1621756373e+01    0.6490225    0.1321557 -65.16  0.002053665    3.971    0.748
        57 -11.5982      3.8257    177.6472   9.0613226197e+01   3.6313564832e+01    0.3592625    0.3069764  28.75   0.00248566    1.452    0.311
        58  -9.4586    197.3141    182.6460   4.4703888257e+01   5.7092246426e+00    0.1365998     0.114467 -84.17 0.0007045466    1.736    0.424
        59 -10.3031     20.1133    181.0185   8.7073634203e+01   3.4103144363e+01     0.327433    0.1603516 -72.30  0.001126755    1.744    0.427
        60 -11.7063     12.2815    179.5441   8.8794782141e+01   3.5163405518e+01    0.3942119     0.332953 -39.64  0.002603239    1.509    0.337
        61 -10.3751    148.4994    174.9787   5.3900009692e+01   1.6320798910e+01    0.3221077    0.2392211   4.43  0.001299621    1.783    0.439
        62 -10.0626    138.5951    179.3037   5.7111093288e+01   1.7214574856e+01    0.3768432    0.2413803 -79.41  0.001471546    2.603    0.616
        63 -10.3386    183.1893    174.9491   4.6085455985e+01   9.7722449966e+00    0.2698283    0.1716177 -51.61  0.001237111    1.697    0.411
        64  -9.6337    105.5071    174.9817   6.4575868814e+01   2.4160335841e+01    0.2148355    0.1308453 -86.00 0.0008100938    2.605    0.616
        65 -10.0528    147.6547    179.5763   5.5001910281e+01   1.5466788584e+01     0.253714    0.1888086 -74.51 0.0009726692    1.756    0.430
        66  -9.2712     88.3164    173.3086   6.8755915529e+01   2.7399349816e+01    0.1448651    0.1142861 -24.29 0.0007030559    1.633    0.388
        67 -10.7090    177.4168    169.4718   4.6199484983e+01   1.1975854291e+01    0.4733385    0.3083951 -50.13  0.002191999    1.592    0.372
        68 -10.4849     77.4629    175.5093   7.1947079788e+01   2.8520426148e+01    0.3246728    0.1909167  70.17 0.0009176451    2.296    0.564
        69 -11.1716    206.7994    168.6896   4.0004492859e+01   6.6764988069e+00     0.379145    0.1725422 -44.63  0.001560132    2.115    0.527
        70 -11.0622    121.5731    168.0365   5.9160520894e+01   2.2960627697e+01    0.6881956    0.2838588 -56.78  0.002406202    2.629    0.620
        71  -8.9737    168.2962    168.6867   4.8048756655e+01   1.3890180469e+01    0.1455864    0.1203544  88.00 0.0003256819    1.600    0.375
        72  -9.3234    199.5833    166.9499   4.1061094533e+01   8.3201706233e+00    0.2157814    0.1319893 -40.17 0.0004288785    1.549    0.354
        73 -10.2562    139.1857    164.7419   5.4081179598e+01   2.0405099071e+01    0.4278514     0.272141 -76.13  0.001643949    2.519    0.603
        74  -9.3312     19.2907    166.6752   8.5889192950e+01   3.7631410604e+01    0.1335422   0.08369223  70.82 0.0002588796    1.613    0.380
        75 -11.2238    219.1964    165.2940   3.6975663706e+01   5.1202350677e+00    0.2964859    0.2650489  27.52  0.001385961    1.194    0.163
        76 -10.1406     80.2241    164.2047   6.9385759533e+01   3.0901410435e+01    0.3846108    0.2181834  84.07  0.001388548    3.030    0.670
        77  -9.3403     37.4872    163.9790   8.0872223055e+01   3.6504912261e+01    0.2006444    0.1024429  82.49 0.0008104679    2.589    0.614
        78 -10.3987     93.6227    160.3390   6.5062254271e+01   2.9731396547e+01    0.5453075    0.3048318  73.09  0.001810417    3.512    0.715
        79  -9.9528    177.7001    160.4684   4.4239602840e+01   1.3788044083e+01    0.3562863    0.2029551 -54.35  0.001312508    1.990    0.497
        80 -10.3540    146.7415    159.3650   5.1110670731e+01   2.0152034867e+01    0.2507095    0.2268348  79.02 0.0004979176    1.231    0.188
        81 -10.1855    141.4678    158.6173   5.2239449923e+01   2.1360755355e+01    0.5281257    0.1491361  40.66  0.001538435    3.539    0.717
        82  -9.7478     22.7369    160.2323   8.4316310326e+01   3.8893024986e+01    0.2227889   0.07308854 -59.53 0.0008970666    2.497    0.599
        83 -12.3137    205.0765    153.2991   3.7107288789e+01   9.9422671056e+00    0.4829585    0.3576511 -24.63  0.002462927    1.409    0.290
        84 -12.0936    188.5171    136.0789   3.6562483787e+01   1.6624089077e+01    0.7881063    0.3342263 -49.27  0.002860102    2.457    0.593
        85 -11.3622    187.7924    124.8605   3.4116923902e+01   1.9023953987e+01    0.7574841    0.2975073 -34.05  0.002459794    3.160    0.684
        86 -12.4235    197.6461    136.5794   3.4872101051e+01   1.4661150602e+01    0.5467654      0.43161 -10.28  0.002752755    1.535    0.349
        87 -11.7420    202.7435    136.5915   3.3902774775e+01   1.3636191317e+01    0.4193985     0.271797  39.16  0.001294181    1.709    0.415
        88 -12.2076    189.0342    148.7533   3.9298663422e+01   1.3955986385e+01     0.866704    0.4464056 -57.47  0.003227497    2.630    0.620
        89  -9.9842    167.7724    157.1181   4.5709930347e+01   1.6459880958e+01    0.3429974    0.2068042 -63.50  0.001347999    2.312    0.567
        90  -9.3937     99.4972    160.4594   6.3495550315e+01   2.8713735413e+01    0.1502005    0.1431184  84.01 -2.75754e-05    1.028    0.027
        91  -9.8759    105.0905    157.3418   6.1385072547e+01   2.8505254071e+01    0.2905902    0.2217529 -68.98 0.0007145277    1.386    0.278
        92 -12.0920    248.4854    151.9135   2.9316164547e+01   2.5753625361e+00    0.5543369    0.2907726 -50.61  0.002630604    2.035    0.509
        93  -9.3295    157.5735    155.3372   4.7662907947e+01   1.8890650012e+01    0.2982842    0.1477729 -51.42  0.001131553    2.112    0.527
        94 -10.7674    149.6042    167.8069   5.2188927553e+01   1.7700114631e+01     0.442805    0.1380575 -46.68  0.001378818    3.202    0.688
        95 -10.5649     68.1575    153.4148   7.0887051256e+01   3.5366222164e+01    0.4915359    0.2989193  81.27  0.001883694    2.357    0.576
        96  -9.8456     49.5175    154.5410   7.6308182700e+01   3.7500542463e+01    0.3237939    0.1816956  69.47  0.001292606    2.403    0.584
        97 -10.6505    133.3089    152.7196   5.3016688323e+01   2.4324683584e+01    0.5419117    0.3521385  81.27   0.00197658    2.828    0.646
        98  -9.4258     95.2262    154.5730   6.3530940585e+01   3.0887057536e+01    0.2122731    0.1482924  20.72 0.0009517901    1.747    0.427
        99  -9.3320      4.6531    152.3524   8.8225816009e+01   4.2278916693e+01    0.1352926   0.07830412  67.55 0.0007038039    1.824    0.452
       100 -10.0896    182.9267    150.1721   4.0881532363e+01   1.4885720392e+01    0.3795955    0.2027865 -52.28  0.001476193    2.037    0.509
       101  -8.9067    162.2970    149.9733   4.5384376235e+01   1.9108198918e+01    0.2452814     0.121257 -64.22 0.0007022783    4.096    0.756
       102  -9.9644     81.6943    154.1592   6.7212163439e+01   3.3180207552e+01    0.2396834    0.1816519 -87.23 0.0007271044    1.481    0.325
       103 -11.5886    200.2664    148.2737   3.6950562878e+01   1.1842286825e+01    0.3434969    0.2433502 -56.28  0.001666608    1.561    0.359
       104 -10.1347    223.7764    147.7498   3.2516546372e+01   7.5298498304e+00     0.240969     0.175365  39.02   0.00128893    1.526    0.345
       105 -10.9087    197.0470    157.0437   3.9478568086e+01   1.0735479933e+01    0.3590439    0.2061786 -49.41  0.001579711    1.786    0.440
       106  -9.9073     39.4871    147.2620   7.8068147647e+01   4.0458908215e+01    0.4017509    0.1930589  63.46  0.001524837    3.151    0.683
       107 -10.4101     56.2717    145.6570   7.2977322919e+01   3.8904538644e+01    0.5145252    0.2679028  64.90  0.001928566    3.021    0.669
       108  -9.4578    175.6274    145.7920   4.1467254290e+01   1.7275307267e+01    0.2211479      0.13795 -53.34 0.0009283432    1.708    0.414
       109 -10.9807    148.8087    142.2966   4.6833665270e+01   2.3577799186e+01    0.9528744    0.3566136 -50.32  0.003115095    2.787    0.641
       110 -10.3379    106.3515    144.1097   5.8317188870e+01   3.1503305031e+01    0.5512642    0.3435727  85.43  0.001933955    3.077    0.675
       111  -9.2652     13.3348    145.7094   8.5208304820e+01   4.3247474767e+01    0.1303894   0.08520201  67.15 0.0002955386    1.635    0.388
       112  -9.0835    142.4274    148.2253   4.9740294560e+01   2.3542468542e+01    0.2242293     0.148135 -60.55 0.0009487175    1.715    0.417
       113  -9.8941    165.7685    143.1131   4.3045018671e+01   1.9878243909e+01    0.4045174      0.19865 -53.41  0.001496348    2.282    0.562
       114 -10.6393    124.9418    142.2571   5.2875523295e+01   2.8420663182e+01    0.5287606    0.3142486 -73.35  0.001881095    2.767    0.639
       115  -9.9240     87.8831    143.3584   6.3374777071e+01   3.4884370053e+01    0.2920273    0.2003438 -87.32  0.001007793    1.945    0.486
       116 -10.0711    182.2642    140.7793   3.8918546524e+01   1.6954811665e+01    0.3480808    0.2033046 -48.02  0.001493721    1.689    0.408
       117  -9.6161     27.8134    148.4005   8.1521766945e+01   4.1345103471e+01     0.294657      0.12975  77.68 0.0009549268    4.369    0.771
       118 -11.8333    249.0773    136.7042   2.6171415676e+01   5.0743732477e+00    0.4621509    0.1547623 -44.62  0.001808689    2.621    0.618
       119 -10.1792     23.3473    137.9638   8.1414974028e+01   4.4332055076e+01    0.4125027    0.1937204  79.84  0.001531424    3.479    0.713
       120  -9.7685    172.0284    137.0405   4.0254173076e+01   1.9863196082e+01    0.3918343    0.1979371 -55.34  0.001443607    2.374    0.579
       121  -9.7141    138.5247    137.5028   4.8271235470e+01   2.6784851588e+01    0.2823135    0.1487594 -58.59  0.001028307    2.291    0.563
       122  -9.7663    162.5465    135.2637   4.1960870210e+01   2.2243437313e+01    0.3814169    0.1485124 -42.99  0.001293468    2.538    0.606
       123 -11.1182     41.3296    130.9658   7.4963822779e+01   4.4331738117e+01    0.4048791    0.2751583 -87.86  0.001372136    1.652    0.395
       124 -10.1170    179.6221    132.5627   3.7584964067e+01   1.9195560280e+01    0.4534327    0.2371511 -52.82  0.001775907    2.095    0.523
       125 -10.9107    132.0775    130.1902   4.8192675666e+01   2.9782371743e+01    0.7601765    0.3834217 -58.40  0.002723487    2.432    0.589
       126 -11.6485    111.9389    129.5390   5.3476498113e+01   3.3954999506e+01    0.6853685    0.4490101 -42.88  0.002557037    1.541    0.351
       127 -10.8320    116.6955    124.1447   5.0855354291e+01   3.4289218604e+01    0.4867683    0.3648776  83.22   0.00179217    1.849    0.459
       128 -10.2838    117.2193    120.0158   4.9689428157e+01   3.5135698138e+01    0.3277459     0.251518 -36.36 0.0009799841    1.355    0.262
       129  -9.4713     81.4097    139.1852   6.4407817037e+01   3.6959314422e+01    0.2170139    0.1399789 -70.77 0.0009500827    1.723    0.420
       130  -9.8707    142.9272    131.0920   4.5649198550e+01   2.7315288738e+01    0.3846584    0.2201017 -57.74   0.00149999    2.024    0.506
       131 -11.1457     83.1642    130.3282   6.2026810641e+01   3.8867540884e+01    0.7700206    0.3146668 -63.06  0.002566123    2.980    0.664
       132  -9.8343     22.3754    131.7753   8.0846338408e+01   4.5940344828e+01    0.2028728   0.09602609 -58.69 0.0007452856    1.737    0.424
       133 -11.1327    188.5405    156.3290   4.1052957481e+01   1.2518997837e+01    0.4566462     0.251193 -51.05  0.001600941    1.931    0.482
       134 -11.2637    192.3543    129.2449   3.4234530914e+01   1.7194779859e+01    0.3615387    0.2616727 -40.75  0.001726033    1.310    0.237
       135 -10.3705    168.7028    128.5600   3.8991859466e+01   2.2353927095e+01    0.4565314    0.2297263 -51.46     0.001741    2.113    0.527
       136 -10.5373    152.6857    127.4026   4.2383359416e+01   2.6050544085e+01    0.6438068    0.2456098 -49.48  0.002113843    2.742    0.635
       137 -10.0492     12.8487    128.9651   8.3310048930e+01   4.7372226116e+01    0.3835857    0.1738235  73.34  0.001429729    3.761    0.734
       138 -10.5490    102.6983    118.3507   5.3417118318e+01   3.8336005717e+01    0.3262806    0.1584607  38.50  0.001159222    2.117    0.528
       139 -10.9956     98.3922    126.6746   5.6681199764e+01   3.7157164703e+01    0.6529564    0.4171558 -78.43  0.002560565    2.392    0.582
       140 -10.6057     98.2451    120.7515   5.5316562911e+01   3.8592831873e+01    0.4460072    0.2762648 -34.78  0.001877387    1.851    0.460
       141  -9.8823     72.8002    128.4940   6.4780977626e+01   4.0923549657e+01    0.3589716    0.2077213 -79.14  0.001382273    2.565    0.610
       142 -10.5155     59.4419    123.8394   6.7978080967e+01   4.3940156926e+01    0.5632849    0.3243371  85.42  0.002041306    3.331    0.700
       143 -11.1255    249.5280    124.7688   2.3684913169e+01   7.0307764479e+00    0.2243804    0.1945748  52.62  0.001426035    1.367    0.268
       144 -11.3410    180.4918    122.1736   3.4957074346e+01   2.1125035719e+01    0.7044198    0.3252816 -33.73  0.002531366    2.544    0.607
       145 -11.1368    185.9811    114.4335   3.2005225714e+01   2.1469842491e+01    0.4538973    0.2354385 -41.30  0.001285165    1.848    0.459
       146 -10.3204    105.2301    123.4412   5.3925800089e+01   3.6668481546e+01    0.2503709    0.2204067  26.14 0.0006946675    1.198    0.165
       147 -11.0395     43.4287    121.7779   7.2674270066e+01   4.6375954562e+01    0.6507151    0.3448256 -88.96  0.002424886    3.244    0.692
       148 -11.0033     28.5933    121.9876   7.7438804127e+01   4.7803233882e+01     0.556558    0.3318565  87.31  0.002617572    2.135    0.532
       149  -9.7552    202.9897    120.9985   3.0338488019e+01   1.6586725992e+01    0.1810232     0.162319 -45.47 0.0006597164    1.035    0.034
       150  -9.8547    172.4949    119.9635   3.6099952896e+01   2.3311791284e+01    0.4011878    0.1463233 -43.02  0.001343768    2.655    0.623
       151 -10.0803    158.4209    119.8846   3.9198522765e+01   2.6414461803e+01    0.4809566     0.256338 -47.84  0.001912936    1.873    0.466
       152 -11.1970    141.7060    117.3322   4.2559049642e+01   3.0610049108e+01    0.9754894    0.3346066 -49.06  0.003030512    3.073    0.675
       153 -10.3806     70.8843    118.8188   6.3276244891e+01   4.3571131551e+01    0.3696367    0.1986472 -73.08  0.001377454    2.714    0.632
       154 -10.5679    130.4000    117.1023   4.5393170703e+01   3.3079086899e+01    0.5067408    0.2838846 -57.05   0.00196755    2.066    0.516
       155 -11.1132    249.0078    118.0013   2.2377914663e+01   8.2672351921e+00    0.2233388    0.1721374  33.60    0.0013083    1.659    0.397
       156 -10.2959      2.8912    116.6833   8.4737040182e+01   5.0977709186e+01    0.4055988    0.1812825  80.14  0.001584076    3.580    0.721
       157 -11.1329    192.9742    113.9586   3.0550723183e+01   2.0047603570e+01    0.5858155     0.263514 -51.14   0.00218532    2.403    0.584
       158 -11.4643    189.0872    106.0182   2.9385819655e+01   2.2407783166e+01    0.4468819    0.2007089 -42.95   0.00155595    2.107    0.525
       159 -11.4656    108.7663    112.2923   5.0119531890e+01   3.8568346700e+01    0.8734348    0.3447835 -53.21   0.00292002    2.769    0.639
       160 -10.9250     79.2696    112.5043   5.9138230366e+01   4.3790477499e+01     0.579059    0.3607262 -86.87  0.002125839    3.119    0.679
       161 -10.3773     92.4429    111.9399   5.4887013549e+01   4.1696747084e+01    0.5007549    0.3302189 -72.27  0.001997034    2.077    0.519
       162 -10.1557     92.4057    105.3585   5.3204932117e+01   4.3210937236e+01     0.403419    0.2137776 -35.07   0.00156644    2.226    0.551
       163 -10.3492    174.8797    110.1701   3.3199517904e+01   2.4754226753e+01    0.4408297    0.2162932 -42.32  0.001736773    1.975    0.494
       164 -10.4645    159.2570    110.1612   3.6568666315e+01   2.8248369493e+01    0.5005869    0.2127157 -42.20  0.001796046    2.326    0.570
       165 -10.8550    122.0655    110.5682   4.5936579411e+01   3.6268505779e+01    0.5901832    0.2566769 -41.46  0.002096587    2.381    0.580
       166 -11.9175     16.7760    104.6539   7.8405807666e+01   5.2933653267e+01    0.6920216    0.3371717 -33.66  0.003100761    2.323    0.569
       167 -11.2740     22.8159    101.5056   7.5757813274e+01   5.3213405986e+01    0.6757178    0.3484198  69.34  0.002503197    4.166    0.760
       168  -9.7052     22.8463    110.8301   7.7427265179e+01   5.0998081862e+01    0.1820774    0.1463523  85.41 0.0008006677    1.378    0.274
       169  -9.4621      2.3268    109.9871   8.4018839065e+01   5.2596133552e+01    0.2228484   0.02311035 -53.25 0.0007043086    4.247    0.765
       170 -10.5471    182.9344    108.0532   3.1059646198e+01   2.3377966193e+01    0.3124204    0.2009716 -41.88  0.001426768    1.498    0.332
       171 -10.3233    133.1658    108.0243   4.2319166181e+01   3.4463557820e+01    0.3818989    0.2263393 -45.16  0.001600658    1.680    0.405
       172 -12.9790    242.0702    106.3637   2.0929903907e+01   1.1489900512e+01    0.5610242    0.2738728 -36.52  0.002595411    1.903    0.475
       173 -10.9484    196.8827    107.6317   2.8336938839e+01   2.0403556337e+01    0.2636634     0.194921 -32.90  0.001245686    1.397    0.284
       174 -11.8197    248.5927    104.2013   1.9608794433e+01   1.0650076046e+01    0.5009119    0.2143386 -56.68   0.00195186    3.060    0.673
       175 -10.3811    166.9270    102.0307   3.2817542191e+01   2.8142904886e+01    0.4780041    0.2164384 -40.78   0.00179984    2.186    0.543
       176 -11.0419    149.9085    100.8605   3.6301338447e+01   3.2236394958e+01    0.8001254    0.2389015 -46.43  0.002374716    3.486    0.713
       177 -10.0247     60.1620    107.2511   6.4128535661e+01   4.7850707515e+01     0.415516    0.1983638 -25.28  0.001241854    4.696    0.787
       178  -9.9061      6.5898    102.7806   8.1554536371e+01   5.4044099110e+01    0.1769254    0.1056546 -79.75 0.0008558703    1.660    0.398
       179  -9.8996    214.6928    102.3502   2.4099217276e+01   1.7586551045e+01    0.1479328    0.1016626 -68.25 0.0007043012    1.709    0.415
       180 -11.0013    128.6477     99.8985   4.1315868117e+01   3.7154173594e+01    0.5851389     0.311676 -38.77  0.002329338    1.959    0.490
       181 -10.5134    175.7817    100.1805   3.0526029737e+01   2.6490765467e+01     0.346973    0.2012026 -33.71  0.001461373    1.873    0.466
       182 -10.4496    159.5633     99.1761   3.3669732045e+01   3.0376740941e+01    0.4650779    0.1438133 -42.63  0.001444162    3.172    0.685
       183 -10.8816    108.7102     98.3561   4.6407928506e+01   4.1650003068e+01    0.5823646    0.4188161  74.98  0.002042489    2.049    0.512
       184 -10.1733    107.4043     92.7549   4.5216794307e+01   4.3093152446e+01    0.3632635    0.2876258   1.65  0.001746688    1.548    0.354
       185 -10.2318     81.8480     98.6735   5.4779698230e+01   4.6547374735e+01    0.5232853    0.2074656 -58.15  0.001714718    3.286    0.696
       186 -11.0261    139.7465    102.8170   3.9269511449e+01   3.4114684319e+01    0.6399648    0.2978854 -45.06  0.002400063    2.148    0.534
       187 -10.3555     94.7272     96.5757   5.0114565364e+01   4.4733711449e+01    0.3920331    0.2180379 -54.69  0.001465992    1.967    0.492
       188  -9.8114     95.7357     91.5182   4.8379002211e+01   4.5626494152e+01     0.352903    0.2193296 -14.70  0.001352087    2.665    0.625
       189 -10.8820     63.8530     95.7723   6.0047869990e+01   4.9992394165e+01    0.4557447     0.309639  89.01  0.001900987    2.601    0.616
       190 -10.4902    183.6721     95.4662   2.7821135575e+01   2.5587321697e+01    0.2702048    0.1325219 -39.90  0.001086119    1.989    0.497
       191 -10.0621     43.5396     92.9209   6.6527624927e+01   5.3220108672e+01    0.2974864    0.1389064 -43.42  0.001303937    1.975    0.494
       192 -10.7516     66.2612    109.1115   6.2537066173e+01   4.6565400858e+01    0.6058043    0.2603138 -62.15  0.002216015    2.670    0.625
       193 -10.9061    176.9045     91.8724   2.8207244434e+01   2.7788008865e+01    0.3274491    0.1889667 -37.34  0.001418703    1.762    0.432
       194  -9.8309    164.6059     92.6880   3.0891489720e+01   3.0464770815e+01    0.2982069    0.1452068 -36.47  0.001147541    2.169    0.539
       195 -11.1661     45.5914    101.9716   6.7899299117e+01   5.0899809513e+01    0.7169728    0.3940134  68.12  0.002473822    4.342    0.770
       196  -9.5469    157.8573     90.2364   3.1681959870e+01   3.2483118122e+01    0.2912997    0.1792407 -30.51  0.001239196    1.873    0.466
       197 -11.2368    124.8840     87.7788   3.8919089117e+01   4.0422517312e+01    0.8789077    0.4046839 -34.77  0.003215268    2.501    0.600
       198 -10.5714     34.6770     86.9832   6.8366934528e+01   5.5491142962e+01    0.8200539    0.2320397 -57.42  0.002990011    3.021    0.669
       199 -10.8449      7.0264     84.9833   7.8335264736e+01   5.8095672526e+01    0.4345566    0.1213008 -37.34  0.001545159    4.054    0.753
       200 -10.2267    150.8591     87.5037   3.2490489228e+01   3.4612213911e+01    0.3057665    0.2035467 -23.05  0.001322271    1.931    0.482
       201 -10.9526    250.2796     86.4728   1.5779880576e+01   1.3210555507e+01    0.3565439   0.07851123 -43.23  0.001220642    3.538    0.717
       202 -10.5265     86.6292     86.1790   4.9724183817e+01   4.8414777128e+01    0.4139791    0.2923105 -81.05  0.001780866    2.433    0.589
       203 -10.5988    138.8338     90.0830   3.6022696780e+01   3.6869485407e+01    0.5877168    0.2222017 -39.91  0.002007928    2.720    0.632
       204 -10.8126     48.2790     83.5368   6.2407719870e+01   5.4755888091e+01    0.5326815    0.2966329 -71.03  0.002205456    2.806    0.644
       205 -10.3203     49.4308     76.8454   6.0128492915e+01   5.6041969246e+01    0.2654277    0.1555599 -17.95  0.001190303    2.256    0.557
       206  -9.5458    116.7207     83.3506   3.9839780404e+01   4.3048583562e+01     0.273156    0.1909695 -13.06 0.0005872826    1.967    0.492
       207  -9.9498    119.1843     78.5203   3.7736462685e+01   4.3435776595e+01    0.4463183      0.20297 -40.01  0.001723105    2.255    0.557
       208 -10.7489    104.3271     82.1168   4.3020021054e+01   4.5864110048e+01     0.473754    0.2687224 -57.67  0.001796792    2.351    0.575
       209 -10.4682    140.8501     81.8230   3.3220313801e+01   3.7971547352e+01    0.4217871    0.1984768 -45.82  0.001627233    2.210    0.548
       210 -10.1545    158.4019     81.2519   2.9148654771e+01   3.4003167383e+01    0.3491006    0.1879774 -32.97  0.001425889    2.074    0.518
       211 -10.4794     24.3877     80.0759   7.0649178392e+01   5.7958683511e+01    0.3101684    0.2072606 -89.93  0.001475478    2.302    0.566
       212  -9.4611     74.5315     80.0392   5.1955754746e+01   5.1750623599e+01    0.1953375    0.1270297 -71.26 0.0008097862    2.599    0.615
       213 -11.2300    246.6219     84.2167   1.5754745406e+01   1.4255835578e+01    0.2504519    0.1200355 -35.76  0.001169546    2.023    0.506
       214 -10.1941    243.6038     76.1922   1.4460310817e+01   1.6091948146e+01    0.2411965    0.1205713 -29.29  0.001064748    2.543    0.607
       215  -9.8858    150.1802     78.4470   3.0144660058e+01   3.6422507844e+01    0.2911111    0.2105911 -38.79  0.001413606    1.420    0.296
       216 -11.1209    180.4303     77.7844   2.3968932068e+01   2.9463777393e+01    0.2901845     0.193278 -32.85  0.001218063    1.624    0.384
       217  -9.7795    174.7506     76.9909   2.4795399039e+01   3.0920749012e+01    0.1954768    0.1216965 -39.47 0.0008945951    1.611    0.379
       218 -10.2484    239.3499     75.8060   1.4881323875e+01   1.6986155798e+01    0.1824541    0.1121449 -32.93 0.0009439784    1.728    0.421
       219 -10.0953    223.4970     75.9938   1.6913332174e+01   2.0186847780e+01    0.1785183    0.1195976 -13.09 0.0008104798    2.559    0.609
       220  -9.7587    167.5000     76.0195   2.5910406638e+01   3.2784697342e+01    0.2240583    0.1429198 -38.45  0.001004742    1.597    0.374
       221 -10.9271    128.1038     73.0837   3.3790355310e+01   4.2448908899e+01    0.6961086    0.2465681 -37.06  0.002367506    3.021    0.669
       222  -9.1445    211.5185     75.5111   1.8450841272e+01   2.2823840105e+01     0.136359    0.1231988 -66.57 0.0001607711    1.032    0.031
       223  -9.4935    157.4848     74.5411   2.7510192798e+01   3.5392534775e+01    0.2599807     0.146172 -24.91  0.001031071    2.404    0.584
       224 -10.3187    140.5359     73.8386   3.1013732900e+01   3.9475289945e+01     0.361367     0.141015 -40.86  0.001302756    2.601    0.616
       225 -10.2005     10.0290     74.1986   7.4969115953e+01   6.0286363924e+01    0.2011706    0.1487727 -51.88 0.0003128384    1.114    0.102
       226  -9.5848    228.2985     73.3681   1.5718484026e+01   1.9601965692e+01    0.1237962    0.1051559   3.50 0.0007031511    1.732    0.423
       227 -10.4509     82.3564     72.0484   4.6838054110e+01   5.1994389526e+01    0.3378365     0.237231 -68.57  0.001293694    2.204    0.546
       228 -10.4582     27.2410     71.6477   6.7413241105e+01   5.9520438017e+01    0.3456146    0.1613327 -15.95  0.001339254    3.558    0.719
       229 -10.3448    238.5143     71.4838   1.4076159345e+01   1.7819416088e+01    0.1296949    0.1091284 -61.43 0.0008102774    1.010    0.010
       230  -8.7465    195.3036     71.6805   1.9966795400e+01   2.7054110431e+01     0.146309     0.100359 -70.67 0.0003626831    1.629    0.386
       231 -10.6012    105.6829     69.4086   3.8719837904e+01   4.7968976048e+01    0.4637094    0.1806987 -36.34  0.001673345    2.785    0.641
       232 -10.0425     94.8095     69.8422   4.2121026513e+01   5.0081464147e+01    0.4719145      0.20289 -51.23   0.00169959    3.030    0.670
       233 -10.3076     62.5749     70.1947   5.3209106916e+01   5.5591771958e+01    0.3294118    0.1070538 -40.14  0.001148515    3.167    0.684
       234  -8.9681    170.3118     70.3396   2.3873747496e+01   3.3075066901e+01    0.1435466    0.1140115  19.94 0.0007045864    1.694    0.410
       235  -9.7707    163.4799     69.5088   2.4942355798e+01   3.4824022301e+01    0.2546226     0.144973 -23.68  0.001031214    2.413    0.586
       236 -10.2206     51.1560     68.7113   5.7063847179e+01   5.7482634454e+01    0.3879344    0.2171998 -69.32  0.001476049    3.703    0.730
       237  -9.7909      5.3077     70.6594   7.6096230801e+01   6.1325033422e+01    0.1118144   0.08998336  74.74 0.0003446418    1.686    0.407
       238  -9.2871    157.0000     68.9925   2.6081230740e+01   3.6440541501e+01    0.2369049   0.08260613 -37.02 0.0008049291    2.960    0.662
       239 -10.1355    147.0617     66.2765   2.7385773104e+01   3.9230660774e+01    0.4984473    0.2172379 -33.92  0.001902782    2.526    0.604
       240  -9.2293    203.4054     65.7633   1.7340881481e+01   2.6160070011e+01    0.1862946    0.1301778 -27.99 0.0009500073    1.688    0.407
       241 -10.4680    161.4665    249.0045   6.3565348190e+01  -3.6973500982e-01    0.1754574    0.1256877 -43.74  0.001035773    1.606    0.377
       242  -9.8534     37.0475     63.3134   6.1046053364e+01   6.0246565251e+01    0.3226378    0.1709875 -68.30  0.001295728    3.485    0.713
       243 -10.4156     17.8004     62.4678   6.8887995234e+01   6.2206637503e+01    0.3240119    0.1032683 -43.35  0.001377593    2.546    0.607
       244  -9.9848    110.0004     63.0280   3.5471255155e+01   4.8164240597e+01    0.2691118    0.1854191 -51.09  0.001085346    1.676    0.403
       245 -10.6308    233.6480     60.5349   1.2335662776e+01   2.0448099377e+01     0.238462     0.117987 -24.60 0.0009518006    3.380    0.704
       246  -9.5961    246.3196     60.3486   1.0930641741e+01   1.7939481035e+01    0.1122315   0.09923717   8.42 0.0007048639    1.736    0.424
       247  -9.9349    100.3889     59.6270   3.7118182557e+01   5.0746329335e+01    0.2640462    0.1176829 -50.81 0.0008476423    3.149    0.682
       248 -10.2002     73.0697     59.0403   4.5764688417e+01   5.5994493752e+01    0.3633953    0.2107312 -50.21  0.001498479    2.028    0.507
       249 -11.0428    248.7242     73.8325   1.3395962557e+01   1.5467745649e+01    0.2999308    0.0906303 -40.86  0.001195469    2.727    0.633
       250 -10.9478      7.3069     56.4862   7.1857634979e+01   6.4139107164e+01    0.2903697    0.1375683 -68.86  0.001377967    2.637    0.621
       251 -10.1106     82.6431     65.5421   4.4649369222e+01   5.3153857578e+01    0.2777312    0.1653369 -15.39  0.001146082    2.506    0.601
       252 -11.6673     45.4187     49.3579   5.2996448442e+01   6.1848797779e+01    0.3987596    0.2114842 -33.75  0.001361778    1.803    0.445
       253  -9.7751     54.3062     53.9633   5.1017782799e+01   5.9826880347e+01    0.1956693    0.1072853 -63.37 0.0007042264    4.245    0.764
       254  -9.7925     31.0033     51.0270   5.9722106372e+01   6.3237865017e+01    0.1767576    0.1573305  76.93  0.001133686    1.759    0.431
       255  -9.9532      3.9049    249.1762   9.4925783309e+01   2.0855261490e+01    0.1798452    0.1079252  64.83 0.0007915596    1.266    0.210
       256 -10.1002    121.5152     63.8604   3.2661424139e+01   4.5507320411e+01    0.4330888    0.1461827 -35.69  0.001463497    3.221    0.689
       257 -10.0414    113.4775     42.1984   2.7747977001e+01   5.0571353995e+01    0.4324359    0.2471211  -6.17  0.001737381    3.034    0.670
       258  -9.8818    123.7564     40.1992   2.4641036843e+01   4.8519402475e+01    0.3016625    0.1852422  25.53  0.001111952    2.209    0.547
       259  -9.9764     16.3403     43.8833   6.4020000198e+01   6.5909526386e+01    0.2291756    0.1070094 -59.38  0.001097505    2.592    0.614
       260  -9.2733     82.2776     46.6540   3.8287573334e+01   5.6376057892e+01    0.1244479    0.1082682 -74.76  0.000274175    1.632    0.387
       261  -9.3921    130.2251     46.7325   2.5244352137e+01   4.6142081356e+01    0.2068319    0.1178312 -18.93 0.0008290558    2.391    0.582
       262 -11.1314      4.8220     40.1554   6.8343791553e+01   6.7424631914e+01    0.4117556    0.1562041 -63.25  0.001739854    3.622    0.724
       263  -9.8212     92.2472     49.6064   3.6174597290e+01   5.3992495929e+01    0.3912505    0.1427576 -45.82  0.001384871    3.517    0.716
       264  -9.4068    106.3198     37.3250   2.7929576874e+01   5.2790364469e+01    0.1414085   0.09623746  24.32 0.0003403442    1.678    0.404
       265  -8.8080    228.4949     36.5078   7.8365444321e+00   2.4850916753e+01    0.1243962    0.1028362 -72.94 0.0002369466    1.025    0.024
       266  -9.4430     26.3889     36.2285   5.6607437993e+01   6.6312763603e+01    0.1586377    0.1062547 -49.20 0.0008648287    1.669    0.401
       267  -9.6715      6.6585     33.6979   6.5321205260e+01   6.8457875722e+01    0.1235757   0.06648743 -24.64 0.0005845624    1.675    0.403
       268  -9.3957     83.5184     40.0152   3.5478387069e+01   5.7113255690e+01    0.1850479    0.1103757  -4.36 0.0008056441    2.493    0.599
       269  -9.5488     44.2327     25.1856   4.4135412719e+01   6.5782194045e+01    0.1807871    0.1353045   3.22 0.0004840674    1.171    0.146
       270  -9.0183    110.4980     24.4904   2.2487405744e+01   5.3408187144e+01    0.1326911    0.1142345  43.99 -8.89986e-05    1.031    0.030
       271  -8.7894     84.6882     21.3155   2.8072881539e+01   5.9228008527e+01    0.1165234    0.1007104 -80.56 0.0003659598    1.638    0.390
       272 -10.1147     13.0369     21.0120   5.7232122238e+01   7.0030191913e+01    0.2068354    0.1378166  11.21 0.0007411942    1.384    0.277
       273  -9.9768     30.1238    245.1772   8.9912977689e+01   1.8883184404e+01    0.1706284    0.1062644  65.81  0.000605092    1.324    0.245
       274  -9.5781     73.9958    243.9724   8.1127606109e+01   1.3629901499e+01    0.1735601    0.1518414 -23.89 0.0008077262    1.637    0.389
