#   1 NUMBER                 Running object number                                     
#   2 MAG_AUTO               Kron-like elliptical aperture magnitude                    [mag]
#   3 X_IMAGE                Object position along x                                    [pixel]
#   4 Y_IMAGE                Object position along y                                    [pixel]
#   5 X_WORLD                Barycenter position along world x axis                     [deg]
#   6 Y_WORLD                Barycenter position along world y axis                     [deg]
#   7 A_WORLD                Profile RMS along major axis (world units)                 [deg]
#   8 B_WORLD                Profile RMS along minor axis (world units)                 [deg]
#   9 THETA_WORLD            Position angle (CCW/world-x)                               [deg]
#  10 FWHM_WORLD             FWHM assuming a gaussian core                              [deg]
#  11 ELONGATION             A_IMAGE/B_IMAGE                                           
#  12 ELLIPTICITY            1 - B_IMAGE/A_IMAGE                                       
         1  -9.6588     15.9767     18.9772   1.2318876850e+02   7.2221067197e+01    0.6194423    0.2454507 -21.29  0.002125367    4.521    0.779
         2  -8.2768    130.4810     13.4533   7.3817280996e+01   5.0851733871e+01    0.4135474    0.1213767 -26.87  0.001378808    3.156    0.683
         3 -10.1522     50.0556     11.6049   9.8671858337e+01   6.9313686416e+01    0.3879031    0.3128237 -64.51 0.0004320353    1.976    0.494
         4  -9.1473     80.2485     12.5524   8.6376940134e+01   6.3226938714e+01    0.4209926    0.2519059 -51.02  0.001831349    2.392    0.582
         5  -9.2806     76.7190      4.9765   8.3465244071e+01   6.4918260954e+01     0.475805    0.2583942 -37.26  0.002181157    2.010    0.503
         6  -8.5028     28.1625     12.6050   1.1197751676e+02   7.2310495961e+01    0.2156269    0.1292358 -37.89 0.0004770633    1.432    0.302
         7  -8.8469    106.3829     11.0158   7.7950052370e+01   5.7244955376e+01    0.3612146    0.1369642  33.31  0.001091978    3.959    0.747
         8  -8.4471     73.4556      7.1938   8.5872948994e+01   6.5374503956e+01    0.2593438    0.1320456 -20.27 0.0006604402    2.018    0.504
         9  -9.1608     39.7261      6.9676   1.0149825363e+02   7.1722441695e+01    0.2917891    0.2673297  67.46  0.001182963    1.674    0.402
        10  -8.8301     29.6627      8.0589   1.0838600214e+02   7.2956296325e+01    0.3078339    0.1773125  30.19  0.001475467    1.829    0.453
        11  -7.5616    156.0000      7.0186   6.7311815210e+01   4.4802381630e+01    0.2193669   0.07988962 -19.59 0.0005896192    2.834    0.647
        12  -9.9304     14.1528      3.7542   1.1689541383e+02   7.5446085888e+01    0.5186781    0.2203332 -37.54  0.002479401    2.032    0.508
        13  -7.9100     18.4756      2.5324   1.1284270645e+02   7.5248916201e+01    0.1853567   0.09588485 -36.78 9.587778e-05    1.640    0.390
        14  -8.3665     56.5310      5.0833   9.1579428775e+01   6.9090773115e+01     0.295185     0.196812 -55.93   0.00138325    2.522    0.603
        15 -10.2911     60.1608      2.7650   8.8525551035e+01   6.8678125875e+01    0.2998358     0.234889  33.30 0.0002490318    1.195    0.163
        16  -7.1556    179.3112      5.3459   6.4040176986e+01   3.8959043838e+01    0.1439706    0.0966191  34.32 0.0007045785    1.708    0.414
        17  -8.7563    105.9869      3.1357   7.4335751696e+01   5.8125786537e+01    0.3214926    0.1512204 -48.05  0.001219952    2.884    0.653
        18  -7.4105     34.6499      4.7271   1.0312724417e+02   7.2840454870e+01    0.1337438   0.08853664  -1.35 0.0003538293    1.631    0.387
        19  -7.8386      3.4514      3.4606   1.2537395560e+02   7.6307535006e+01    0.1217782   0.09641457 -37.78 6.574779e-05    1.034    0.032
        20  -8.6121     39.5447      1.6655   9.8162252239e+01   7.2563275220e+01    0.4985532     0.159691  38.45  0.001930097    3.194    0.687
        21  -7.7847    116.1570      1.3772   7.1407656281e+01   5.5691418720e+01     0.195692    0.1322863  80.19 0.0009393006    1.637    0.389
        22  -7.6275     87.6939      1.3227   7.8032366241e+01   6.2773071226e+01    0.1357001    0.1066364 -57.17 0.0003110959    1.641    0.391
        23  -7.7952     67.5244      1.5494   8.4795900196e+01   6.7301649167e+01     0.137726    0.1191408  15.52 6.987153e-05    1.005    0.005
        24  -9.1661    215.4502    250.6758   1.1430224805e+02  -4.8366952358e-01    0.4398105    0.1220603  29.04  0.002048028    3.067    0.674
        25  -8.8903    249.2035    250.1818   1.0889926167e+02  -4.2378122313e+00    0.3051621    0.1118381  30.72   0.00184521    2.094    0.522
        26  -8.6402    248.6823    246.6423   1.0848532277e+02  -3.8790813146e+00    0.2100903    0.0933511   8.99  0.001196066    2.415    0.586
        27  -9.6597    226.4979    250.4764   1.1248590066e+02  -1.7429198532e+00    0.3243635    0.1244959  21.56   0.00174342    2.446    0.591
        28  -8.7499    219.7979    244.3716   1.1274602484e+02  -3.8485082297e-01    0.2136936   0.09514698  15.51 0.0009627889    2.390    0.582
        29  -9.3592    202.1470    249.3187   1.1633595696e+02   1.2311787907e+00    0.2916113    0.1339821  22.35  0.001729045    1.832    0.454
        30  -9.1494    206.1681    245.2596   1.1512989242e+02   1.1598292527e+00    0.2034118    0.1222366  -5.63  0.001379952    1.707    0.414
        31  -9.0747    219.4910    248.4536   1.1334737074e+02  -7.4302428469e-01    0.2465273    0.1405655  38.05    0.0015891    1.862    0.463
        32  -9.3113    209.3959    249.5565   1.1515442705e+02   3.3972991644e-01    0.3045565    0.1523498  34.29  0.001983911    1.639    0.390
        33  -8.8154    211.8564    246.3701   1.1432596484e+02   3.6286342740e-01    0.1780308    0.1277943   1.86 0.0007708669    1.204    0.169
        34  -9.4708    190.9526    244.8094   1.1767026215e+02   3.0762366157e+00    0.2258121    0.1100013  18.65  0.001003825    1.980    0.495
        35  -9.6153    192.8225    248.6321   1.1783288103e+02   2.4352053607e+00    0.2945775     0.145184  15.16  0.001195996    2.145    0.534
        36 -10.5399    175.5514    249.9970   1.2099596093e+02   4.4160607114e+00    0.6912504    0.1207959  33.70  0.002506642    4.561    0.781
        37  -9.8485    184.2017    249.5780   1.1943660552e+02   3.3927226921e+00    0.2882301    0.1471021  25.09  0.001047412    1.519    0.342
        38  -8.9461    188.1705    250.4003   1.1885192959e+02   2.8164488526e+00     0.168267    0.1213069  34.12 0.0006635935    1.377    0.274
        39 -10.2761    156.6954    246.0832   1.2390476157e+02   7.2374816440e+00    0.3628047    0.2275817 -17.72  0.001637955    2.121    0.528
        40  -8.9744    148.7040    249.9850   1.2578001094e+02   7.7619613201e+00    0.1465359    0.1164157  24.95 0.0008528642    1.097    0.088
        41  -8.9446    143.1801    249.8496   1.2676632012e+02   8.4661984732e+00    0.2196564    0.1374692  -4.71 0.0004572341    2.350    0.575
        42  -7.6954    139.4534    250.4526   1.2750544714e+02   8.8526991323e+00    0.1089362   0.07977572  28.07 0.0001354919    1.037    0.036
        43  -8.8534    201.1995    240.2767   1.1531041561e+02   2.2910157596e+00    0.1798825    0.1020051  18.37 0.0009814207    1.437    0.304
        44  -9.9657    184.1694    235.0811   1.1760017673e+02   5.0336764494e+00     0.355606    0.1739131 -21.67  0.001922548    2.801    0.643
        45  -9.3190    187.0931    239.3439   1.1764000568e+02   4.1680657509e+00    0.2319101    0.1390434   9.62 0.0006949536    1.644    0.392
        46 -10.4993    188.7425    232.7070   1.1646693110e+02   4.7178228702e+00    0.4184565     0.257327 -37.22  0.002781801    2.012    0.503
        47  -7.5491     78.3344    238.2446   1.3784717228e+02   1.7898894503e+01   0.09706841   0.07427642  14.70  0.000230041    1.550    0.355
        48  -8.4481      3.6833    238.3189   1.5150276554e+02   2.5088011573e+01    0.1057038   0.04498656  54.77 0.0002083484    1.657    0.396
        49  -7.8156    221.0298    237.4791   1.1158734241e+02   1.4902197166e-01    0.1509596   0.06782534  16.60 0.0006527627    2.285    0.562
        50  -7.9990    194.8559    236.8230   1.1594423350e+02   3.4647878129e+00    0.1703814    0.1129354  11.61 0.0005415797    1.259    0.205
        51  -9.6072    160.0434    235.7357   1.2207717421e+02   8.0970545268e+00    0.2930045    0.1687592  16.96  0.001760216    1.748    0.428
        52  -7.3336    209.3148    236.2965   1.1338234370e+02   1.7051982679e+00    0.1124429    0.0645155   9.86 0.0003066105    1.604    0.377
        53  -9.0444    178.2829    235.5065   1.1871276191e+02   5.7464806907e+00    0.2762968    0.1449664  12.81  0.001275329    2.254    0.556
        54  -7.8329    244.2593    235.0126   1.0749953251e+02  -2.3469375215e+00     0.145293   0.09809721   4.05 0.0004312362    1.087    0.080
        55  -7.5815    216.5213    235.4634   1.1205152770e+02   9.0233401180e-01    0.1118468   0.07667612  13.52 0.0001104336    1.042    0.040
        56  -8.0558    167.4469    237.4577   1.2092693580e+02   6.9174546934e+00    0.1133672   0.08327799  21.53 0.0001186823    1.041    0.039
        57  -7.1402    232.6576    234.6707   1.0928946496e+02  -9.6426010151e-01    0.1152275   0.06101076   8.28 0.0007051186    1.745    0.427
        58  -7.7394    204.7995    234.4065   1.1389054716e+02   2.4720712696e+00    0.1540073   0.07786921  23.27 0.0004927252    1.599    0.375
        59  -8.4911    170.8105    233.2190   1.1977735091e+02   7.0011460805e+00    0.1947123    0.1384163 -15.29 0.0006057574    1.568    0.362
        60  -7.3167    130.5815    234.5131   1.2749219231e+02   1.2095206137e+01    0.1121799   0.08724468  29.70 0.0001389691    1.026    0.025
        61  -8.0018    108.4896    233.4791   1.3164799018e+02   1.5044205456e+01    0.1119743   0.08758814  33.70 8.216924e-05    1.046    0.044
        62  -7.7642     99.7115    233.6553   1.3336752629e+02   1.6096206429e+01    0.1017999   0.07986135  -0.50 0.0004552201    1.652    0.395
        63  -7.4980     91.2909    233.3527   1.3497586295e+02   1.7153929583e+01    0.1004025   0.08022319  -3.35 0.0007028038    1.676    0.403
        64  -7.5903    153.5440    232.5312   1.2290211386e+02   9.3658967457e+00    0.1151041   0.08674734  22.97 0.0002778326    1.058    0.055
        65  -7.8851     85.3998    231.8505   1.3599811402e+02   1.8081819435e+01    0.1249476    0.1008225 -48.55 0.0003546375    1.615    0.381
        66  -7.4867    213.5237    231.4590   1.1198564306e+02   1.6922546720e+00    0.1130135   0.07876015  13.71 2.798042e-05    1.034    0.032
        67  -8.1351    241.5051    229.9628   1.0718423780e+02  -1.5533356827e+00    0.1459112   0.08647031 -17.26  0.001019839    1.557    0.358
        68  -7.6727    202.6503    230.1080   1.1365890610e+02   3.2176997158e+00    0.1481136   0.08761133 -15.73   0.00093783    1.802    0.445
        69  -7.4443    115.3661    230.7022   1.3003757297e+02   1.4593834648e+01    0.1171648    0.0702948  52.06 0.0007032006    1.725    0.420
        70  -7.3488    208.3125    229.3627   1.1257379473e+02   2.5759976336e+00    0.1180915   0.06740478   6.28 0.0007040786    1.755    0.430
        71  -7.4760    158.5048    229.4418   1.2158688262e+02   9.1149287799e+00    0.1167678   0.08711985  21.44 4.147736e-05    1.076    0.070
        72  -7.6420     37.6124    229.1821   1.4503619455e+02   2.3615191843e+01    0.1216967   0.09016243 -71.03 0.0004155099    1.605    0.377
        73  -8.3011    151.5753    227.8614   1.2270522810e+02   1.0253067844e+01    0.2414394    0.1258248  20.68  0.001186732    1.996    0.499
        74  -7.4259    138.7231    227.6562   1.2515478118e+02   1.1996774416e+01    0.1104145   0.07896984   2.94 0.0007004277    1.626    0.385
        75  -7.9594    109.4719    227.0336   1.3082875187e+02   1.5895840098e+01    0.1405976   0.08967774 -26.40  0.000808808    2.449    0.592
        76  -8.0016    167.8516    224.9006   1.1924015649e+02   8.4532030749e+00    0.1757437    0.1244098  10.42  0.000517897    1.322    0.244
        77  -8.3266    127.6070    224.5231   1.2697156040e+02   1.3925241231e+01    0.1912667    0.1373147  16.74 0.0005939492    1.394    0.283
        78  -8.8112    249.0027    223.2901   1.0499471632e+02  -1.7939614370e+00    0.1933452    0.1053562  -7.48 0.0007274232    1.637    0.389
        79  -7.5999    212.3103    224.3639   1.1115845133e+02   2.6129589740e+00    0.1193867   0.06804316   5.80 0.0007039506    1.752    0.429
        80  -9.6884      9.6926    222.9515   1.5001877630e+02   2.7136162377e+01    0.2973596   0.09411442  61.67  0.001592776    2.657    0.624
        81  -8.0826    206.8161    222.2230   1.1179095776e+02   3.5650804420e+00    0.1619109    0.1022889  11.30 0.0008020727    1.350    0.259
        82  -7.9772    175.1783    221.2628   1.1737209718e+02   7.9279827107e+00    0.1833206    0.1012248   4.67  0.000667165    2.562    0.610
        83  -8.0390    147.7761    221.4052   1.2263306187e+02   1.1663570194e+01    0.1680127   0.09152512  26.19 0.0007813328    1.611    0.379
        84  -7.3995    242.6337    220.1472   1.0550681493e+02  -7.3124675316e-01    0.1463371   0.07987744 -11.92 0.0007846273    1.678    0.404
        85  -7.1394    124.3197    220.2991   1.2714780380e+02   1.4997974708e+01    0.1131157   0.08197199   6.53 0.0007022148    1.620    0.383
        86  -7.3754    214.5289    239.5042   1.1294940940e+02   7.3205294924e-01    0.1110761   0.07567082  13.92 0.0007812143    1.049    0.046
        87  -7.8810    194.2143    219.0044   1.1355012130e+02   5.6198231848e+00    0.1874057    0.1092993  -1.59   0.00103483    2.001    0.500
        88  -7.7535    140.8523    219.1207   1.2370849737e+02   1.2939862671e+01     0.157589    0.1203076  11.06 0.0007148124    1.312    0.238
        89  -7.3409    225.4751    218.5439   1.0804927620e+02   1.5608091280e+00    0.1158583    0.0802313  10.14 0.0001137639    1.062    0.059
        90  -7.5071     82.6804    218.6769   1.3544067677e+02   2.0542548898e+01    0.1047908   0.08451022  -4.69 0.0004074407    1.673    0.402
        91  -7.9847    171.0028    217.2798   1.1760280933e+02   9.0261122318e+00    0.1680996    0.1233142  23.99 0.0004667481    1.065    0.061
        92  -8.0286    204.6382    215.6646   1.1118661186e+02   4.6133507282e+00    0.1777448    0.1068932   6.06 0.0007113342    1.643    0.391
        93  -7.7982    151.0288    216.4755   1.2135897429e+02   1.1919036355e+01     0.176805   0.09527149  34.06 -4.514075e-05    1.489    0.329
        94  -7.8571    137.0589    215.2201   1.2397883431e+02   1.4041696375e+01    0.2222149    0.1344557 -18.59  0.001164555    2.572    0.611
        95  -7.7280    248.5288    215.4739   1.0384207291e+02  -9.7803106887e-01    0.1135658   0.07557569   6.56 2.799898e-05    1.074    0.069
        96  -7.4804    144.3493    215.2750   1.2252548202e+02   1.3023251930e+01    0.1196058    0.0806459  10.37 0.0003808318    1.634    0.388
        97  -7.4217    119.7720    215.0285   1.2746660742e+02   1.6426843961e+01    0.1270072    0.1000169 -56.12  0.000397704    1.575    0.365
        98  -7.7093    112.2291    212.6059   1.2874610204e+02   1.7823973995e+01    0.1646474   0.09748331  25.57   0.00065192    1.607    0.378
        99  -8.5082    187.0019    210.2865   1.1356824020e+02   7.7071947374e+00    0.3198028    0.1738181   4.44  0.001569106    2.561    0.610
       100  -8.2382    170.1445    210.8235   1.1684504425e+02   1.0022477727e+01    0.1896935    0.1238397   4.11  0.001108859    1.695    0.410
       101  -8.5014    146.6714    209.0053   1.2122822057e+02   1.3632192546e+01    0.2173634    0.1408859 -24.94   0.00111945    1.931    0.482
       102  -7.9135    100.2821    210.5442   1.3101602822e+02   1.9731855878e+01    0.1607288    0.1004037  24.52 0.0009355458    1.579    0.367
       103  -7.8368    107.8929    209.3471   1.2928759685e+02   1.8938280595e+01    0.1725034   0.09709747  24.92 0.0007361411    1.769    0.435
       104  -7.7853     77.8398    209.3412   1.3562778588e+02   2.2726345483e+01     0.157965   0.09591778  25.76 0.0004603303    1.640    0.390
       105  -7.5916    203.7369    208.0017   1.1015579739e+02   5.6569418258e+00    0.1344334   0.09285212 -22.93 0.0005643982    1.482    0.325
       106  -8.2506    163.2067    207.4828   1.1771266151e+02   1.1485570354e+01    0.2228101    0.1355752  -2.08  0.001158122    2.260    0.557
       107  -7.5334    177.2636    207.3218   1.1495770230e+02   9.4853607476e+00    0.1188428   0.07965281   3.51 0.0002423515    1.556    0.357
       108  -8.0741    248.0344    205.9683   1.0237598603e+02   4.1557485758e-02    0.1873283    0.1013284   7.84 0.0009230261    1.710    0.415
       109  -7.2836    213.5594    206.4521   1.0817074302e+02   4.4928253156e+00    0.1189633   0.08808096  10.52 0.0001500191    1.015    0.015
       110 -10.4705    124.0116    205.9991   1.2550478300e+02   1.7302053220e+01     0.172308    0.1423497  32.34            0    1.003    0.003
       111  -7.9772     12.1817    206.4015   1.4899423578e+02   2.9852437213e+01    0.1507951   0.07042106  42.02 0.0009431515    1.640    0.390
       112  -8.0321    140.0528    204.9558   1.2202961292e+02   1.5200808381e+01    0.1927363    0.1320173   8.25 0.0005438079    1.685    0.406
       113  -7.5530     87.9977    204.2090   1.3297745396e+02   2.2396299195e+01    0.1603531    0.0810142  33.94 0.0004854965    1.673    0.402
       114  -8.0922    175.4862    202.0290   1.1449086380e+02   1.0474927876e+01    0.1595621    0.1145799 -27.65 0.0005507012    1.508    0.337
       115  -7.7408     97.8123    202.3573   1.3066482163e+02   2.1468039475e+01    0.1717213    0.1009789  25.22 0.0004563162    1.701    0.412
       116  -8.5785    243.4999    197.7180   1.0170692272e+02   1.4877335733e+00    0.3144247     0.148207 -15.44  0.001698684    2.154    0.536
       117  -7.0747    199.2901    200.3387   1.0972834350e+02   7.2446806486e+00    0.1247593   0.07783214   4.22 0.0002204746    1.642    0.391
       118  -8.6646    250.4937    198.0943   1.0066876178e+02   5.5202723293e-01    0.2423051    0.1072528 -21.59    0.0013411    2.086    0.521
       119  -7.5198    238.4754    198.5426   1.0265592449e+02   2.0533515717e+00    0.1182019   0.08421829   5.93 0.0003489464    1.034    0.033
       120  -8.6702    230.5009    197.9715   1.0387047913e+02   3.1783248211e+00    0.2223209    0.1251288  17.86 0.0007337696    1.566    0.362
       121  -8.1416    151.0738    198.3157   1.1881535333e+02   1.4631488696e+01    0.1802327     0.133758  29.18 0.0004486518    1.122    0.109
       122  -7.6877    162.2566    197.3721   1.1639146883e+02   1.3110275680e+01    0.1240163   0.08582403  -2.27 0.0003248499    1.647    0.393
       123  -7.5308    191.3566    196.3136   1.1054014112e+02   8.9283193771e+00    0.1309891   0.08037488   7.82 0.0007044285    1.741    0.426
       124  -7.7023    224.5752    195.5078   1.0444816969e+02   4.2725635261e+00    0.1216737   0.08821172   6.19 0.0001047403    1.066    0.062
       125  -8.2787    203.0677    194.9741   1.0814733843e+02   7.3907648702e+00    0.2036085    0.1216164   7.65 0.0008572159    1.760    0.432
       126  -7.2987    195.5220    194.4884   1.0945653463e+02   8.5593772745e+00    0.1259619   0.09687275  11.46 3.927665e-06    1.045    0.043
       127  -7.4251    145.3244    194.3160   1.1942053013e+02   1.6122479302e+01    0.1275576   0.08954697   3.65 0.0006255763    1.667    0.400
       128  -8.1714    237.4356    192.2867   1.0174800012e+02   2.8898129742e+00    0.1977974   0.09564915 -22.14 0.0005841341    1.948    0.487
       129  -7.7555    232.5765    190.2062   1.0218314889e+02   3.7899431927e+00    0.1580263   0.09229352 -12.82 0.0006570545    1.587    0.370
       130  -7.4951    162.3463    190.2958   1.1526164726e+02   1.4175847704e+01    0.1312744   0.08780639   7.32 0.0006501769    1.672    0.402
       131  -8.4670    243.4373    187.6172   9.9957954454e+01   2.6090323924e+00    0.2719117    0.1304763 -15.48  0.001236574    2.098    0.523
       132  -7.9399    224.8131    189.4286   1.0335236766e+02   4.9640317789e+00    0.1705799   0.08984377  22.45 0.0009209779    1.748    0.428
       133  -7.8120    199.4348    188.7618   1.0775319403e+02   8.7452282251e+00    0.1665591    0.1036043 -16.08 0.0005219562    1.656    0.396
       134  -7.8405    191.5124    189.4769   1.0936295343e+02   9.8394070622e+00    0.1279591   0.09979109  11.49 0.0001114004    1.048    0.046
       135  -8.0143    173.0365    187.9701   1.1271376993e+02   1.2883460338e+01    0.2009589    0.1337734   5.52 0.0005608412    1.646    0.392
       136  -8.2406    238.0637    185.1793   1.0038880462e+02   3.6174043472e+00    0.2427775    0.1179687  -7.10  0.001158466    2.570    0.611
       137  -7.8655    215.3415    185.7885   1.0435120296e+02   6.7762706199e+00    0.1630628    0.0977486 -18.07 0.0003797752    1.614    0.380
       138  -8.9590    230.4750    184.8556   1.0158297869e+02   4.7137101289e+00    0.2528994    0.1405964  26.88 0.0003820217    1.584    0.369
       139  -7.6335    211.5291    181.9472   1.0434005047e+02   7.8361635056e+00    0.1665013   0.09118336  -6.68  0.000787308    2.246    0.555
       140  -8.6365    249.9305    182.4494   9.8009032693e+01   2.3165096922e+00    0.2313232    0.1320912  -0.28 0.0006046646    1.654    0.395
       141  -8.1861    182.6760    180.2278   1.0946336516e+02   1.2531453189e+01    0.2124886    0.1511022 -15.85 0.0006362648    1.428    0.300
       142  -8.5990    242.2544    177.0728   9.8236457919e+01   3.9777760370e+00    0.3083647    0.1521635 -10.29  0.001542198    2.263    0.558
       143  -7.7481    189.9105    176.1312   1.0731097636e+02   1.1986437081e+01    0.1820346     0.127911  13.15  0.000559358    1.320    0.242
       144  -8.0273    176.9969    176.5116   1.0993406759e+02   1.3998971702e+01    0.1952502    0.1130462  32.96 0.0006471146    1.534    0.348
       145 -10.6190    101.0022    175.9951   1.2671765947e+02   2.5944174194e+01    0.1815119    0.1618305  41.60            0    1.008    0.008
       146  -7.8928    235.3146    179.0301   9.9721949095e+01   4.7244508776e+00    0.1978661   0.08065276 -13.21 0.0007047612    4.316    0.768
       147  -7.9814    231.5107    171.4814   9.8942438851e+01   6.1941489999e+00    0.2156423   0.09995411 -19.27 0.0008666308    2.260    0.558
       148  -7.6441    174.3349    172.2890   1.0971059179e+02   1.5088827600e+01     0.136262   0.09166729   7.40 0.0003423967    1.631    0.387
       149  -9.6738    246.3868    167.1553   9.5718721453e+01   4.5585441278e+00    0.2417604    0.1645676   8.46 0.0002685483    1.246    0.197
       150  -8.1580    237.1240    167.1776   9.7198118128e+01   5.8979264517e+00    0.1971905    0.1320314   5.20 0.0005296949    1.313    0.238
       151  -7.8026    195.3194    153.3218   1.0183572118e+02   1.4495680194e+01    0.1414402    0.0932943   5.09 0.0007044123    1.669    0.401
       152  -7.6771    249.5240    149.9695   9.1860874159e+01   6.1591312200e+00    0.1798722   0.08842671  -7.68 0.0008098075    2.523    0.604
       153  -8.4585    122.1039    147.9544   1.1701997324e+02   2.8298940824e+01    0.2029308     0.192711   8.51 0.0003809491    1.042    0.040
       154  -7.1575     85.6987    147.6437   1.2645141606e+02   3.4032505335e+01    0.1369314    0.1025966 -25.12 0.0007037934    1.709    0.415
       155  -7.9047    247.4960    142.9355   9.0731560241e+01   7.3295040876e+00    0.1921942    0.1032176 -24.96  0.001031931    1.589    0.371
       156  -7.3834    230.3959    140.8387   9.2970857757e+01   1.0329473347e+01    0.1730483    0.1051102 -15.71 0.0003605339    1.534    0.348
       157  -7.7185    235.0000    137.9484   9.1615893005e+01   9.9548762016e+00    0.2076575   0.06382639 -30.89 0.0007965005    2.901    0.655
       158  -8.2089     65.1933    141.9764   1.3124174234e+02   3.8024685343e+01    0.2204191    0.1379904  77.41  0.001058921    1.977    0.494
       159  -8.0645    241.8449    132.6069   8.9411692855e+01   9.5303916359e+00     0.302047    0.1319449 -16.58  0.001150029    2.736    0.635
       160  -7.0729    120.2758    132.6488   1.1445256807e+02   3.1779176410e+01    0.1413615    0.1145949  82.76 0.0007005272    1.640    0.390
       161  -8.5100    231.8062    128.6594   9.0108760918e+01   1.1727742846e+01    0.2789295    0.1716671  -1.70  0.001011482    1.790    0.441
       162  -7.9285    220.6732    128.6398   9.1919423889e+01   1.3672421312e+01    0.1447161   0.09201802   5.08 0.0007042367    1.787    0.440
       163  -7.6845    192.3676    127.3226   9.6727338055e+01   1.9099919358e+01    0.1523263    0.1006629   8.65 8.637425e-06    1.797    0.443
       164  -8.1162    239.9000    123.7288   8.7773274231e+01   1.1005299047e+01    0.3404146    0.1516908 -14.19  0.001334509    3.012    0.668
       165  -8.7183    248.3047    116.5154   8.4959143988e+01   1.0521279347e+01    0.2725664     0.165693  -2.20  0.001423292    1.791    0.442
       166  -8.5013    219.6106    113.2944   8.8568335494e+01   1.6047779505e+01    0.3186752    0.1758252  17.42    0.0011931    2.600    0.615
       167  -8.1759    193.7003    111.3108   9.2636608426e+01   2.1397213202e+01     0.350425    0.1826349  17.63  0.001181929    3.628    0.724
       168  -8.3457      7.3134    112.3447   1.4519401147e+02   5.0348172749e+01    0.1284716   0.07756365 -50.38 0.0007047009    1.710    0.415
       169  -7.2271    240.3116    116.3228   8.6062520954e+01   1.1904233505e+01    0.1348477   0.08811534   5.11 0.0007038795    1.654    0.395
       170  -8.8391    201.3189    108.1870   9.0463670565e+01   2.0354490244e+01     0.290336    0.1228961 -24.94  0.001077611    2.608    0.617
       171  -7.7905    134.4941    106.9720   1.0469859224e+02   3.4410990603e+01     0.222516    0.1284861 -20.28 0.0008096855    2.628    0.619
       172  -7.4693    249.6749    106.6464   8.2567636996e+01   1.1537987560e+01    0.1353323   0.08640459   5.24 0.0007047047    1.764    0.433
       173  -8.1985    241.5083    105.8673   8.3513264751e+01   1.3060394388e+01    0.2698046    0.1573323  -3.19  0.001292673    2.057    0.514
       174  -9.1597      5.0952    106.5108   1.4543592495e+02   5.1874097918e+01    0.1570025    0.1230837  18.30 0.0004962453    1.519    0.342
       175  -8.6228     10.5986    104.7912   1.4348455517e+02   5.1988523055e+01    0.1861082    0.1018093  87.96 0.0009527585    1.713    0.416
       176  -7.5966    212.6880    102.6298   8.7133902448e+01   1.8921177383e+01    0.1489588   0.09931689   6.43 0.0007035282    1.774    0.436
       177  -8.1018    187.8051    100.7759   9.1084604608e+01   2.4303341784e+01    0.2605449    0.1512084  11.21 0.0009652236    2.865    0.651
       178  -7.7714      7.5319     99.4828   1.4401892828e+02   5.3453785146e+01    0.1253359     0.104432 -78.20 2.645615e-05    1.027    0.026
       179  -8.0073    248.6088     96.2358   8.0337173126e+01   1.3035753914e+01    0.1862642    0.1054719 -17.50 0.0008423121    1.645    0.392
       180  -8.1334     22.8203     91.8202   1.3770301709e+02   5.4396954180e+01    0.1899829    0.1580802 -54.07 0.0003894331    1.152    0.132
       181  -9.3174      4.5761     95.2069   1.4464299675e+02   5.4647698402e+01    0.1855423   0.09169379 -66.40 0.0005175539    1.658    0.397
       182  -7.6658    242.3258     91.3650   8.0022689354e+01   1.4787275397e+01    0.1385542   0.09070549   7.29 0.0007038488    1.798    0.444
       183  -9.4244      2.9528     80.8405   1.4382076705e+02   5.8243749002e+01    0.2242752    0.1525406 -75.53 0.0005774876    1.205    0.170
       184  -7.5897    167.3568     76.3363   8.8343543754e+01   3.2844620636e+01    0.1631648    0.1133377  15.40 0.0002384475    1.805    0.446
       185  -8.3033    184.1887     77.5488   8.5445924487e+01   2.8780551581e+01    0.2704386    0.1971636 -29.19 0.0006693701    1.292    0.226
       186  -7.5865     36.3398     67.6997   1.2776451474e+02   5.9247734523e+01    0.1348331    0.1008884  67.39 0.0004981842    1.667    0.400
       187  -8.2466      1.3585     59.2043   1.4182199520e+02   6.3609833779e+01    0.1745275    0.1009058 -85.72 0.0002747709    1.611    0.379
       188  -7.7389     66.5175     58.4157   1.1216305399e+02   5.7601983323e+01     0.144085    0.1319374 -25.01 9.265442e-05    1.018    0.017
       189  -9.2094     33.1071     57.5517   1.2663493950e+02   6.2003527688e+01    0.2404857    0.1808536 -52.78 0.0003030704    1.143    0.125
       190  -8.3077    245.0215     57.0000   7.1441988885e+01   1.8504603360e+01    0.1896042   0.07459548  63.07 0.0008112364    3.004    0.667
       191  -8.6626     94.8982     52.7022   9.9417234922e+01   5.3581461291e+01    0.2691464    0.2053368 -46.19 0.0005137912    1.365    0.267
       192  -8.8748      6.0384     52.6033   1.3854149004e+02   6.5033356276e+01    0.2877215    0.1263145  65.02  0.001094704    3.883    0.742
       193  -8.4897     44.1069     51.9357   1.1980097470e+02   6.2157883845e+01    0.2085921    0.1831847 -40.21 0.0003848182    1.010    0.010
       194  -7.7769     19.3546     51.6815   1.3176175207e+02   6.4521472360e+01    0.1298319   0.09445275  65.58 -5.444806e-05    1.749    0.428
       195  -8.7007     95.4849     45.6902   9.6470676654e+01   5.4759347812e+01    0.2704603     0.231194  33.00 0.0007694537    1.164    0.141
       196  -8.8461      2.9009     44.6609   1.3864703324e+02   6.7070653107e+01    0.2362753    0.1327841 -57.49 0.0008953879    1.385    0.278
       197  -7.4159    116.2628     43.7219   8.9361749284e+01   5.0402549955e+01     0.141495    0.1185288 -65.20 0.0001663925    1.476    0.323
       198  -8.3811      9.8481     43.1031   1.3462250876e+02   6.7136696260e+01     0.189144    0.1637636 -87.20 0.0007320922    1.261    0.207
       199  -7.8217     77.2921     39.9925   1.0068574293e+02   5.9491403333e+01    0.2025376    0.1703334 -26.51 0.0002532108    1.116    0.104
       200  -8.5252     21.1292     40.1163   1.2768925008e+02   6.7123707251e+01    0.1899201    0.1617709 -47.15 0.0003446061    1.030    0.029
       201  -9.3932     52.0218     38.5117   1.1105494998e+02   6.4054691206e+01    0.2471724     0.180184 -39.65 0.0002747317    1.236    0.191
       202  -7.1969     41.6369     39.7474   1.1668442466e+02   6.5178316829e+01    0.1392297    0.0951224 -17.73 0.0002750752    1.620    0.383
       203  -7.6508     14.9719     39.0000   1.3076163607e+02   6.7811324465e+01     0.180121   0.07323447  15.52 0.0004003904    2.834    0.647
       204  -7.6525     73.6445     37.3177   1.0097523630e+02   6.0678514139e+01    0.1400492    0.1183267 -84.42  0.000548218    1.749    0.428
       205  -8.1282      8.3568     37.1157   1.3398062548e+02   6.8623804064e+01    0.1722022    0.1062257 -77.53 0.0001942949    1.635    0.388
       206  -7.3955     92.2671     36.6894   9.3797029594e+01   5.7015673209e+01    0.1395747    0.1167878 -63.52 0.0002101259    1.541    0.351
       207  -8.7823    140.0013     33.3308   7.9676485361e+01   4.6057182192e+01    0.2591814    0.2086146 -10.26 0.0003327115    1.292    0.226
       208  -7.2067    124.6994     34.6695   8.3614774257e+01   4.9726450825e+01    0.1581707    0.1111479  20.70   0.00070323    1.647    0.393
       209  -8.3280     94.9402     33.8216   9.1658668678e+01   5.6899080791e+01     0.223498    0.1817815  14.58 0.0003115193    1.257    0.204
       210  -9.2401     14.8634     34.0755   1.2937434962e+02   6.8957402856e+01    0.2669891    0.2174687 -45.57  0.001414236    1.012    0.011
       211  -8.6396      3.2782     34.3449   1.3622023317e+02   6.9497455445e+01    0.2406927    0.1870785   6.36  0.000255687    1.501    0.334
       212  -8.9652      3.2944     31.6325   1.3554338694e+02   7.0128546797e+01    0.5003089    0.1744856  45.80  0.001762296    5.210    0.808
       213  -9.0410      3.1452     23.9917   1.3353831589e+02   7.1886858338e+01    0.3352893     0.211257  71.94  0.001672855    2.361    0.576
       214  -9.1955      9.2401     32.3657   1.3218274049e+02   6.9682468367e+01    0.4272343     0.167698 -77.91 0.0008936625    3.481    0.713
       215  -7.9885      9.5676     27.4709   1.3050433102e+02   7.0782638400e+01    0.2113054    0.1247107 -25.94 7.496552e-05    1.695    0.410
       216  -8.8871      6.4874     27.5231   1.3245205761e+02   7.0932289387e+01    0.2105964    0.1415403 -41.16   0.00020222    1.248    0.199
       217  -9.1957     21.7730     31.9758   1.2463563502e+02   6.8924358143e+01    0.1992378    0.1451892 -34.93            0    1.204    0.170
       218  -9.3556     20.6209     28.7136   1.2412657739e+02   6.9742520421e+01    0.4751946     0.109436 -45.28  0.001659952    3.375    0.704
       219  -9.2182     91.5425     25.1190   8.8824097297e+01   5.8990572235e+01    0.2581658    0.2251254  45.95  0.000378877    1.180    0.152
       220  -7.6866    156.3091     24.3374   7.3413631204e+01   4.2966425912e+01    0.1549883    0.1051776  28.76 0.0007043509    1.682    0.406
       221  -8.5159     64.4702     22.2143   9.7666640368e+01   6.5036829458e+01     0.271696    0.1294934 -31.55  0.001142434    2.062    0.515
       222  -7.7099    137.2510     21.9872   7.5910687647e+01   4.8166286196e+01    0.1777501    0.1245947 -22.88 0.0002561952    1.447    0.309
       223  -9.3387     84.6320     21.5475   8.9437747822e+01   6.1041200144e+01    0.2480423    0.2344446 -28.32 0.0005612556    1.174    0.149
       224  -8.9418     19.3698     20.5732   1.2163467920e+02   7.1605053581e+01    0.3229273    0.1549038 -42.16  0.001589443    1.732    0.423
       225  -8.2494     89.5179    249.5023   1.3658399755e+02   1.4960871136e+01    0.1058308   0.07906915  39.44 -5.844641e-06    1.019    0.019
       226  -7.5313    250.6015     19.7247   6.1984413769e+01   2.1401450071e+01    0.1179428   0.08627384  30.99 0.0006987337    1.750    0.429
       227  -8.1569    233.3971     18.8297   6.3028841539e+01   2.5027321982e+01    0.1733996    0.1130262 -10.13 0.0003731267    1.676    0.403
       228  -7.8681    161.4302     18.7559   7.0677474847e+01   4.2252358150e+01    0.1938359    0.1364771  -0.22 0.0007355809    1.628    0.386
       229  -7.9184     27.9674     17.9261   1.1488560008e+02   7.1304746790e+01    0.1567984    0.1302362 -23.43            0    1.025    0.024
       230  -7.5441    151.6994     17.7218   7.1785887210e+01   4.4884150203e+01    0.1477988     0.102897  34.32 0.0002313906    1.541    0.351
       231  -7.9329     95.7344     17.6369   8.3966322312e+01   5.9047853437e+01    0.1519627    0.1034796  16.57 0.0006988606    1.645    0.392
       232  -9.1154     74.8074     16.4114   9.0398642137e+01   6.3877718718e+01    0.2606986    0.2246244 -66.49 0.0006098238    1.607    0.378
       233  -9.3705      4.2638    248.4297   1.5163439880e+02   2.3466299099e+01    0.1711011   0.07429542  62.68  0.001196417    1.780    0.438
       234  -9.1015    237.6180    247.1774   1.1027333096e+02  -2.7024998161e+00    0.1338608   0.07504786  -9.07 0.0004610079    1.645    0.392
       235  -8.3625    146.1717     14.2125   7.1375028088e+01   4.6686152195e+01    0.2067166    0.1824143  38.17 0.0003490049    1.122    0.109
       236  -8.7757    224.1736    246.7956   1.1236337016e+02  -1.1309650850e+00    0.1523125   0.09055808   7.72  0.001073822    1.383    0.277
       237  -9.4205    171.4589    245.8169   1.2122099833e+02   5.4051364732e+00    0.2316489     0.144379  -2.45  0.000997748    1.927    0.481
       238  -9.8310    164.5716    246.1942   1.2249706135e+02   6.2294213586e+00    0.2315412    0.1485219  31.32 0.0004127287    1.174    0.148
       239  -7.6708     44.3164     12.2677   1.0210215037e+02   7.0145732950e+01    0.1343616   0.09299991  -0.61 -0.000275831    1.553    0.356
       240  -8.3374     99.6708    246.5042   1.3447297334e+02   1.4212894723e+01    0.2056942     0.100337 -61.46   0.00126991    2.691    0.628
       241  -7.8593    151.0488     12.6845   7.0052712704e+01   4.5564661226e+01    0.1959037    0.1764973  64.82 0.0003248451    1.080    0.074
       242  -7.5152     62.5624    247.4953   1.4138467337e+02   1.8207805577e+01    0.1014322   0.07773929  43.85 0.0001961625    1.060    0.056
       243  -7.8493     14.4609    247.4616   1.4988897694e+02   2.2774852791e+01   0.09652872    0.0678029  52.61 5.985988e-05    1.009    0.009
       244  -9.6057    150.5384    244.8093   1.2488280668e+02   8.1742444796e+00    0.2351554    0.1466389 -15.13  0.001318264    2.262    0.558
       245  -7.9470    136.4267    245.8251   1.2758494029e+02   9.8229769236e+00    0.1247966   0.09695534 -18.41 0.0005429799    1.607    0.378
       246  -7.6302    104.4898    245.9801   1.3353204764e+02   1.3716591541e+01    0.1275088   0.08464582 -24.69 0.0007851538    2.422    0.587
       247  -9.1680      8.8134    246.6372   1.5082708595e+02   2.3371883065e+01    0.1420417   0.05586548  40.95 0.0004536257    1.700    0.412
       248  -9.5657    176.9038    243.8033   1.2000814121e+02   4.9507979402e+00     0.280709     0.161344  14.56  0.001706475    1.693    0.409
       249  -7.3786    124.6630    245.6935   1.2974998667e+02   1.1304667125e+01    0.1061925   0.07324144   9.97 0.0007041225    1.675    0.403
       250  -7.7962    113.8089    248.3721   1.3201089814e+02   1.2266797786e+01    0.1542279   0.08105524  26.15 0.0005115765    1.711    0.416
       251  -9.5526    245.3512    242.9643   1.0847794206e+02  -3.1906353396e+00    0.2115907   0.09706246  28.84  0.001250057    1.681    0.405
       252  -8.1235    146.6219    242.6215   1.2536022215e+02   8.9494964743e+00    0.1575328    0.1068587  11.23 0.0008138376    1.532    0.347
       253  -9.7130    169.0214    241.4772   1.2113425966e+02   6.2268555879e+00    0.2916453    0.1582417  20.00  0.001277345    1.700    0.412
       254  -8.9150    171.5254    238.4949   1.2031417089e+02   6.2632969393e+00    0.1774711    0.1470772  16.51 0.0009985301    1.163    0.140
       255  -7.5853     71.7218    242.6543   1.3939716167e+02   1.7958395610e+01   0.09102631    0.0773798  -4.42 0.0007007482    1.633    0.387
       256  -7.5430    210.6492    241.6680   1.1389535196e+02   9.8311239605e-01    0.1155757   0.06312288   9.32 0.0007047392    1.776    0.437
