#   1 NUMBER                 Running object number                                     
#   2 MAG_AUTO               Kron-like elliptical aperture magnitude                    [mag]
#   3 X_IMAGE                Object position along x                                    [pixel]
#   4 Y_IMAGE                Object position along y                                    [pixel]
#   5 X_WORLD                Barycenter position along world x axis                     [deg]
#   6 Y_WORLD                Barycenter position along world y axis                     [deg]
#   7 A_WORLD                Profile RMS along major axis (world units)                 [deg]
#   8 B_WORLD                Profile RMS along minor axis (world units)                 [deg]
#   9 THETA_WORLD            Position angle (CCW/world-x)                               [deg]
#  10 FWHM_WORLD             FWHM assuming a gaussian core                              [deg]
#  11 ELONGATION             A_IMAGE/B_IMAGE                                           
#  12 ELLIPTICITY            1 - B_IMAGE/A_IMAGE                                       
         1 -15.9488      9.9587     91.7233   7.8743472280e+01   5.7121731851e+01     3.031659    0.9700471 -61.18     0.012205    2.392    0.582
         2 -16.9531    222.0226     61.6085   1.0314453598e+01   2.2113716081e+01     3.821187     2.850536   6.63   0.01685434    2.055    0.513
         3 -16.1439    242.4939     52.8890   6.2878181020e+00   1.9197709314e+01     3.230057     1.291599 -25.32   0.01317885    3.189    0.686
         4 -15.0660    187.2335     49.9429   1.1680353364e+01   3.1526811700e+01     1.529099    0.8424298 -51.54  0.005323446    1.787    0.440
         5 -15.0657    138.3540     11.4659   6.9555099742e+00   4.8494915061e+01     1.387908    0.9258945 -89.70  0.007107276    1.498    0.332
         6 -15.9214    120.5901     17.8229   1.2223722916e+01   5.2437404802e+01     1.893224     1.131027 -28.63  0.009157772    1.824    0.452
         7 -15.0759    131.8886     19.7805   1.0871392623e+01   4.9311203161e+01     0.767805    0.5826251 -43.54  0.004101891    1.390    0.281
         8 -12.7177     89.1387     42.7071   3.0361325347e+01   5.6822004358e+01     0.459613    0.3208165   5.76  0.002087682    1.969    0.492
         9 -13.5779      5.1737    151.8207   8.6127598608e+01   4.2136760187e+01     0.705893    0.5015173 -63.62  0.004178768    1.402    0.287
        10 -14.0662    246.5864    101.4046   1.6256830461e+01   1.1684622642e+01    0.8643425    0.4554108 -14.65  0.003575226    3.313    0.698
        11 -14.3078    109.7298     89.6556   4.0114308190e+01   4.3174084602e+01      1.05492    0.8472439 -53.81  0.004071442    1.295    0.228
        12 -13.2688    117.0936     87.1432   3.7193102751e+01   4.2072159165e+01    0.6361822    0.3609505 -48.08  0.002572968    1.822    0.451
        13 -13.8407    100.0128     91.3790   4.3656089077e+01   4.4865548410e+01     0.982693    0.6267036 -68.66  0.003683205    2.222    0.550
        14 -15.5808    119.8860     70.0830   3.1056503234e+01   4.4823485514e+01     1.682293     1.249876  40.34  0.007947583    1.376    0.273
        15 -14.7304    102.6379     76.2124   3.8134229912e+01   4.7577544687e+01     1.341629    0.5612475  44.54  0.004761517    2.351    0.575
        16 -16.2294    104.4571     68.2978   3.4938148628e+01   4.8759337090e+01     2.878176     1.153424  48.76   0.01009181    2.442    0.591
        17 -15.6850     63.7321     69.7876   5.0217018985e+01   5.6576075214e+01     1.485018     1.316703  35.28  0.008178597    1.152    0.132
        18 -16.1576     51.9245    206.4771   7.7995084114e+01   2.4701484346e+01     3.757586    0.7171549  45.06    0.0124626    3.903    0.744
        19 -14.2345    175.4260     50.6634   1.3561725674e+01   3.4273362169e+01     1.293801    0.7660568 -54.57  0.005953494    1.748    0.428
        20 -14.3677    134.8837     52.3343   2.1482367033e+01   4.4195102522e+01    0.7223504    0.3996584  56.26  0.003083245    1.710    0.415
        21 -15.8343     29.0670     86.2464   6.9679666132e+01   5.7083145900e+01     1.600862     1.465714 -31.58  0.009673798    1.102    0.093
        22 -15.1637    110.5703     47.0595   2.5590023272e+01   5.1082815150e+01     1.100761    0.7364751 -71.58   0.00467377    2.220    0.550
        23 -13.2382    148.8725    107.5511   3.4641181138e+01   3.0621242106e+01     0.520528    0.2247031 -50.14  0.001794001    2.590    0.614
        24 -16.0603    245.4826    154.8280   2.7261975672e+01   4.0066661060e+00     2.898801    0.8445172 -38.11   0.01177258    2.928    0.658
