#   1 NUMBER                 Running object number                                     
#   2 MAG_AUTO               Kron-like elliptical aperture magnitude                    [mag]
#   3 X_IMAGE                Object position along x                                    [pixel]
#   4 Y_IMAGE                Object position along y                                    [pixel]
#   5 X_WORLD                Barycenter position along world x axis                     [deg]
#   6 Y_WORLD                Barycenter position along world y axis                     [deg]
#   7 A_WORLD                Profile RMS along major axis (world units)                 [deg]
#   8 B_WORLD                Profile RMS along minor axis (world units)                 [deg]
#   9 THETA_WORLD            Position angle (CCW/world-x)                               [deg]
#  10 FWHM_WORLD             FWHM assuming a gaussian core                              [deg]
#  11 ELONGATION             A_IMAGE/B_IMAGE                                           
#  12 ELLIPTICITY            1 - B_IMAGE/A_IMAGE                                       
         1 -13.2835    212.8394     44.9861   3.8026014624e+01   2.7134931687e+01     1.225034    0.6415148 -56.94  0.006083115    1.862    0.463
         2 -13.9986    226.7095     33.4520   3.4121827179e+01   2.5718364425e+01     1.341139    0.9431559  45.01  0.007953396    2.021    0.505
         3 -12.1619      2.4122     22.0106   9.0803979030e+01   7.1324113834e+01     0.690797    0.1700344 -51.57  0.002800877    3.782    0.736
         4 -12.1647      3.7163     10.7542   8.5052783804e+01   7.2990347473e+01    0.7473894    0.3372848  -0.65  0.003682972    2.788    0.641
         5 -11.8326    249.9268     10.7713   2.7919539233e+01   2.3826300993e+01     0.482798    0.1956429 -37.03  0.002384285    2.282    0.562
         6 -11.7327      3.6888      4.0322   8.1719483187e+01   7.3943950549e+01    0.5220915    0.3130728   3.57  0.003466276    1.437    0.304
         7 -14.1289     96.4948    225.9986   1.0180722941e+02   1.3391890448e+01     5.833669    0.8170564  42.89  0.007391153    5.945    0.832
         8 -14.5460     56.9508    245.8978   1.1247918848e+02   1.4657062888e+01     7.452831     1.878233  26.77   0.01792639    9.460    0.894
         9 -10.1143    194.6667    198.0076   7.5152418022e+01   3.2025934066e+00    0.4239353    0.2231771 -61.36  0.001421642    4.441    0.775
        10  -9.4809     23.6035    223.8878   1.1769033549e+02   2.3140276595e+01    0.3854199    0.1557405  71.93  0.001629788    2.957    0.662
        11 -11.7801     47.5928    178.5285   1.0780541397e+02   3.1208945296e+01    0.4226879    0.2919041 -33.12  0.001343322    1.905    0.475
        12 -11.6986     54.6160    172.5029   1.0515382190e+02   3.1883017722e+01    0.3263894    0.2680905 -37.84 0.0008731272    1.400    0.286
        13  -9.3172    101.3115    171.6490   9.2339793240e+01   2.5244115183e+01    0.1590109    0.1164738  74.48 0.0005965777    1.721    0.419
        14  -8.8315    110.5471    167.4983   8.9084594173e+01   2.4685339240e+01    0.1523339     0.147328  82.36 8.633464e-05    1.053    0.050
        15 -12.2153     56.5984    130.6706   9.7721133484e+01   4.2431989977e+01    0.9903824    0.4698238 -75.45  0.003472807    2.973    0.664
        16 -12.4332     52.9216    116.9725   9.6147964024e+01   4.6376581010e+01      1.60414    0.4369346 -65.47  0.002733761    5.591    0.821
        17 -12.9715     67.9002    144.0873   9.6762673208e+01   3.7457300190e+01     1.051269    0.6589851  63.54  0.002737084    2.112    0.527
        18 -12.8223      6.8161    227.4160   1.2131317750e+02   2.4034886801e+01      1.47256    0.6638944  81.30  0.007626157    2.102    0.524
        19 -10.2354     91.4952    143.0173   8.9483654541e+01   3.4092209869e+01    0.3437348    0.3158838 -15.77 0.0008414261    1.169    0.144
        20  -9.7766     95.1115    139.8102   8.7727300636e+01   3.4286980787e+01    0.3429892    0.2259757 -32.68 0.0008945829    1.780    0.438
        21  -8.8961    134.0052    142.9991   7.7609385558e+01   2.6195632997e+01    0.2525404    0.2005384  83.53  0.001135263    1.671    0.402
        22 -12.0162     78.9680    141.0073   9.2809356046e+01   3.6621027409e+01    0.3408996    0.2752114 -46.14 0.0004473908    1.204    0.169
        23 -11.1245     66.7304    162.7885   1.0035762134e+02   3.2787429652e+01    0.2874324    0.2595572 -40.74 0.0004451193    1.187    0.157
        24 -10.8744     68.1198    129.6112   9.3823233647e+01   4.1148824288e+01    0.3524873    0.2306053  75.69  0.001448004    2.322    0.569
        25 -10.6067    105.7293    131.1297   8.2625321011e+01   3.4537574992e+01    0.4061215    0.3400256   0.28 0.0009732785    1.389    0.280
        26 -13.1076     52.4323    158.9042   1.0381097022e+02   3.5639844616e+01    0.5806531    0.3598413 -36.08  0.002351526    1.994    0.498
        27 -14.0438     12.7700    206.0434   1.1875953295e+02   2.8205142399e+01    0.9837794    0.7117731  22.33  0.006123904    1.724    0.420
        28  -9.7515    239.6707    127.3149   5.2473053392e+01   8.5883315815e+00    0.1332318   0.09648304 -64.97 0.0005369897    1.677    0.404
        29  -9.9554     92.0989    127.4314   8.5825245811e+01   3.7900733240e+01    0.3198944    0.2430966 -11.02 0.0009178099    1.664    0.399
        30  -9.2194    113.2356    125.0937   7.8984282359e+01   3.4562225227e+01    0.3214357    0.2060062   7.79  0.001163358    2.655    0.623
        31  -9.6015    103.8378    119.6625   8.0370923299e+01   3.7664427982e+01    0.2367132    0.2041739 -33.91 0.0003862743    1.156    0.135
        32  -9.8229    240.3313    119.6537   5.0772166689e+01   9.8016482203e+00    0.1375647   0.09403649 -64.34 0.0007049784    1.761    0.432
        33 -10.3042    241.5087    133.5100   5.3487599506e+01   7.1955074679e+00    0.1347055    0.1121238 -37.74 0.0001648987    1.003    0.003
        34 -10.4337     23.5718    116.9920   1.0612163710e+02   4.9367478073e+01    0.2325745    0.1794053  44.85 0.0005319014    1.501    0.334
        35 -11.5861    244.0109    112.3422   4.8729278504e+01   1.0402641617e+01    0.4501629    0.1171041 -45.42  0.001542216    3.355    0.702
        36  -9.6208    204.8407    110.7213   5.4379917927e+01   1.8180725497e+01    0.3903246    0.2137991  36.32  0.001621266    2.478    0.597
        37 -15.2825     30.9634    188.0290   1.1306479931e+02   3.0690245494e+01     9.750956     3.587433  84.94   0.02749994    5.760    0.826
        38 -12.6893     75.1818    156.0318   9.6795732835e+01   3.3326358363e+01     1.331572     0.783231  62.23  0.001574692    2.288    0.563
        39 -10.7966    163.2691     84.2674   5.5536182852e+01   3.2238264477e+01     0.372419    0.2456693  26.65  0.001573651    2.197    0.545
        40  -8.9434    184.5088     77.4592   4.9786260222e+01   2.8535776976e+01    0.1399952    0.1348202 -69.00 0.0001398746    1.063    0.059
        41 -10.7445     13.3349     60.4573   9.8033275542e+01   6.3322411788e+01    0.2899818    0.1813684 -42.51 0.0005392885    1.280    0.219
        42 -12.6011    206.8726     50.2357   3.9917130553e+01   2.7708484543e+01     0.882119    0.5311525 -62.78  0.004355493    1.688    0.408
        43 -14.3607     23.4405    197.9640   1.1575150848e+02   2.9063789931e+01     2.682053     1.575199  66.13  0.008779109    1.634    0.388
        44  -9.0625     21.9264    242.6673   1.1924094323e+02   1.9350903281e+01     0.155881    0.1384339  30.89 0.0006194442    1.436    0.304
        45  -8.8044     92.0928     52.8036   6.3747486989e+01   5.3630567767e+01    0.1903019    0.1827181  59.88 0.0003296017    1.211    0.174
        46 -10.5872      1.8428     51.1528   1.0088914316e+02   6.5947517220e+01    0.3116001   0.05489855 -58.05  0.001113789    3.786    0.736
        47  -8.5170     94.5652     46.5142   6.0743608219e+01   5.4085204332e+01    0.1374497    0.1263492  24.16 0.0001350607    1.027    0.026
        48 -11.6410     10.3387     42.6551   9.4087623097e+01   6.7089217165e+01    0.4102545    0.2211679  39.88  0.001410065    2.714    0.632
        49 -10.4325    120.5599     28.6503   4.7840620006e+01   5.0629484736e+01    0.4258183    0.2681145 -76.38  0.001735534    2.553    0.608
        50 -13.3718      2.7062    245.4912   1.2300434295e+02   2.0699044890e+01     16.50752    0.2720565 -77.77   0.01779788   57.964    0.983
        51 -10.0047     12.7466    240.0364   1.2085506624e+02   2.0826961271e+01    0.1968079    0.1593212  35.80 0.0007529121    1.427    0.299
        52  -9.6232     24.6327    232.1205   1.1803845594e+02   2.1258946213e+01    0.5274144   0.09578744  50.50   0.00175597    4.721    0.788
        53 -10.3413    189.5519     15.4546   3.3733776856e+01   3.5882814495e+01    0.2204767    0.1864682 -81.88 0.0007085687    1.026    0.026
