#   1 NUMBER                 Running object number                                     
#   2 MAG_AUTO               Kron-like elliptical aperture magnitude                    [mag]
#   3 X_IMAGE                Object position along x                                    [pixel]
#   4 Y_IMAGE                Object position along y                                    [pixel]
#   5 X_WORLD                Barycenter position along world x axis                     [deg]
#   6 Y_WORLD                Barycenter position along world y axis                     [deg]
#   7 A_WORLD                Profile RMS along major axis (world units)                 [deg]
#   8 B_WORLD                Profile RMS along minor axis (world units)                 [deg]
#   9 THETA_WORLD            Position angle (CCW/world-x)                               [deg]
#  10 FWHM_WORLD             FWHM assuming a gaussian core                              [deg]
#  11 ELONGATION             A_IMAGE/B_IMAGE                                           
#  12 ELLIPTICITY            1 - B_IMAGE/A_IMAGE                                       
         1 -10.9732      3.9828     20.7243   1.2013500486e+02   6.9185437455e+01    0.4063553    0.1621418 -31.28  0.002292739    2.125    0.529
         2 -11.4107      9.3148     24.2958   1.1903513982e+02   6.8276528515e+01    0.4579715    0.2533982 -43.46  0.003043507    1.463    0.317
         3 -11.2875     54.3246     23.3814   1.0024325890e+02   6.3744552618e+01     0.463401    0.1923375  36.04  0.001986363    2.367    0.577
         4 -10.8604     35.2106     21.4422   1.0691174617e+02   6.6381617741e+01    0.3151162    0.1640749 -34.08  0.001072145    1.661    0.398
         5 -11.7913     25.6076     20.2929   1.1046606648e+02   6.7533256504e+01    0.4394847    0.2436685  -4.29  0.002334227    1.998    0.500
         6 -10.5484     19.5676     16.7693   1.1168292300e+02   6.8591601362e+01    0.3698434    0.1732511 -27.38  0.001426242    1.878    0.468
         7 -12.3732     26.2090     13.5387   1.0746078921e+02   6.8404686668e+01    0.2701979    0.1814346   8.35 0.0003925457    1.340    0.254
         8 -11.7624    130.9928     14.2167   7.5210881734e+01   5.0250949029e+01    0.4635422    0.2607518  34.31  0.001597456    1.900    0.474
         9 -10.7411     75.5369     17.0713   9.0409193073e+01   6.1220633427e+01    0.2948536    0.1759758   8.21  0.001237323    1.923    0.480
        10  -9.4802    175.5840     12.2003   6.7141342608e+01   3.9783116753e+01    0.1571104    0.1308125   1.42 0.0003899119    1.538    0.350
        11 -11.1272    119.9244     11.5616   7.6622822995e+01   5.2991540291e+01    0.2777886    0.2044036  22.29 0.0002894619    1.402    0.287
        12 -10.8465     75.1036      5.3499   8.5793935085e+01   6.2493896821e+01    0.6677839    0.2050536 -27.15  0.002905064    3.270    0.694
        13 -11.2148     78.5326      9.6631   8.6511862443e+01   6.1475623308e+01    0.3674937    0.2086131  43.06  0.002094622    1.551    0.355
        14 -11.6683     81.3976      6.0144   8.4198440305e+01   6.1306187154e+01    0.2382517    0.1905851  15.29 0.0001940193    1.080    0.074
        15 -10.0296     62.4367     11.5026   9.2462016451e+01   6.3976314161e+01    0.1702762    0.1436006  69.43   0.00018535    2.061    0.515
        16  -9.5766     59.3224      9.7072   9.2786761146e+01   6.4650059429e+01     0.160922   0.08568716  39.34 0.0005428414    1.739    0.425
        17  -9.6904      2.9847      9.7239   1.1644997431e+02   7.0882998317e+01    0.1384692    0.1104698 -80.48 0.0008789088    3.361    0.702
        18  -9.8350     23.4540      9.3663   1.0688997323e+02   6.9224556714e+01      0.15732   0.08939949  22.98 0.0005859896    1.713    0.416
        19 -10.7254    129.0915      7.3812   7.3344725391e+01   5.1318219473e+01    0.3272705    0.1889664  77.69 0.0007985715    2.129    0.530
        20  -9.5616     37.0794      8.5203   1.0072271242e+02   6.7828109200e+01    0.1498038   0.09295825  23.75 0.0003762213    1.475    0.322
        21 -10.4430      9.7169      6.9492   1.1212058086e+02   7.0770188539e+01    0.2602405    0.1315979 -27.19  0.001039862    1.573    0.364
        22  -9.9169     14.2350      5.5796   1.0941818858e+02   7.0572211305e+01     0.140858   0.08148935   7.19  0.000356209    1.634    0.388
        23  -9.1412    182.7254      7.6638   6.4992956637e+01   3.8491621627e+01    0.1281774   0.09163328  40.66 0.0002408516    1.605    0.377
        24  -9.3142     66.9768      5.2237   8.8297036423e+01   6.3888839746e+01    0.1444175   0.08416802  42.71 0.0003710974    1.568    0.362
        25  -9.4953     59.1016      5.3132   9.0981316179e+01   6.5138479375e+01    0.2312079   0.08146403  39.22  0.001096493    2.509    0.601
        26 -10.2370    135.9912      4.0100   7.0974046904e+01   5.0027613760e+01    0.2064529    0.1277207  36.98 0.0004169081    1.619    0.382
        27  -9.3658    120.4863      4.5012   7.4092857286e+01   5.3493862895e+01    0.1268322    0.1086347  47.94 0.0008103324    1.031    0.030
        28 -10.7870     91.8466      3.9814   8.0525645644e+01   5.9512920964e+01    0.1932609    0.1472832  38.63 0.0003368576    1.100    0.091
        29 -11.6757     26.9138      3.3236   1.0269391339e+02   6.9603613453e+01    0.3435054    0.2052648  35.04   0.00180518    1.907    0.476
        30 -10.6472     31.0400      2.5189   1.0055138490e+02   6.9232570056e+01    0.2402615    0.1803831  41.51  0.001295411    1.963    0.491
        31 -10.0125     18.7260      3.9233   1.0661819283e+02   7.0369143894e+01    0.1444515    0.1021048 -15.46 0.0002961238    1.073    0.068
        32 -10.5270    129.5763      3.4075   7.1951539871e+01   5.1547687267e+01    0.2344653    0.1462446 -84.49  0.001130098    2.410    0.585
        33  -9.7947     99.3170      3.6194   7.8503393900e+01   5.8058583121e+01    0.3260764   0.09557153  54.87  0.001323601    2.801    0.643
        34 -10.3603     88.1191    227.1405   1.3577454979e+02   1.6349482624e+01    0.1798704    0.1661198  64.99  0.001214985    1.275    0.216
        35 -11.1314    247.0918    250.0970   1.0892592391e+02  -1.3876316423e+01    0.3604248    0.2020687  22.60  0.002096571    1.632    0.387
        36 -11.3798    250.5075    244.4543   1.0738624512e+02  -1.3690858727e+01    0.5441435    0.2184787 -38.93  0.001544017    2.860    0.650
        37  -9.3986    168.6282    250.6944   1.2336603873e+02  -1.3407887093e+00    0.1270154   0.08946654  18.20 0.0007032593    1.760    0.432
        38 -10.1037    127.9103    249.6568   1.3085504941e+02   5.7452395146e+00    0.1850817     0.171363 -57.85  0.001098876    1.367    0.269
        39  -9.8825     72.6841    250.1801   1.4085963821e+02   1.4250225636e+01    0.1704814    0.1517762  16.87   0.00118282    1.906    0.475
        40 -11.8178     34.8061    241.3165   1.4657726647e+02   2.0866912969e+01    0.4683124    0.2513504  45.39   0.00296991    1.737    0.424
        41 -12.5932     19.3882    247.9427   1.4946312211e+02   2.1408901501e+01     0.781035    0.2087773  55.79  0.003796254    2.943    0.660
        42 -11.7979     27.8061    246.0349   1.4802351546e+02   2.0807693574e+01     0.509493    0.1839888 -77.27  0.002722045    2.510    0.602
        43 -10.4091     31.8140    237.2980   1.4679639100e+02   2.1983636439e+01    0.2725439    0.1437099  82.78 0.0009885827    1.637    0.389
        44 -10.5554     29.0381    232.9999   1.4696404728e+02   2.3131783301e+01    0.5231872     0.114381  44.71  0.002342713    3.345    0.701
        45 -10.7509     10.9691    250.3607   1.5088312252e+02   2.1882552479e+01     0.258258    0.1249894  42.76  0.001691049    2.033    0.508
        46 -10.4409     66.4440    226.4110   1.3979768044e+02   1.9678796854e+01    0.2558006    0.1594649  49.53  0.001115799    1.433    0.302
        47  -9.5773      6.6621    227.3017   1.5028978255e+02   2.6630351523e+01    0.1155602   0.05595103  68.68 0.0005018595    1.666    0.400
        48 -10.6158    180.9542    224.1679   1.1694054860e+02   7.4692558175e-01    0.2173113    0.1924177 -33.33 0.0006153167    1.279    0.218
        49 -10.3027     81.5083    224.5649   1.3676146709e+02   1.7867645893e+01    0.2433425     0.169188  86.71  0.000984831    1.352    0.260
        50 -10.7882     13.0593    222.1679   1.4892571393e+02   2.6986033572e+01    0.1831573    0.1351618 -88.54 0.0004045145    1.173    0.147
        51 -11.3100    141.4068    221.4051   1.2444832628e+02   8.4721477938e+00    0.3217551    0.2471692  13.41  0.001374271    1.847    0.459
        52 -10.9504    123.3737    221.5322   1.2811736463e+02   1.1653580345e+01    0.2672691    0.2261299  59.11 0.0009245864    1.020    0.020
        53  -9.3376     51.5047    222.5536   1.4219975224e+02   2.2464675181e+01    0.1198757   0.09312448  77.28 0.0001007988    1.032    0.031
        54 -10.0068    174.1263    219.8821   1.1759202356e+02   2.7354161772e+00    0.2051557     0.173421  59.25 0.0005871145    1.231    0.187
        55  -9.8085    165.6974    220.6620   1.1941548160e+02   4.1564718656e+00    0.1330535    0.1040409   6.93 0.0006970197    1.668    0.401
        56  -9.6686    250.2913    219.0512   1.0294573512e+02  -1.0362602344e+01    0.1732031    0.1400035  -7.45 0.0006589624    1.104    0.094
        57 -10.7123    192.5338    216.5456   1.1335108949e+02  -9.1110246179e-02    0.3931542    0.2627918  12.42  0.001915866    1.988    0.497
        58  -9.5337     50.3355    218.2988   1.4203438232e+02   2.3482459994e+01    0.1035504   0.09191038 -51.28 0.0007032931    1.654    0.395
        59 -10.8629     10.0403    217.0435   1.4910825904e+02   2.8306371718e+01    0.2705713    0.1516666  65.64 0.0009317874    1.446    0.309
        60  -9.3956     37.5504    217.4745   1.4431095322e+02   2.5226904798e+01    0.1175972   0.08939574  81.19 0.0001268162    1.031    0.030
        61 -10.2669     24.5673    216.8987   1.4658722714e+02   2.6821987856e+01    0.2392451    0.1062476  56.93  0.001335799    1.953    0.488
        62 -10.1087    234.7839    216.6153   1.0528985273e+02  -7.5284387446e+00    0.1772208    0.1126621  46.53 0.0008688343    1.717    0.418
        63 -10.5697    201.3950    215.9724   1.1150666765e+02  -1.6143123261e+00    0.2301721    0.1696359  23.87  0.001270341    1.334    0.250
        64  -9.9129     30.8263    215.8065   1.4539093673e+02   2.6347556712e+01    0.1718898    0.1046247  73.41  0.001082208    1.355    0.262
        65  -9.2540    179.6690    215.7075   1.1577424288e+02   2.4363108072e+00    0.1368033    0.1022494  12.95 0.0006572641    1.630    0.387
        66  -9.5680    137.1824    215.6283   1.2444690095e+02   1.0344017707e+01    0.1972478    0.1192521  35.19 0.0009438962    1.728    0.421
        67 -10.2890    208.9618    212.1630   1.0934584906e+02  -2.3623613610e+00    0.2122777    0.1900768 -15.17 0.0004892626    1.150    0.130
        68  -9.7147    170.4016    213.1649   1.1721971199e+02   4.6284627085e+00    0.1775249    0.1333443 -62.36 0.0007629285    1.619    0.382
        69  -9.5990    142.8274    213.3896   1.2293691458e+02   9.7455823906e+00    0.1909084    0.1212848  35.26 0.0004661941    1.615    0.381
        70 -10.9235     20.7070    211.6405   1.4688485878e+02   2.8306632931e+01    0.2978579    0.1536881  72.74 0.0009092456    1.708    0.414
        71  -9.6489    212.8722    211.8970   1.0854152231e+02  -3.0226035695e+00    0.1676503    0.1589449  64.96 0.0005048445    1.317    0.241
        72 -12.0131      4.5492    207.3495   1.4942851438e+02   3.0784228301e+01    0.4257638    0.2402832  84.99  0.002808161    1.363    0.266
        73  -9.3115    150.3039    205.3136   1.2006915616e+02   9.9259951401e+00     0.134924    0.1111302   4.72 0.0003902455    1.617    0.382
        74 -10.6698    206.1080    201.3295   1.0788622070e+02  -2.7114434134e-02    0.2623707    0.1541376 -25.87 0.0009070107    2.080    0.519
        75  -9.2653    238.5229    201.4432   1.0174686677e+02  -5.8703704992e+00    0.1334026     0.112738   5.38 0.0001244017    1.058    0.054
        76  -9.5174    223.4960    201.5285   1.0456036301e+02  -3.2523942469e+00    0.1316996    0.1228325  17.45 0.0001332196    1.109    0.099
        77 -10.3043    210.6470    201.3294   1.0699558170e+02  -8.7370598745e-01    0.2049031    0.1713554  84.58  0.001112015    1.751    0.429
        78  -9.1918     34.6639    200.7414   1.4341599100e+02   2.9059359415e+01    0.1019365   0.08792187 -54.57 0.0002605788    1.576    0.365
        79 -10.0571    227.0408    196.9998   1.0301315146e+02  -3.1520933950e+00    0.2084388    0.1826654   5.71 0.0006421572    1.040    0.038
        80  -9.3412     56.6493    197.7009   1.3875982135e+02   2.7031664436e+01    0.1136863   0.09632604 -41.82 0.0006767271    1.690    0.408
        81  -9.7524    202.9188    195.8856   1.0747559155e+02   1.5251454271e+00    0.2134649    0.1794792   8.97 0.0006695121    1.228    0.186
        82 -11.2414    215.4081    194.2296   1.0469473418e+02  -5.5384616642e-01     0.348913    0.1885656 -39.88  0.001607485    1.910    0.476
        83 -11.1327    192.1303    194.4441   1.0937501654e+02   3.8738354021e+00     0.319383    0.2291086  53.71  0.001612145    1.478    0.324
        84 -11.1236    232.5725    191.3189   1.0085903838e+02  -3.2173276876e+00    0.3241301    0.2018873  23.43  0.001581826    1.795    0.443
        85 -10.0702    163.0000    191.5122   1.1493060902e+02   1.0204454782e+01    0.3117214    0.0837127 -47.80 0.0009418441    3.992    0.750
        86 -11.4942    187.4421    189.3306   1.0934892760e+02   5.7522984861e+00    0.4271612    0.1412525 -41.99   0.00144812    3.247    0.692
        87  -9.6410    250.4703    190.0149   9.7363966540e+01  -6.1251671428e+00     0.195754    0.1192267 -34.55 0.0005228645    1.560    0.359
        88  -9.4061    205.5871    190.2260   1.0583654664e+02   2.0173414164e+00    0.1876718    0.1318647 -26.37 0.0005251897    1.556    0.357
        89 -10.7361    225.6230    188.9818   1.0169527930e+02  -1.5633004364e+00    0.3198836    0.1751843  11.05  0.001086123    3.966    0.748
        90  -9.3147    179.3010    189.3597   1.1105479305e+02   7.3734260054e+00    0.1478205    0.1133229   0.39 0.0001855967    1.717    0.418
        91 -11.9080     16.4179    183.6584   1.4547094016e+02   3.4642624208e+01    0.4422221    0.2032607 -87.25  0.002320635    1.968    0.492
        92 -11.1847    248.4113    182.7815   9.6276433318e+01  -4.6315389970e+00    0.4560544    0.2287151  18.83  0.001631041    3.825    0.739
        93  -9.4414      8.6564    184.3018   1.4703577760e+02   3.5217646360e+01    0.1205466   0.06559739  70.77 0.0005121219    1.680    0.405
        94  -9.9547    142.3458    183.3159   1.1794617572e+02   1.5995719995e+01    0.1457858    0.1184895   1.25 0.0007048039    1.719    0.418
        95  -9.8871    236.4920    182.4821   9.8357249273e+01  -2.4660533662e+00    0.1364655    0.1230023  -2.67 0.0008103674    1.004    0.004
        96 -10.6646      2.3499    180.3569   1.4794340778e+02   3.6603570826e+01    0.2662123    0.1382802  68.42  0.001336453    1.796    0.443
        97 -10.6435    167.8956    184.1043   1.1247044369e+02   1.0714490328e+01    0.4545492    0.2804496  72.56  0.001736884    2.785    0.641
        98 -11.2777    244.6356    177.9287   9.5956197859e+01  -3.1791128376e+00    0.3068951    0.1591593 -25.38  0.001338306    2.178    0.541
        99 -11.3100    224.2553    178.3235   9.9785696486e+01   5.2611108091e-01    0.2865055    0.2610252  14.97 0.0005005207    1.046    0.044
       100  -9.4827     36.0668    178.5069   1.4096436218e+02   3.3770923127e+01    0.1578379    0.1141639  46.95 0.0006061491    1.476    0.323
       101 -10.7427    200.2603    176.5897   1.0414624495e+02   5.5836860896e+00    0.2466003    0.1788467 -15.23 0.0008883066    1.698    0.411
       102  -9.7280    241.6939    173.6508   9.5598164383e+01  -1.9364447387e+00    0.1431739    0.1009486  -0.82 0.0003651529    1.704    0.413
       103  -9.6804    183.3366    173.3132   1.0698609919e+02   9.7082327281e+00    0.1528731    0.1173263   6.33 0.0006509448    1.690    0.408
       104  -9.4865     61.6427    184.8119   1.3621795000e+02   2.9233389892e+01    0.1915277    0.1071312 -79.63 0.0009515752    1.745    0.427
       105  -9.7173    193.3442    172.3304   1.0467852409e+02   7.8208139629e+00    0.1548724     0.115705   5.50 0.0007050648    1.753    0.430
       106  -9.5919     59.6153    171.7631   1.3499292772e+02   3.2481052158e+01    0.1891678    0.1100925 -78.99 0.0009453828    1.657    0.397
       107  -9.7705     74.6594    171.4234   1.3149526259e+02   3.0484471943e+01    0.1598046    0.1329954  32.99  0.000921581    1.450    0.310
       108  -9.4294     70.2030    177.5977   1.3339074898e+02   2.9697706742e+01    0.1553331    0.1294589  31.18  0.000440052    1.499    0.333
       109  -9.8172      4.5858    167.7351   1.4648265659e+02   3.9143029112e+01    0.2273689   0.08110927 -70.77   0.00113888    2.090    0.521
       110  -9.5676    209.9991    166.4777   1.0005434013e+02   5.5040256128e+00    0.2144393    0.1412396  42.33 0.0004699881    1.513    0.339
       111  -9.2631     21.6513    166.6848   1.4280507319e+02   3.7889597872e+01    0.1165635   0.07973091 -49.21 0.0007047327    1.725    0.420
       112 -10.6330     52.5422    163.4075   1.3549546730e+02   3.5310118394e+01    0.5086024    0.2559029 -34.90  0.001840025    4.556    0.780
       113 -10.7432     40.9426    165.1799   1.3838147772e+02   3.6254530433e+01    0.1976141    0.1421184  78.14 0.0005767929    1.307    0.235
       114  -8.9809    229.4983    164.5302   9.5896997177e+01   1.9501471260e+00    0.1424948    0.1306957  -6.66 0.0001001756    1.035    0.034
       115 -10.3769      9.9244    165.1639   1.4514866514e+02   3.9268624723e+01    0.1745076    0.1220742  83.35 0.0003457608    1.202    0.168
       116 -10.6472     36.3584    161.3867   1.3895995034e+02   3.7621963770e+01    0.4445492    0.1203863 -64.14  0.001760979    2.849    0.649
       117 -10.4923    246.5091    162.4784   9.2404728049e+01  -9.3243810511e-01    0.1821062    0.1349754  55.18 7.083945e-05    1.621    0.383
       118 -10.9801    247.9575    158.9423   9.1403927427e+01  -5.9873953789e-01    0.3214316    0.2604036 -22.72  0.001683761    1.157    0.135
       119  -9.8458    238.5821    158.2165   9.2889390496e+01   1.3022173746e+00    0.2041826    0.1263572 -26.26 0.0009457839    1.702    0.413
       120 -10.0444     48.7096    158.7626   1.3576269920e+02   3.6848847294e+01    0.1938082   0.08631279  46.67 0.0008881754    2.354    0.575
       121 -10.1344      7.8838    158.3689   1.4494571206e+02   4.0935422176e+01    0.1263265    0.1126555  -5.63 0.0007874429    1.670    0.401
       122 -10.8578     22.1174    155.9337   1.4155511565e+02   4.0266539792e+01    0.3437657    0.2338897  52.72  0.002181068    1.561    0.359
       123  -9.2942     23.7070    152.6588   1.4082015187e+02   4.0863901959e+01    0.1782413    0.1395828 -48.81 0.0006673369    1.458    0.314
       124  -9.1026    235.6613    154.6885   9.2647697718e+01   2.4951842662e+00    0.1463433    0.1081289   4.24 0.0007045479    1.691    0.409
       125  -9.6230    217.4431    154.7147   9.6035430078e+01   6.1794028662e+00    0.2681084    0.1298545  45.97  0.001074202    2.108    0.526
       126  -9.9938    205.4650    152.5188   9.7894301708e+01   9.1292805940e+00    0.2746569    0.1414077 -30.09  0.001031806    2.352    0.575
       127 -10.0230    197.4884    153.5222   9.9737427149e+01   1.0650773744e+01    0.1494018    0.1464586   1.63  0.000369678    1.008    0.008
       128  -9.2911    151.6705    153.3346   1.0978455636e+02   2.0650445529e+01     0.161675    0.1216903  86.13 0.0007052046    1.725    0.420
       129 -10.2605     12.1049    153.0052   1.4348779516e+02   4.1788006342e+01    0.2765282    0.1422695  32.54  0.001590742    2.318    0.569
       130 -10.3695    178.2038    151.4476   1.0336093671e+02   1.5291846879e+01    0.3367186    0.2717481  74.64  0.001612398    1.465    0.317
       131  -9.4761     46.1553    151.1342   1.3531528492e+02   3.8920007680e+01    0.1758867    0.1317292  77.18 0.0003864177    1.333    0.250
       132  -9.3843     92.7453    148.0107   1.2315395995e+02   3.3193875156e+01    0.1905778    0.1168431 -58.86 0.0008782157    1.534    0.348
       133  -9.2522    233.6243    146.7994   9.1280479702e+01   4.3185360313e+00    0.2047805    0.1265635 -46.19 0.0009408799    1.612    0.380
       134 -10.2215    207.0172    145.9778   9.6106502103e+01   1.0068913975e+01    0.2264747    0.2231441  14.23 0.0006892022    1.025    0.024
       135 -11.1176      7.9680    145.2206   1.4360663353e+02   4.3848899457e+01    0.2281628    0.1630706  41.17  0.001553752    1.657    0.397
       136  -9.5095    215.6662    145.6854   9.4354895265e+01   8.2620816219e+00     0.152734    0.1164347   5.97  0.000446195    1.687    0.407
       137 -10.6537      3.7038    142.6410   1.4431229690e+02   4.4732560999e+01    0.3181867     0.122429 -53.88  0.001604973    2.352    0.575
       138 -11.6907      3.5479    136.4123   1.4368739371e+02   4.6123239535e+01    0.5457294     0.181376 -53.13  0.001941329    2.652    0.623
       139 -11.9170      9.0774    136.7812   1.4241591202e+02   4.5650323153e+01    0.2146479    0.1679318 -68.78 0.0002498758    1.102    0.093
       140  -9.7800     37.5112    142.3026   1.3618466963e+02   4.1906103205e+01    0.1959054     0.116177  31.77  0.001068441    2.010    0.503
       141 -10.1227    212.4568    141.5830   9.4037131013e+01   9.7388764338e+00    0.3962746    0.2259503  28.73  0.001520388    2.495    0.599
       142 -10.4359    236.3789    138.7637   8.9005907801e+01   5.2124239587e+00     0.252234    0.2178706 -74.65 0.0005751963    1.375    0.273
       143 -10.9875     57.7616    138.7424   1.3048401030e+02   4.0448880588e+01    0.2493761    0.1983134  81.40 0.0004901346    1.300    0.231
       144  -9.0925     16.6774    139.6842   1.4093637690e+02   4.4412241844e+01    0.1203907    0.0753214 -48.39 0.0003024462    1.663    0.399
       145  -9.7686     40.8260    135.7684   1.3438246143e+02   4.3079235658e+01    0.1815072    0.1564274 -54.31 0.0008809514    1.190    0.160
       146 -10.4100     21.7071    136.1142   1.3926095501e+02   4.4804919989e+01    0.1955033    0.1532186  61.35 0.0009802185    1.394    0.283
       147  -9.9414    138.3499    135.2702   1.0889884064e+02   2.7527389617e+01    0.2857445    0.1908045  33.34 0.0007497722    1.707    0.414
       148  -9.5069     79.7159    133.3338   1.2369444292e+02   3.8718046845e+01    0.1429047    0.1050513  85.36 0.0003515765    1.619    0.382
       149 -12.2031     36.5724    130.7595   1.3471353768e+02   4.4671127949e+01     0.391283    0.2945772 -72.92  0.002008062    1.122    0.109
       150 -10.3971    124.5792    130.5299   1.1124980006e+02   3.1449334703e+01    0.3162146    0.2270184   5.45  0.001142327    2.254    0.556
       151  -9.5170     29.1523    130.7693   1.3664190591e+02   4.5372088687e+01    0.1651709    0.1203968 -50.84 0.0003607214    1.327    0.246
       152 -10.2747    249.4822    129.9586   8.4853112489e+01   4.1368708343e+00    0.2088041    0.1980375  55.61  0.001251283    1.170    0.145
       153  -9.8350     73.9307    129.4795   1.2448705223e+02   4.0472850679e+01     0.219867    0.1712575 -59.45 0.0006002928    1.152    0.132
       154  -9.4342    242.9984    128.4576   8.5575082503e+01   5.7087895166e+00    0.1946699    0.1423168  52.22 0.0004989404    1.496    0.332
       155  -9.5288     60.0776    128.5322   1.2806382772e+02   4.2556256560e+01    0.1747093    0.1334861  38.63 0.0004042754    1.475    0.322
       156 -10.3296    219.5582    124.5514   8.8743140017e+01   1.1429320033e+01    0.2551038    0.2399006 -45.81 0.0005506665    1.016    0.016
       157  -9.6068     16.5144    125.5651   1.3916574825e+02   4.7610894261e+01    0.1204557   0.09495872 -71.78 0.0001031357    1.013    0.013
       158 -11.5852     10.6914    122.3350   1.4023264392e+02   4.8760865621e+01    0.3826528    0.2674808 -22.72  0.002280832    1.935    0.483
       159 -11.2063     17.7944    116.7686   1.3757624518e+02   4.9487525525e+01    0.3957903    0.2170492 -53.05  0.002272503    1.529    0.346
       160  -9.7992     20.0056    112.5185   1.3632043157e+02   5.0268597491e+01      0.14584     0.122628  18.71 0.0003839349    1.513    0.339
       161 -12.2677     16.8154    108.5500   1.3658202516e+02   5.1388038874e+01    0.3487451    0.3136646 -79.05 0.0005353942    1.168    0.144
       162  -9.5346     56.3010    121.6352   1.2780305829e+02   4.4627505707e+01    0.1368965   0.09723935  83.71 0.0007034792    1.730    0.422
       163  -9.4080     20.5396    121.5487   1.3754742401e+02   4.8201379427e+01     0.122331   0.09652677 -67.32 0.0001159324    1.013    0.013
       164  -9.5671    221.5480    119.9862   8.7309840970e+01   1.1844060613e+01    0.2329796    0.1410364 -38.67 0.0008005146    1.581    0.367
       165  -9.7774     54.9400    117.5092   1.2738630927e+02   4.5742940500e+01    0.1790515    0.1347006  28.30 0.0007782837    1.565    0.361
       166  -9.9585    179.2009    116.2612   9.4715188078e+01   2.2385037359e+01    0.2278389     0.214881  23.32 0.0006679866    1.142    0.124
       167  -8.9923     96.2730    115.6899   1.1529949756e+02   4.0154741583e+01     0.142799    0.1130331 -89.00  0.000144913    1.550    0.355
       168 -10.8047     66.8080    113.0218   1.2306608079e+02   4.5276918403e+01    0.2113837    0.1991282  39.32 0.0002556963    1.193    0.162
       169 -11.3482     35.9636    110.8806   1.3153994204e+02   4.9272647797e+01    0.5255855    0.2469245 -60.87  0.001684096    1.727    0.421
       170  -9.4258      5.3038    113.4296   1.4045061088e+02   5.1087041624e+01    0.1423738    0.1015192  47.03  0.000951031    1.710    0.415
       171  -9.7343     42.5030    110.4591   1.2957765910e+02   4.8724606412e+01    0.1291706    0.1083111 -58.52 0.0001608659    1.006    0.006
       172  -9.4491    167.4912    108.9735   9.5414843326e+01   2.6641865406e+01    0.2363082    0.1549339 -41.91 0.0005708551    1.526    0.345
       173  -9.5118    117.2918    108.6079   1.0775302833e+02   3.7831067048e+01    0.2574189    0.1787465 -27.53 0.0006327649    1.732    0.423
       174 -10.2432    242.1740    108.3783   8.1165522071e+01   9.4421870820e+00    0.1928973     0.136508  71.17 0.0005704129    1.678    0.404
       175 -12.1191     61.9780    107.1605   1.2319216946e+02   4.7237827943e+01    0.2830369    0.2117273 -50.45 0.0003824021    1.174    0.148
       176 -11.2740     23.4538    107.2048   1.3447735383e+02   5.1181962882e+01    0.2532115      0.19291 -76.25 0.0007994915    1.226    0.184
       177  -9.3621    133.3175    107.3556   1.0320652548e+02   3.4772274145e+01    0.1599908    0.1240582  -3.30 0.0007045613    1.749    0.428
       178 -10.3071     76.3480    107.1935   1.1897131568e+02   4.5261069562e+01    0.2017957    0.1227281 -62.01 0.0003856367    1.687    0.407
       179 -10.1385      6.4524    106.4667   1.3915598200e+02   5.2539162227e+01    0.2357424    0.1429142 -60.24 0.0007789761    1.249    0.199
       180 -10.6195      2.8471    105.1527   1.3996387770e+02   5.3039487133e+01     0.177431    0.1555035 -44.56 0.0004285901    1.255    0.203
       181  -9.8148    223.3235    103.9776   8.3198371091e+01   1.4396151413e+01    0.2128613    0.1795733 -46.85 0.0005383717    1.118    0.105
       182 -11.4099     70.4905    102.4529   1.1957827593e+02   4.7157696572e+01    0.3809805    0.2693045  10.01  0.001199401    1.863    0.463
       183 -10.7914    247.8562    102.1630   7.8894657072e+01   9.3161655149e+00    0.2207279    0.1824677 -64.68   0.00075061    1.211    0.174
       184  -9.3365     10.0353    102.2457   1.3750450863e+02   5.3233230499e+01    0.1587552    0.1329918 -56.77  0.001147738    1.109    0.099
       185  -9.7581    120.0611    101.1827   1.0503543170e+02   3.8874968859e+01    0.2463323    0.1761174  11.42 0.0008738971    2.004    0.501
       186 -10.0474     91.6161    101.1963   1.1302324501e+02   4.4185375337e+01    0.2049219    0.1248552 -40.31 0.0003560173    1.615    0.381
       187 -10.0511     36.2576    101.3864   1.2964717054e+02   5.1365967236e+01    0.2445859    0.1473527  36.43   0.00136268    1.958    0.489
       188 -10.5946     27.6327    100.9070   1.3213241148e+02   5.2234301300e+01    0.1808509    0.1709815  53.27 0.0006427096    1.285    0.222
       189 -10.8876      3.5156    100.7276   1.3912809558e+02   5.3956878334e+01       0.2243     0.196762  63.77 0.0009923641    1.391    0.281
       190 -11.6144     50.4973     99.3232   1.2490194167e+02   5.0359584379e+01    0.2278853    0.2002936 -53.46 0.0002932717    1.038    0.036
       191 -11.0684     61.9954     98.4848   1.2120010450e+02   4.9167461807e+01    0.4086154    0.2376301  40.08  0.002047008    1.949    0.487
       192 -10.7602     38.7446     96.2003   1.2782852497e+02   5.2269520622e+01    0.2058925    0.1839905 -40.71 0.0003106083    1.110    0.099
       193 -11.2415     20.7928     94.7128   1.3303157353e+02   5.4123723770e+01    0.4512003    0.1041742 -59.30  0.001484459    2.950    0.661
       194 -10.1506     92.5579     95.9654   1.1137138892e+02   4.5156483542e+01    0.2265743    0.1325505 -46.35   0.00102691    1.601    0.376
       195  -9.9737      3.5329     85.8722   1.3672211517e+02   5.7111098428e+01     0.229741    0.1618809   7.31  0.001587802    1.815    0.449
       196 -10.8809      8.3234     94.8960   1.3680994409e+02   5.4926051140e+01    0.2656176    0.1680595 -43.18 0.0003305692    1.442    0.307
       197 -10.9812     10.7206     91.0499   1.3542882422e+02   5.5599073186e+01    0.2808476    0.1733285  13.91  0.001284901    2.084    0.520
       198 -10.5058      7.0059     88.7613   1.3615930462e+02   5.6308758741e+01    0.1726338    0.1304184 -61.69 0.0002868382    1.056    0.053
       199 -10.1546      1.5138     93.9601   1.3866601696e+02   5.5515167839e+01    0.2261564   0.07672314 -61.95  0.001121093    2.030    0.507
       200 -10.1212    227.0790     93.1299   7.9991983495e+01   1.5473388164e+01    0.2180879    0.2007414 -66.57 0.0004310879    1.021    0.020
       201  -9.9991    109.0419     92.6572   1.0571990403e+02   4.2853368734e+01    0.3365174    0.1823552 -59.36  0.001292378    2.462    0.594
       202 -10.2532     57.6094     93.1879   1.2128521025e+02   5.0869004967e+01    0.1958167    0.1042896 -45.72 0.0006846861    1.647    0.393
       203 -10.8215     96.2740     90.3770   1.0875227330e+02   4.5689031390e+01    0.3765968    0.2187234  -8.67  0.001176277    4.501    0.778
       204  -9.1636     70.2412     91.6092   1.1696005457e+02   4.9555518280e+01    0.1329816    0.1025845 -77.56 0.0005394476    1.658    0.397
       205  -9.3866     73.1569     88.6466   1.1527727596e+02   4.9768919144e+01     0.167291     0.127455  17.42 0.0002156978    1.495    0.331
       206 -10.0360     49.3138     88.0141   1.2265320997e+02   5.2942361959e+01    0.2290759    0.1557087 -61.77 0.0003992161    1.442    0.306
       207 -10.7303     46.3284     82.8324   1.2234721479e+02   5.4358212315e+01    0.4898714    0.2258985 -57.11  0.002305927    1.987    0.497
       208 -10.6146    113.0153     86.6547   1.0289856238e+02   4.3295385498e+01    0.3080983    0.1841554  51.43  0.001038954    1.832    0.454
       209 -11.0396     67.3055     85.0250   1.1614645399e+02   5.1348956373e+01    0.2146653    0.1797101  -9.40 0.0005880585    1.267    0.211
       210 -11.0733    118.1986     83.0374   1.0041445803e+02   4.2956750011e+01    0.3580981    0.2775354  -5.94  0.001339732    1.584    0.369
       211 -11.4560     23.7331     79.8407   1.2907547326e+02   5.7052329677e+01    0.3677534    0.2513863 -79.67  0.001757484    1.804    0.446
       212 -11.5997     19.7273     81.7866   1.3080498080e+02   5.6946417862e+01     0.299636    0.2244462  89.89 0.0008124532    1.705    0.414
       213 -10.7818     15.7209     81.6588   1.3207672718e+02   5.7252147623e+01    0.3315905    0.1260605 -46.27  0.001646681    2.089    0.521
       214 -11.1670     85.2141     80.9819   1.0940568344e+02   4.9487763425e+01    0.3309708    0.2206198 -37.79 0.0009229842    1.419    0.295
       215 -12.4532     72.2390     78.8933   1.1287729374e+02   5.1907733267e+01    0.4365639    0.3558916 -19.44 0.0005249106    1.221    0.181
       216 -11.2339     77.9938     71.9647   1.0900093433e+02   5.2403588885e+01    0.3962037    0.2815005  52.56 0.0009698254    1.797    0.444
       217  -9.5526     29.9325     81.7094   1.2745534253e+02   5.6162450804e+01    0.1589283    0.1374125 -45.51 0.0004006275    1.073    0.068
       218  -9.5832    126.0577     80.4803   9.7553534456e+01   4.1788288558e+01    0.2126942    0.1455669  47.60 1.120584e-05    1.462    0.316
       219 -10.0886      2.4158     71.7724   1.3445934573e+02   6.0063285498e+01    0.2278065    0.1101161 -44.97  0.001351271    1.616    0.381
       220 -12.1756      3.3874     77.3509   1.3522212526e+02   5.8881409923e+01    0.3801159    0.2957053 -58.17 0.0004362836    1.067    0.063
       221 -10.8100      8.1824     73.5868   1.3290136401e+02   5.9381524736e+01    0.2685507    0.1967572 -11.31   0.00188313    1.562    0.360
       222 -11.3406    150.9688     78.4786   9.0807761900e+01   3.6495763590e+01     0.298757    0.2679283 -65.00 0.0004129258    1.191    0.160
       223  -9.8993    101.3394     78.3086   1.0377196795e+02   4.7190043720e+01    0.1477878    0.1098346  -0.68 0.0007043611    1.686    0.407
       224 -12.4559     61.8029     73.0125   1.1459306706e+02   5.4515119346e+01    0.6157557     0.404756 -24.99  0.001978383    1.613    0.380
       225 -10.3339     54.6764     72.2828   1.1677039130e+02   5.5554020435e+01    0.2146114      0.18397 -79.17  0.000432778    1.553    0.356
       226  -9.7049     12.3907     77.8403   1.3238229421e+02   5.8258860242e+01    0.1690946   0.07817714 -52.36 0.0004663988    1.593    0.372
       227  -9.8834    121.7836     76.1687   9.7397986596e+01   4.3511360149e+01      0.20663     0.173911  -0.39 0.0008294974    1.323    0.244
       228 -10.7371    108.0062     76.0324   1.0116115741e+02   4.6349919530e+01     0.328856    0.2585821  -5.63 0.0003282993    1.469    0.319
       229 -10.7392    110.9205     72.6928   9.9315684943e+01   4.6394482584e+01    0.3392183    0.1890148  28.24 0.0007585154    2.323    0.570
       230 -10.5063     40.5837     73.0433   1.2176521210e+02   5.6954414405e+01    0.3326305    0.2094128 -57.48  0.001231691    1.517    0.341
       231 -10.7166     37.0973     67.8793   1.2159600559e+02   5.8319392438e+01    0.3411814    0.1991954 -39.56  0.001305243    1.449    0.310
       232 -12.0227     49.1267     69.7591   1.1794622010e+02   5.6697067021e+01    0.5799639    0.3102977 -28.54  0.002823569    2.108    0.526
       233  -9.7997    102.3458     73.2817   1.0195203268e+02   4.7955682891e+01    0.1452671    0.1082158   5.08 0.0005080944    1.640    0.390
       234 -10.6436    152.3099     72.1484   8.8662317352e+01   3.7302192640e+01    0.2585764    0.2000402  42.80 0.0005935855    1.292    0.226
       235 -10.0737    145.4372     71.9110   9.0176107751e+01   3.8973210057e+01    0.2275253    0.1462083 -39.79  0.001019355    1.591    0.372
       236 -10.4034    115.9939     71.4133   9.7513589336e+01   4.5594985239e+01    0.2644205    0.2087983 -27.46 0.0006076852    1.288    0.224
       237 -10.0006    175.0624     70.9145   8.3501652981e+01   3.1951698124e+01    0.2215538    0.2163723  84.49 0.0003761601    1.033    0.032
       238 -10.9914     68.9948     67.3685   1.1052858358e+02   5.4617272374e+01     0.441063    0.2071629 -38.68  0.001717007    1.992    0.498
       239 -10.9797     26.2914     69.4841   1.2578275985e+02   5.8955201646e+01    0.3188536    0.2363328  80.20  0.001901044    2.177    0.541
       240 -11.2276     21.2214     65.8018   1.2664544380e+02   6.0075945815e+01    0.3227968    0.1931733  21.82  0.001983507    1.968    0.492
       241 -10.8283    159.9233     69.4879   8.6212720467e+01   3.5920423644e+01    0.3830885     0.234535  79.22  0.001481284    2.452    0.592
       242 -10.6464    130.0126     69.1758   9.3121832288e+01   4.2981816533e+01    0.4036641    0.2617355  20.67  0.001707086    2.151    0.535
       243 -10.7070    130.1787     64.3696   9.1598273059e+01   4.3768976219e+01    0.3085421    0.2187933 -44.31 0.0005055329    1.489    0.328
       244 -11.5882     95.5275     67.1008   1.0204362525e+02   5.0354233573e+01    0.4585651    0.3557288   3.72  0.002029652    1.439    0.305
       245 -11.3028     31.1749     66.2368   1.2323850558e+02   5.9184377856e+01    0.2641969    0.1997448 -56.80  0.000438926    1.297    0.229
       246 -10.0400      6.6730     67.8820   1.3221036822e+02   6.0611858580e+01    0.1756122    0.1280393 -30.27 0.0006653699    1.302    0.232
       247 -11.2783      2.5859     63.6663   1.3271713168e+02   6.1662592767e+01    0.4076105    0.2433523 -67.86  0.002317468    1.599    0.375
       248 -11.1142    140.8223     63.8446   8.8841655265e+01   4.1426949178e+01     0.426468    0.2679283  39.14  0.001191415    1.656    0.396
       249 -10.9240    121.5034     62.5144   9.3249080066e+01   4.5983157623e+01    0.3553744    0.2119043 -24.10  0.001556719    1.972    0.493
       250 -11.0653    105.9351     64.3002   9.8095969990e+01   4.8883447062e+01    0.3481063    0.1950091 -44.66  0.001438442    1.870    0.465
       251 -11.3661     83.7024     62.3614   1.0417841007e+02   5.3259240787e+01    0.4450955    0.3378903 -56.06  0.001619367    1.618    0.382
       252 -10.5029     86.4337     58.4883   1.0205321504e+02   5.3473795484e+01    0.2549621    0.2208674 -41.29 0.0006010389    1.239    0.193
       253 -10.5483     77.1809     65.4180   1.0724201740e+02   5.3757289618e+01    0.2499592    0.1639231  49.67  0.001271766    1.902    0.474
       254 -10.4507    173.8932     63.5529   8.1680324898e+01   3.3458251577e+01    0.3166619    0.2122677 -49.45  0.001467202    1.571    0.363
       255 -10.4619     51.6819     62.5283   1.1495250118e+02   5.7786860092e+01    0.2486857    0.1777083 -22.07 0.0008720975    1.348    0.258
       256 -11.3337     10.8855     62.6032   1.2954087497e+02   6.1402240895e+01    0.2231995    0.1584743 -38.93  0.000406433    1.142    0.124
       257  -9.7778     56.4450     62.4688   1.1327646743e+02   5.7217576638e+01    0.1796819    0.1123302 -52.29 0.0005021835    1.656    0.396
       258 -11.0782     58.0232     58.6550   1.1153903754e+02   5.7715566800e+01    0.3225099    0.2192722 -40.72  0.001822596    1.318    0.241
       259 -11.2007     27.2265     61.3055   1.2333092362e+02   6.0475299697e+01    0.3222495    0.1891052  13.27  0.001897705    2.002    0.500
       260  -9.3715    183.8063     61.3557   7.9229893843e+01   3.1337023637e+01    0.2133239    0.1265875  50.78  0.000528355    1.658    0.397
       261 -11.4448     43.0794     66.1157   1.1901482882e+02   5.8063096696e+01    0.3454087     0.243885 -62.52  0.001535934    1.642    0.391
       262 -10.5948     70.5743     59.1690   1.0741834312e+02   5.5886898053e+01    0.4785618     0.215765 -45.03  0.002158608    2.132    0.531
       263 -11.1890     64.3766     59.9485   1.0976137651e+02   5.6633611007e+01    0.3205417    0.1813738  37.16  0.001118318    1.915    0.478
       264 -10.4866     33.1528     60.0563   1.2083833790e+02   6.0195144246e+01    0.3160183     0.190563 -17.89  0.001339615    1.861    0.463
       265 -10.7048    114.1274     57.7092   9.3681703425e+01   4.8336034642e+01    0.4169177    0.2216571  53.24  0.001698311    2.003    0.501
       266  -9.9599    137.5431     54.5379   8.6745223826e+01   4.3675010971e+01    0.2269295    0.2140406  26.03 0.0006489445    1.044    0.043
       267  -9.7742     80.9624     57.0370   1.0331012869e+02   5.4639208625e+01    0.1969865    0.1453333  -4.42  0.000396056    1.471    0.320
       268 -11.2119     98.8810     55.7649   9.7360763116e+01   5.1683801136e+01    0.4580544    0.2490678  45.04  0.001476277    1.842    0.457
       269 -12.2651    127.8162     52.1900   8.8342688533e+01   4.6247612870e+01    0.3999017    0.3071385 -24.72  0.000629904    1.375    0.273
       270 -11.7987     38.3695     51.7779   1.1645114365e+02   6.1213335286e+01    0.5690383    0.3372812 -28.93  0.003291836    1.550    0.355
       271 -10.3632     44.9129     51.7285   1.1401604862e+02   6.0525810596e+01    0.2571793    0.1942242 -19.90 0.0005090886    1.171    0.146
       272 -11.2469     46.1458     47.0914   1.1203917547e+02   6.1188758304e+01    0.2178887    0.1686291 -29.26 0.0002561995    1.089    0.082
       273 -11.1840      4.4450     52.4515   1.2943074474e+02   6.3710332417e+01    0.3835144    0.1887511 -24.33  0.002225017    2.147    0.534
       274 -11.0861     12.9832     49.9902   1.2554604235e+02   6.3653312793e+01    0.3803898    0.1535281 -44.79  0.002007266    1.825    0.452
       275 -12.2767      9.6235     45.5554   1.2561545830e+02   6.4673016416e+01    0.4483249    0.2971331 -23.73  0.001366436    1.358    0.263
       276 -10.4898     87.1218     52.7462   9.9915316695e+01   5.4314499129e+01    0.1910687    0.1799466  33.36    0.0011966    1.208    0.172
       277 -10.5379     73.1543     52.0988   1.0420850750e+02   5.6714020388e+01    0.3320579    0.2701569  61.60  0.001479532    1.800    0.444
       278  -9.6364    157.8255     52.1727   8.1591598171e+01   3.9191924056e+01     0.199194    0.1631695  31.23 0.0003676972    1.329    0.247
       279 -10.9643    134.8048     49.5638   8.5822702957e+01   4.5055220308e+01    0.3510623    0.2613698 -84.32  0.001313204    1.918    0.478
       280 -10.6584     51.7927     48.0865   1.1029951597e+02   6.0348265996e+01    0.4339391    0.1509285 -47.32  0.001819015    2.861    0.650
       281 -10.9006    114.9417     48.9679   9.0588235358e+01   4.9530022292e+01    0.3326673    0.2393549  -7.94  0.001692569    1.618    0.382
       282 -11.4500    100.8112     47.3832   9.3964324551e+01   5.2631478215e+01    0.5031986    0.4498175 -25.60  0.002237935    1.156    0.135
       283 -11.6219    143.5469     46.5267   8.2892013993e+01   4.3452618312e+01    0.4222405    0.2650582  52.92  0.001583272    1.471    0.320
       284 -10.6132    136.7058     42.7133   8.3211130106e+01   4.5590013147e+01    0.1812681    0.1675701  74.27 0.0002443403    1.155    0.134
       285  -9.9211     81.0039     46.9766   9.9866629380e+01   5.6280101298e+01    0.1564709      0.13694   1.10  0.000354074    1.014    0.013
       286 -10.3322     22.8543     46.2043   1.2063376380e+02   6.3613926944e+01    0.1577485     0.129736 -37.16 0.0004730831    1.143    0.125
       287  -9.7550      6.9974     40.9712   1.2535065681e+02   6.5648107911e+01    0.2038021    0.1171276 -48.83 0.0007630708    1.359    0.264
       288  -9.4598    233.3648     45.2524   6.7887780445e+01   2.1666133230e+01    0.1798688    0.1130821 -48.29 0.0004312362    1.474    0.321
       289 -10.5925    122.7529     44.0034   8.6932756316e+01   4.8568255441e+01    0.3652802      0.29988  22.14  0.001057174    1.231    0.188
       290  -9.7553     85.8645     45.1458   9.7680659202e+01   5.5730553350e+01     0.181285    0.1391151  11.42 0.0003185262    1.296    0.228
       291 -10.5581     64.1400     41.4627   1.0356948133e+02   5.9768604381e+01    0.2435439    0.1739314 -32.87  0.001031451    1.309    0.236
       292 -10.0769    163.0353     42.3210   7.7680042483e+01   3.9314302332e+01    0.2027109    0.1705654  65.17 0.0003947822    1.106    0.095
       293  -9.4727     52.3077     42.3020   1.0811505632e+02   6.1238384163e+01    0.1254412   0.08198626 -10.67 0.0002373783    1.601    0.375
       294 -10.2039     23.7205     41.4041   1.1879034447e+02   6.4377998555e+01     0.205401    0.1818882 -17.77  0.001380958    1.219    0.180
       295 -10.3754    226.3780     40.3485   6.7600231066e+01   2.3990571129e+01    0.2512915    0.2020518 -74.11  0.000526611    1.122    0.109
       296 -11.4594     95.6793     39.5825   9.2734115529e+01   5.4752229066e+01    0.3863311    0.3186665 -20.08  0.002071762    1.195    0.163
       297 -10.4525    159.1498     39.2579   7.7511929010e+01   4.0680521114e+01    0.2394538    0.2006406 -43.13  0.000281464    1.282    0.220
       298 -10.7835     88.8273     38.6444   9.4447704415e+01   5.6155520443e+01    0.3204765    0.2589705 -80.54 0.0009781534    2.137    0.532
       299 -10.2032     44.0631     39.4513   1.1019122191e+02   6.2689662350e+01    0.2494617    0.1505782 -40.10  0.001007003    1.492    0.330
       300 -10.3195    119.6869     39.0376   8.6041987309e+01   4.9921261427e+01    0.1895337    0.1685253  -3.70 0.0005120155    1.144    0.126
       301 -10.9420     70.0386     36.5443   9.9737792367e+01   5.9620500028e+01    0.5355533     0.274787 -13.89  0.002292793    2.904    0.656
       302 -11.8784     82.3388     36.4248   9.5657353415e+01   5.7616384871e+01    0.3440324    0.2671228  -1.03  0.001336311    1.228    0.186
       303  -9.9810     19.4741     37.9768   1.1938656813e+02   6.5303377149e+01    0.1847775    0.1282481 -11.56 0.0005941789    1.348    0.258
       304 -11.3215     24.5717     35.6100   1.1652952095e+02   6.5275839776e+01    0.2473342    0.2197661  17.05 0.0007572293    1.427    0.299
       305 -12.2140    225.7261    246.2483   1.1209268295e+02  -1.0177700763e+01    0.6437631    0.4020541   8.81  0.003592922    1.862    0.463
       306 -10.6997     13.5214     33.4877   1.2036713641e+02   6.6499428103e+01    0.2466677    0.1731993  43.52  0.001640621    2.285    0.562
       307 -10.4427      1.4473     31.8169   1.2490952134e+02   6.7541148830e+01    0.1556022    0.0811725 -49.66 0.0009992216    1.509    0.337
       308 -12.4374    233.1356    246.1728   1.1074532689e+02  -1.1316661489e+01    0.6039442    0.3630234  27.80  0.003566112    1.432    0.302
       309 -10.7428      1.9431     37.6703   1.2644518318e+02   6.6512948838e+01    0.2496026    0.1150759 -28.14 0.0007240925    2.009    0.502
       310 -10.5100      9.0448     33.2810   1.2217046475e+02   6.6839415434e+01    0.2857608    0.1520892 -48.21  0.001818861    1.531    0.347
       311 -11.1740      5.3049     32.3889   1.2345868922e+02   6.7222929391e+01    0.4020545    0.1892759 -34.36  0.001829524    1.678    0.404
       312 -10.5308    111.0552     34.1485   8.6569329999e+01   5.2405617517e+01    0.3978442    0.2318319 -28.80 0.0006466008    1.800    0.444
       313 -10.2713    103.5962     36.8402   8.9510659193e+01   5.3582430724e+01     0.341377    0.1746525  47.58   0.00151526    1.834    0.455
       314 -10.3699    106.4348     34.2156   8.7813721059e+01   5.3353121547e+01    0.2818704    0.2486282 -36.33  0.001237688    1.286    0.223
       315  -9.8821    142.1543     36.1621   7.9955662813e+01   4.5181113728e+01    0.1840337    0.1609012 -76.14 0.0004023305    1.319    0.242
       316  -9.5896     56.6390     36.1731   1.0431547719e+02   6.1625009814e+01    0.1873348    0.1084505 -36.07  0.001045543    1.596    0.374
       317 -11.7215     55.9900     31.6594   1.0285910614e+02   6.2376260027e+01    0.4273178    0.2358581  -8.70   0.00208961    2.403    0.584
       318 -10.6647     77.0531     33.5169   9.6277183290e+01   5.8917258514e+01    0.2615798    0.1638504  22.19 0.0007880754    1.651    0.394
       319 -10.3175     78.5094     29.9806   9.4476844811e+01   5.9146423809e+01    0.1771266    0.1480742  -2.22  0.000420054    1.065    0.061
       320  -9.2524     60.9780     33.9672   1.0193012941e+02   6.1345953649e+01    0.1451837    0.1198097  -2.16 0.0004033625    1.018    0.018
       321 -10.1702     32.0036     33.9428   1.1294545361e+02   6.4854904122e+01    0.2286047    0.1419476  16.04  0.001232508    1.664    0.399
       322 -10.3570    145.1527     31.6891   7.7943360398e+01   4.5027529272e+01    0.1994246    0.1862322 -58.94 0.0003188861    1.186    0.157
       323  -9.4158    235.5851     40.5109   6.6558844200e+01   2.1817664430e+01    0.1323271    0.1165635 -76.36 0.0004069942    1.057    0.054
       324 -10.0624     18.2567     30.9424   1.1752929036e+02   6.6557838064e+01    0.1913297    0.1494463 -56.03 0.0008699586    1.678    0.404
       325  -9.7389    178.4044     31.2402   7.1904396547e+01   3.6939662831e+01    0.1869666    0.1231503 -46.74 0.0007308269    1.608    0.378
       326 -10.2336    137.0558    247.5406   1.2888438635e+02   4.5658405736e+00    0.1769896    0.1616039  77.18 0.0005675082    1.176    0.150
       327 -10.5033    124.9127     27.9261   8.1061123895e+01   5.0160686381e+01    0.1974072    0.1725313  36.76 0.0002785111    1.033    0.032
       328  -9.2818    101.2722     28.6769   8.7238606101e+01   5.5091210663e+01    0.1184122    0.1032567 -64.38 0.0002749255    1.574    0.365
       329  -9.8696    172.7495     27.5681   7.1783879938e+01   3.8788467985e+01    0.1948618    0.1238074  77.93 0.0009403769    1.610    0.379
       330  -9.6317    179.8445     25.8239   7.0209193248e+01   3.7236836244e+01    0.1877089    0.1474539 -79.73 0.0002517791    1.308    0.236
       331  -9.3815     90.5151     26.5610   8.9504864384e+01   5.7430535395e+01    0.1268439    0.1113413  18.52 5.076119e-05    1.049    0.047
       332 -10.4215     50.4803     27.5055   1.0330723965e+02   6.3700518816e+01    0.3403323    0.1431833 -25.66  0.001547556    2.678    0.627
       333 -10.4395     17.1806     24.6769   1.1575375081e+02   6.7627859236e+01    0.3137769   0.07269548 -39.67  0.001326914    3.356    0.702
       334 -10.1762    113.1206     25.0954   8.2888965416e+01   5.3065066190e+01    0.1960432    0.1739506  38.53 0.0005689119    1.052    0.049
       335 -10.2850    100.1706     22.2363   8.5193736315e+01   5.6064523160e+01    0.2302342    0.2039262 -52.62 0.0008691833    1.473    0.321
       336 -11.0814     84.6537     22.0889   8.9553432709e+01   5.9042122986e+01    0.3401577    0.2035694  11.21   0.00173668    2.001    0.500
       337 -11.1831      6.1854    244.9658   1.5132623742e+02   2.3360541194e+01    0.3050641    0.1555873  82.24  0.001500959    1.500    0.333
       338 -11.6365      8.5282    241.7679   1.5080006986e+02   2.3707193785e+01    0.4242151    0.1805958  77.35  0.002486375    2.026    0.506
       339 -10.1353    124.1101     21.8642   7.9206279980e+01   5.1022645161e+01    0.1850511    0.1709295  64.82  0.000261983    1.162    0.139
       340  -9.2092    166.7165     20.6905   7.0809537810e+01   4.1062345815e+01    0.1349725   0.09573074  37.23 0.0002409604    1.568    0.362
       341  -9.7154    137.1541     20.1819   7.5911443502e+01   4.8222135691e+01    0.1761628    0.1514139  89.79 0.0002553661    1.318    0.241
       342 -10.2508    107.8208     18.2881   8.1787073324e+01   5.4927461519e+01    0.3070645    0.2111638  13.71  0.001704461    1.585    0.369
       343 -10.1708    104.3919     18.7273   8.2808138139e+01   5.5591307792e+01     0.233835    0.1589639   9.30 0.0007734693    1.628    0.386
       344 -11.3154     70.9165     26.2004   9.5514515093e+01   6.0894132366e+01    0.3950355    0.2692173  15.51  0.002196012    1.423    0.297
       345 -10.8165    217.5831     16.2711   6.3046951492e+01   2.9136544623e+01    0.4643111    0.1522691  57.61   0.00185354    2.817    0.645
       346  -9.5375     50.4129     18.7549   9.9829938296e+01   6.4875316578e+01    0.1484894   0.09394793 -17.52 0.0002526274    1.428    0.300
       347  -9.6812    115.4482    244.7125   1.3259342708e+02   8.6693232205e+00     0.145914    0.1190205 -55.18 0.0006192828    1.525    0.344
       348 -11.4020    178.7435    243.6078   1.2042750569e+02  -1.9923847603e+00    0.3099033    0.1414165  47.54  0.001448401    1.974    0.493
       349 -10.2833    109.7359    243.1586   1.3348136035e+02   9.8803107991e+00    0.2817703    0.1667504  69.22  0.001187778    1.821    0.451
       350 -10.1480     82.0541     16.3437   8.8107262829e+01   6.0155780147e+01      0.19174    0.1461791   3.93 0.0003539188    1.219    0.179
       351 -10.3325     72.0071    243.9458   1.4042555005e+02   1.5497117113e+01    0.1855347     0.145125  69.51 0.0007804782    1.052    0.050
       352 -10.2378     10.0403     15.8883   1.1559926429e+02   6.9495963945e+01    0.1975929    0.1141242 -11.09  0.001317427    1.613    0.380
       353 -11.7342     65.5555     21.4978   9.5479918588e+01   6.2333743371e+01    0.3010953    0.1909873  15.82 0.0007913797    1.576    0.366
       354 -10.0613     99.7713     14.1293   8.2307783838e+01   5.7002709153e+01    0.1757079    0.1655869  18.65 0.0007477494    1.163    0.140
       355  -9.6821     50.5014     14.4880   9.8021674705e+01   6.5387921731e+01    0.1945139     0.100007 -29.40  0.001105499    1.813    0.448
       356  -9.0918     51.2962     11.3322   9.6384938906e+01   6.5645998478e+01    0.1202956   0.07356774   4.67 0.0003488877    1.641    0.391
       357 -11.8841    156.0410    241.5305   1.2446893053e+02   2.2983228483e+00    0.3545144    0.2269162  31.94  0.001275932    1.600    0.375
       358 -11.9760     19.3923    238.7999   1.4892177750e+02   2.3105578194e+01    0.4629102    0.2910515  58.18  0.002995593    1.309    0.236
       359 -10.0025     88.6306    241.1847   1.3717146504e+02   1.3565376472e+01    0.1560865    0.1061049 -59.05 0.0009447174    1.732    0.423
       360 -11.5724     74.3210    238.4413   1.3950417809e+02   1.6205743046e+01    0.5168461    0.2907273  53.59  0.003015617    1.463    0.317
       361  -9.2660     50.2899    240.3298   1.4389999476e+02   1.9130111769e+01   0.09724949   0.08588044 -64.31 0.0005511116    1.622    0.384
       362 -11.4169    177.5673    234.9467   1.1933191976e+02  -4.2044202235e-01    0.3193109    0.2300967   6.30  0.001356719    1.889    0.471
       363  -9.6549    195.3035    238.5831   1.1650012802e+02  -4.0885487724e+00    0.1880426     0.104703  33.18  0.000955052    1.634    0.388
       364 -10.4963    159.9832    235.9454   1.2290332299e+02   2.5386278740e+00    0.2056052    0.1722725  41.26  0.000608139    1.057    0.054
       365 -10.9658     73.5430    232.8332   1.3910753872e+02   1.7400871619e+01     0.297658    0.1776034  52.95  0.001359021    1.407    0.289
       366 -10.8062    181.5746    247.8090   1.2051692937e+02  -3.1164298324e+00    0.3881973    0.2000597 -27.28   0.00173692    3.247    0.692
       367 -10.3808    167.0179    233.9643   1.2123493411e+02   1.6188377606e+00    0.2037131    0.1755861  37.20 0.0008775328    1.064    0.060
       368 -11.2055    153.4042    233.6522   1.2385462150e+02   4.1008482483e+00    0.2357685    0.2002758 -15.17 0.0009420007    1.557    0.358
       369  -9.9825     79.5997    231.3811   1.3783956208e+02   1.6800052342e+01    0.2185764    0.1313332  45.15 0.0006119069    1.534    0.348
       370 -10.2896     12.1797    238.2368   1.5003545083e+02   2.3984757090e+01    0.1759485    0.1003694  69.20 0.0006461459    1.308    0.235
       371  -9.4867    160.9599    250.0000   1.2471004363e+02   7.9129229494e-02    0.2100883   0.05999125  42.45 0.0004309678    2.861    0.650
       372  -9.9179    169.8112    229.1763   1.1994865595e+02   1.9234139468e+00    0.1811849     0.147578  20.98  0.001064374    1.323    0.244
       373 -10.3629    190.3696    226.6369   1.1550068147e+02  -1.3614138788e+00    0.2559979    0.1816412 -45.31 0.0009249381    1.635    0.388
       374 -10.1545    178.3038    228.3294   1.1814143328e+02   5.3174631642e-01    0.1312348   0.09871566   9.80 0.0007035182    1.651    0.394
       375 -10.2234     86.2633    233.3951   1.3680223080e+02   1.5408205988e+01    0.2208826       0.1316  84.74  0.001188715    1.835    0.455
       376 -10.8560    115.8844    226.4147   1.3026703203e+02   1.1994033361e+01    0.3020389    0.1499445 -64.40  0.001414526    2.312    0.567
       377  -9.2681    249.3290    227.2691   1.0460377481e+02  -1.1328859730e+01    0.1247906   0.08063994   9.97 0.0002923113    1.580    0.367
       378 -10.0927    144.4638    226.8997   1.2464162740e+02   6.9020656123e+00    0.1788041    0.1325499 -59.24   0.00101051    1.541    0.351
       379 -10.4499    129.9526    226.7847   1.2752141725e+02   9.4978054544e+00    0.3690389    0.1703495  55.28  0.001596857    2.225    0.551
