#   1 NUMBER                 Running object number                                     
#   2 MAG_AUTO               Kron-like elliptical aperture magnitude                    [mag]
#   3 X_IMAGE                Object position along x                                    [pixel]
#   4 Y_IMAGE                Object position along y                                    [pixel]
#   5 X_WORLD                Barycenter position along world x axis                     [deg]
#   6 Y_WORLD                Barycenter position along world y axis                     [deg]
#   7 A_WORLD                Profile RMS along major axis (world units)                 [deg]
#   8 B_WORLD                Profile RMS along minor axis (world units)                 [deg]
#   9 THETA_WORLD            Position angle (CCW/world-x)                               [deg]
#  10 FWHM_WORLD             FWHM assuming a gaussian core                              [deg]
#  11 ELONGATION             A_IMAGE/B_IMAGE                                           
#  12 ELLIPTICITY            1 - B_IMAGE/A_IMAGE                                       
         1 -13.1548    221.3106     20.5851   3.4343023840e+01   2.8192963977e+01     1.970735     1.840712 -78.17  0.006677854    1.226    0.185
         2 -14.8253    234.6186     60.6631   4.1795330563e+01   2.0052379737e+01     5.998879     1.545957 -41.43   0.02215081    3.064    0.674
         3 -11.1325    212.9467     31.4810   3.7588536254e+01   2.8716895097e+01    0.8984863    0.4291325 -29.59  0.004210469    2.347    0.574
         4 -14.7193    246.8437     68.2399   4.2070386855e+01   1.6475263208e+01     6.843591     1.471382  49.74  0.009941389    8.300    0.880
         5  -8.1444    204.1873      4.8237   3.2317425506e+01   3.3681711766e+01    0.1899327    0.1365431 -68.11  0.001178035    1.215    0.177
         6  -8.2402    250.1316      4.4737   2.8958033549e+01   2.4064871732e+01    0.1600366   0.09453033  85.62  0.001013449    1.540    0.351
         7 -13.9356    248.8548     36.9743   3.5400401212e+01   2.0453667438e+01     2.462145    0.9134704 -55.71  0.006674294    2.615    0.618
         8  -7.6679    167.1115      1.5175   3.5097107812e+01   4.2579599033e+01    0.1748192    0.1072442  74.84 -0.0001046235    1.393    0.282
         9  -8.5795     41.9175    179.0405   1.1226596136e+02   3.1869846949e+01    0.1923692    0.1661006 -89.64            0    1.020    0.020
        10 -11.6300    214.6036    247.3442   8.3437229393e+01  -7.6333718018e+00     1.480767    0.5323946  25.83  0.006228669    3.004    0.667
        11 -10.0741    242.8013    174.2316   6.5007139460e+01  -4.0138870734e-01    0.3003126    0.2353435  13.89  0.001351475    1.318    0.241
        12  -8.6855    176.6652    171.0491   7.7220603424e+01   1.1620129149e+01    0.2121895    0.1779508 -35.13 0.0004493836    1.161    0.139
        13  -8.5417    229.3755    167.2579   6.5922927969e+01   2.9173212385e+00    0.3289613    0.2135361 -60.33  0.001329455    2.437    0.590
        14 -11.5958    248.7098    146.7619   5.8458576279e+01   3.2733319833e+00     1.811362    0.4217011 -33.95  0.004927335    5.440    0.816
        15 -10.8075     14.0812    156.5321   1.1701927442e+02   4.0101042675e+01    0.5821154     0.354096  48.10   0.00269024    1.708    0.415
        16 -10.0659     19.1602    154.4416   1.1546591305e+02   4.0203352357e+01    0.3839654    0.3021955 -87.02  0.001628376    1.087    0.080
        17 -11.2192     15.5025    150.3570   1.1601596518e+02   4.1518377876e+01    0.6152912    0.4199328   9.68  0.003480749    1.949    0.487
        18  -9.1667    189.0600    156.0701   7.1324614985e+01   1.2297810703e+01    0.4639223    0.2954335  62.13  0.001936311    2.341    0.573
        19  -8.5346    191.8876    153.0590   7.0069123345e+01   1.2353237501e+01     0.261062    0.1951322 -56.45 0.0008317001    1.533    0.347
        20  -9.5015    232.4824    151.3447   6.2057210431e+01   5.1955728259e+00    0.2662601    0.2132148 -23.42 0.0003074059    1.128    0.114
        21  -9.3456    234.8783    146.8037   6.0691069033e+01   5.5840464674e+00    0.2250264    0.2018463  23.21 0.0008611948    1.235    0.190
        22  -8.9764    133.2513    148.4656   8.2712998637e+01   2.5116420954e+01    0.5023409     0.244584 -49.40  0.001604011    2.035    0.509
        23  -7.7340    177.8656    147.1328   7.1714249398e+01   1.6358268169e+01    0.2036353    0.1725325 -10.15 0.0002840321    1.266    0.210
        24 -10.8395     66.9482    144.1209   1.0044088075e+02   3.7586066719e+01    0.9472237    0.6446608 -74.29  0.004533168    1.505    0.336
        25 -10.5869     43.9879    143.6148   1.0711694740e+02   4.0551623992e+01     0.412114    0.3694153  -7.28 0.0009137637    1.342    0.255
        26 -12.2645     52.7317    140.6834   1.0406531198e+02   4.0299330134e+01     1.752698     1.163801 -13.11   0.00803181    2.234    0.552
        27 -10.1117    243.0488    144.2984   5.8834101698e+01   4.6283587993e+00    0.2819738    0.2086116 -40.53  0.001608282    1.195    0.163
        28  -9.6489    239.5957    143.8160   5.9284965514e+01   5.2966266584e+00    0.2253788    0.1815459 -55.27  0.001162676    1.399    0.285
        29  -8.8110    227.9392    143.8901   6.1238330828e+01   7.3235171570e+00    0.2611693    0.1962551 -44.43  0.001419566    1.258    0.205
        30  -8.4513    131.8346    140.9416   8.1369103992e+01   2.7168577500e+01    0.3623216    0.2290776 -62.37  0.001465747    1.884    0.469
        31  -9.3196    187.0493    140.0284   6.8112468773e+01   1.5953029736e+01    0.2268126    0.2120483 -33.47 0.0003286813    1.025    0.024
        32  -9.5877    236.3378    138.5444   5.8689203218e+01   6.7829224571e+00    0.3363856    0.1317654  43.19  0.001351241    2.965    0.663
        33  -8.3088    143.3800    138.1661   7.7739100451e+01   2.5456446239e+01    0.2290042    0.1477799 -56.95 0.0009443772    1.704    0.413
        34 -11.2119     59.6973    138.6794   1.0162921307e+02   3.9946670585e+01    0.6170279    0.4304537 -60.60  0.001346603    1.298    0.230
        35  -7.5867    207.3269    139.6929   6.4013637811e+01   1.1962868864e+01    0.1429752    0.1148619 -74.10  0.000703716    1.653    0.395
        36  -9.8937    242.6832    134.9733   5.6923574554e+01   6.2974773860e+00    0.4409224    0.1988235  51.30  0.001927892    2.745    0.636
        37  -9.7765    222.0512    129.8517   5.9156578279e+01   1.0963035244e+01    0.5039072    0.3124046  75.14  0.002032107    3.105    0.678
        38  -8.8994    160.1001    130.4744   7.1796586246e+01   2.3640047690e+01    0.3554399    0.2952186 -62.99  0.001205191    1.328    0.247
        39  -9.5851    196.9051    244.1516   8.6317785032e+01  -4.7465663168e+00    0.2181941    0.1612256 -18.43  0.001369018    1.340    0.254
        40  -9.2883    226.2110    122.9668   5.6923254968e+01   1.1415625250e+01    0.2683845    0.2289122 -44.62  0.001544182    1.075    0.070
        41  -9.5117    212.1653    122.9992   5.9312278218e+01   1.4167379797e+01    0.2171332    0.2122114  54.60 0.0002524337    1.137    0.120
        42  -8.0013    170.1691    122.8235   6.7602851153e+01   2.3089515004e+01    0.2271785    0.2078015 -71.91 0.0004113632    1.186    0.157
        43  -7.9367    140.7769    122.7995   7.4619770223e+01   2.9495474098e+01    0.2179799    0.1893669  89.96 0.0006394655    1.360    0.265
        44  -9.1417    218.1015    122.5144   5.8172176275e+01   1.3074413476e+01    0.1989354    0.1441014  50.10 0.0005775089    1.548    0.354
        45  -8.7862    182.4909    120.7603   6.4451762330e+01   2.0827824738e+01    0.2824445    0.2004093 -85.39  0.001158192    2.224    0.550
        46  -8.9347    132.0527    120.9007   7.6414245829e+01   3.1781408800e+01    0.3136408    0.2260223 -39.17 0.0007683868    1.391    0.281
        47  -9.1442    135.1589    119.2180   7.5158486682e+01   3.1504169756e+01    0.4630268    0.2161172 -54.65  0.001424549    2.525    0.604
        48  -9.5946    216.5040    117.0563   5.7191766091e+01   1.4393206496e+01    0.2556826    0.2348102 -61.65 0.0003498482    1.129    0.115
        49  -7.5640    162.3056    118.6640   6.8329077074e+01   2.5693722512e+01    0.1597963    0.1247365 -79.06 0.0007040084    1.670    0.401
        50  -9.6657    231.9494    116.8519   5.4650957608e+01   1.1406783991e+01    0.3026877    0.2512805  22.69  0.001560373    1.470    0.320
        51  -9.2433    226.7618    115.3185   5.5118961982e+01   1.2675517711e+01    0.2997078    0.1970839 -45.13  0.001032362    1.358    0.263
        52 -10.2571    211.0458    112.4951   5.7059768564e+01   1.6344223336e+01    0.3881416    0.3203048   5.58  0.001523274    1.513    0.339
        53  -9.8439    201.7869    105.0137   5.6886225674e+01   1.9683762043e+01    0.4214813    0.1960154  60.88  0.001548918    2.745    0.636
        54 -10.8929    205.1410    110.0119   5.7498482069e+01   1.8039891937e+01    0.5871576    0.4588839  24.46  0.002744336    1.600    0.375
        55  -8.5615    126.6791    113.8782   7.6033246216e+01   3.4510893500e+01    0.3112935    0.2146011  18.94  0.001280475    1.931    0.482
        56  -7.4456    176.2941    113.3198   6.3887959129e+01   2.3689417770e+01    0.1534961    0.1220095  -0.54 0.0004760896    1.610    0.379
        57  -9.1837    249.9432    111.2585   5.0828891090e+01   9.0461303325e+00    0.2582188    0.1713126 -35.43 0.0006373654    1.310    0.237
        58  -7.8121    186.1700    111.6292   6.1443676405e+01   2.1837272886e+01    0.2137691    0.1401561  39.23 0.0009455362    1.709    0.415
        59 -10.6473    134.3268    108.3943   7.2508533136e+01   3.4089652630e+01    0.7258572     0.320457 -41.37  0.002547342    2.271    0.560
        60  -9.1516    115.5031    110.0038   7.8134135915e+01   3.7708284328e+01    0.3580665    0.2682081 -51.36 0.0009569137    1.338    0.253
        61  -9.7394    113.3241    106.6542   7.7856510893e+01   3.8912927002e+01    0.3244876    0.2114983 -64.34  0.001318949    1.968    0.492
        62 -10.4567    121.3280    100.0569   7.3729330187e+01   3.8712406208e+01    0.8845036    0.4509528 -64.04  0.002614125    3.972    0.748
        63  -9.7548    125.3205    106.6656   7.4461273542e+01   3.6413419438e+01    0.4723389    0.3211888  85.04  0.001759133    2.660    0.624
        64  -9.6779    126.0006    103.5163   7.3404566062e+01   3.6959787543e+01    0.3910967    0.1962741  44.46  0.001216242    2.023    0.506
        65  -7.9812    199.4693    111.4905   5.8873899322e+01   1.8971321063e+01    0.2024461    0.1946142 -53.61 1.558728e-06    1.046    0.044
        66  -9.2970    222.6057    101.0477   5.2518207955e+01   1.6017349824e+01    0.2576046    0.2397163 -40.15 0.0008418573    1.078    0.072
        67  -9.3055    227.9987    106.7191   5.2988421751e+01   1.3946052534e+01     0.271329    0.2545979 -45.72 0.0008753556    1.073    0.068
        68 -10.3006    229.2258    101.6122   5.1652284602e+01   1.4586447810e+01    0.4852997    0.2955064 -64.92  0.001261076    2.146    0.534
        69  -8.2219    146.9322    106.3790   6.8754673251e+01   3.1726802329e+01    0.2261078    0.1989344  47.07  0.001002144    1.157    0.136
        70  -9.9070    118.2986    105.4036   7.6080154122e+01   3.8172685794e+01    0.3076357    0.2864487 -84.15  0.001347205    1.191    0.160
        71  -8.7887    156.3756    103.2885   6.5666510034e+01   3.0227328697e+01    0.3387363     0.218179  44.33  0.001463874    1.598    0.374
        72  -9.5805    140.2666     96.2671   6.7615639103e+01   3.5336678173e+01    0.3014743    0.2414051  -7.90 0.0006358034    1.533    0.348
        73  -9.5476    130.8368     93.3027   6.9200825739e+01   3.8066908536e+01    0.3670371    0.2194433 -56.56  0.001158804    2.026    0.506
        74  -9.0492    178.2568     95.0720   5.8780510908e+01   2.6804956899e+01    0.2719395    0.2352509 -66.77 0.0004151475    1.202    0.168
        75  -9.0595    215.0992     93.7951   5.1985941237e+01   1.8840325433e+01    0.3325313    0.1693392 -50.90  0.001036324    1.967    0.492
        76  -9.2797    154.0008     94.7819   6.3890339041e+01   3.2483123307e+01    0.4704798    0.2169009 -43.60  0.000373749    2.138    0.532
        77  -9.8295    157.8760     91.3231   6.2052599852e+01   3.2256836356e+01     0.403546    0.2777182  49.91  0.001841042    1.468    0.319
        78  -8.4347    195.5026    106.9754   5.8502442995e+01   2.0682763328e+01    0.2191399    0.1168179 -58.41 0.0008094913    2.503    0.600
        79 -10.0747     93.2274     91.5611   7.9742174766e+01   4.6204381049e+01    0.2614847    0.2420631 -37.57 0.0002899435    1.057    0.054
        80  -9.8816    112.7912     96.7077   7.5219826534e+01   4.1230847849e+01    0.3250155     0.218781 -54.70  0.001421472    1.615    0.381
        81  -7.4147    137.5305     80.5591   6.3735356510e+01   3.9057543642e+01    0.1512276    0.1471146  89.07  0.000328813    1.064    0.060
        82  -9.8294    192.9304     75.8949   5.1140671315e+01   2.6821798667e+01    0.3150694     0.250945 -36.60 0.0009025617    1.255    0.203
        83  -7.6805    140.0118     74.9656   6.1455001654e+01   3.9510576541e+01    0.1774718    0.1746182  50.69 0.0003251536    1.003    0.003
        84  -8.9130    203.0984     72.3024   4.8633313773e+01   2.5088424253e+01    0.2308627     0.183362 -33.93 0.0005203372    1.294    0.227
        85  -7.5419    158.3221     76.1544   5.7685413215e+01   3.4954869662e+01    0.2190954    0.1293028 -47.07  0.000408511    1.737    0.424
        86  -7.4236    128.4948     69.4823   6.2615851360e+01   4.3170418155e+01    0.1477814    0.1448679  70.03  9.16332e-05    1.058    0.055
        87  -9.3449    182.0011     64.8526   5.0080895374e+01   3.1185254176e+01    0.6040007    0.1909256 -36.97    0.0018249    3.025    0.669
        88  -8.0594    168.1972     67.8873   5.3373020682e+01   3.3996853678e+01    0.1954639    0.1736558   1.10 0.0004493103    1.343    0.255
        89  -7.6208    139.3290     68.6333   5.9695781081e+01   4.0788947752e+01    0.1582628    0.1166968 -74.60  0.000703552    1.813    0.448
        90  -7.6957     90.2793     67.4065   7.3096871731e+01   5.1711088922e+01    0.1544628    0.1087652  -6.77 0.0006981438    1.782    0.439
        91  -7.7794    158.2473     66.0467   5.4795463799e+01   3.6696641564e+01    0.2015106    0.1881795 -40.04 0.0006606203    1.101    0.091
        92  -8.6017    196.9312     62.5237   4.7116130410e+01   2.8045415203e+01     0.366334    0.2021023 -13.45  0.001286493    3.817    0.738
        93  -7.7168    136.1951     63.1998   5.8755166273e+01   4.2448609221e+01    0.2049036    0.1758269 -76.63  0.001062623    1.341    0.254
        94  -9.4759    216.5477     59.6159   4.3716186477e+01   2.4056905017e+01    0.2431888    0.2225703 -56.11 0.0005073997    1.106    0.096
        95  -8.4632    139.7780     57.6043   5.6186560809e+01   4.2500109550e+01    0.2127408     0.137913  67.05 0.0009559695    1.693    0.409
        96  -7.7369    198.6928     52.6959   4.4398093183e+01   2.9106093273e+01    0.1296112     0.106947  29.01 0.0003866167    1.604    0.377
        97  -7.8242    148.4661     51.4774   5.2452062801e+01   4.1338569681e+01    0.1427614     0.135509  66.90 4.409714e-05    1.004    0.004
        98  -8.5629    205.8921     48.5160   4.2422849035e+01   2.8048900379e+01     0.223034    0.1747218 -48.05 0.0004467077    1.199    0.166
        99  -8.5927    198.3526     47.0034   4.3025602838e+01   2.9992780582e+01    0.2195478    0.1824974  77.86 0.0005506288    1.155    0.134
       100  -8.7213    158.4519     43.4932   4.8180008964e+01   4.0037502269e+01    0.2653182    0.1743255 -36.81  0.000905188    1.580    0.367
       101  -9.6179    155.6829     40.8356   4.7888594539e+01   4.1069709263e+01    0.2512607    0.2220363 -87.29  0.000418497    1.126    0.112
       102  -7.9395    163.3867     41.8331   4.6849652868e+01   3.9058283420e+01    0.1776137     0.136368 -14.36  0.000556932    1.611    0.379
       103  -8.0289    144.3124     42.3331   5.0473624739e+01   4.3637258548e+01     0.145723    0.1047327  28.53 0.0003233067    1.680    0.405
       104 -10.1755    133.1354     38.8423   5.1656121463e+01   4.6795864903e+01    0.3455555    0.2338294 -17.68  0.001257027    1.760    0.432
       105  -7.8803    177.3084    243.3377   9.0083176347e+01  -1.7775714131e+00    0.1303128   0.08823241   0.50 0.0003455896    1.681    0.405
       106 -13.4544    248.2804     62.4043   4.0689315904e+01   1.7057454595e+01    0.7626001     0.500221 -29.56  0.004272302    1.681    0.405
       107  -8.2836    182.8064     38.0872   4.2851260876e+01   3.4857382709e+01    0.2023661    0.1638108 -68.29 0.0004207678    1.190    0.160
       108  -8.7832    187.1887    224.9272   8.5124579171e+01  -2.8508830315e-01    0.3687555    0.1568208  36.41  0.001584593    2.148    0.534
       109  -8.9825    192.0843     36.0503   4.1092419492e+01   3.2921238874e+01    0.3769105    0.1977236  53.63  0.001204935    1.976    0.494
       110  -9.5895    124.0567     34.1848   5.2089554454e+01   4.9547370952e+01    0.3438113    0.2043695 -22.25 0.0004293341    1.942    0.485
       111  -8.1135    170.0331     32.0070   4.3036491596e+01   3.8698564453e+01    0.1652395    0.1448885  80.15 0.0005180695    1.033    0.032
       112  -9.3006    147.8013     31.3923   4.6446481636e+01   4.4183372147e+01    0.2082168     0.110797  53.23 0.0009530169    1.715    0.417
       113  -8.5967    150.6492     27.6699   4.4826115901e+01   4.3927695158e+01    0.1443331   0.09525462  36.29 0.0007047878    1.770    0.435
       114  -9.3880    198.4650     23.0217   3.7127263880e+01   3.3022815964e+01    0.3176242    0.2393628  32.95  0.000979977    1.869    0.465
       115  -8.2794    152.9320     22.4479   4.2895007850e+01   4.3956445862e+01    0.2056869    0.1199536  67.77 0.0004910117    1.550    0.355
       116  -9.1891    204.3565     17.9103   3.5311931677e+01   3.2257855287e+01    0.4299916    0.2071851  60.32  0.002142575    2.021    0.505
       117  -9.9536    155.4698    209.9013   8.9340334353e+01   7.5810108051e+00    0.2479706    0.2415736 -25.22 0.0004362751    1.131    0.116
       118 -13.3103    249.0004     44.2497   3.6864670408e+01   1.9463585089e+01     0.746318    0.4822495 -37.59 0.0003807186    1.478    0.323
       119  -8.5239    194.9896    199.5131   7.8982002940e+01   2.8800640302e+00    0.1856165     0.117739  57.50 0.0006373822    2.556    0.609
       120  -7.8894     39.4841    194.7236   1.1446817027e+02   2.8379543605e+01    0.1671544    0.1087555 -62.73  0.000778409    1.512    0.339
       121  -8.3563    190.9945    190.7449   7.8126168115e+01   5.1638944515e+00    0.2314057    0.1602547 -80.92 0.0008923158    3.536    0.717
       122  -8.6498    209.0498    126.8484   6.0758664810e+01   1.4070182533e+01    0.2292368    0.1705816  89.64  0.001067578    2.015    0.504
