#   1 NUMBER                 Running object number                                     
#   2 MAG_AUTO               Kron-like elliptical aperture magnitude                    [mag]
#   3 X_IMAGE                Object position along x                                    [pixel]
#   4 Y_IMAGE                Object position along y                                    [pixel]
#   5 X_WORLD                Barycenter position along world x axis                     [deg]
#   6 Y_WORLD                Barycenter position along world y axis                     [deg]
#   7 A_WORLD                Profile RMS along major axis (world units)                 [deg]
#   8 B_WORLD                Profile RMS along minor axis (world units)                 [deg]
#   9 THETA_WORLD            Position angle (CCW/world-x)                               [deg]
#  10 FWHM_WORLD             FWHM assuming a gaussian core                              [deg]
#  11 ELONGATION             A_IMAGE/B_IMAGE                                           
#  12 ELLIPTICITY            1 - B_IMAGE/A_IMAGE                                       
         1 -11.7260      2.1213     43.1232   1.2216160406e+02   6.7903629746e+01    0.5828959   0.08679539 -73.25  0.001872567    4.364    0.771
         2 -12.8474    203.6050     36.2037   5.3659919439e+01   2.9095336611e+01    0.8218135    0.6843944  24.42   0.00442412    1.347    0.258
         3 -13.4639    221.1428     18.8900   4.6815098800e+01   2.6689241148e+01     1.012298    0.8238736  24.29  0.005718668    1.442    0.306
         4 -12.2552      3.0912      5.8449   1.1236109831e+02   7.6451273388e+01    0.7232636    0.2914824 -67.18  0.003520458    2.124    0.529
         5 -11.7891     13.6313      3.6461   1.0268819334e+02   7.6260025570e+01    0.5219682    0.2226266  31.68  0.002568405    2.661    0.624
         6 -11.9868     96.0026    246.3467   1.1611078778e+02   1.5942840473e+01    0.2467345    0.1969124  46.07   0.00205725    1.152    0.132
         7 -13.8272    145.1368    249.0677   1.0773673325e+02   9.2871433728e+00     1.730704    0.2105913  37.93  0.005660149    5.629    0.822
         8 -11.3940    122.8110    231.0562   1.0998098334e+02   1.4545770126e+01    0.2126683    0.1247275  39.29  0.001403279    1.242    0.195
         9 -14.0868     58.2434    212.6378   1.2089252219e+02   2.5608467482e+01     2.890687    0.3689086  52.09  0.007374243    9.641    0.896
        10  -9.6488    222.9257    195.5110   8.7388654768e+01   4.3175423338e+00    0.1746803    0.1518059 -25.77 0.0006861702    1.549    0.354
        11 -12.8393     22.7635    221.6594   1.2809831455e+02   2.7818034406e+01    0.3265312    0.2602122  77.28 0.0007498099    1.291    0.225
        12 -14.3847      9.6908    207.4900   1.3011829880e+02   3.1394421147e+01     2.171777     1.472648 -54.54   0.01474391    2.246    0.555
        13 -11.2725     52.6862    190.7073   1.2059423446e+02   3.0131432367e+01    0.2184102    0.2065281 -57.88  0.001121364    1.460    0.315
        14 -10.2364     70.9176    250.5256   1.2077566527e+02   1.8349233287e+01    0.1592943   0.07132035  38.12 0.0009152799    1.583    0.368
        15 -11.5039     59.6827    183.1793   1.1850118866e+02   3.0734232431e+01    0.2165227    0.2018842  58.48 0.0004445771    1.252    0.201
        16 -10.4939     71.1172    171.5571   1.1484099282e+02   3.1572381997e+01    0.2079816    0.1799265  71.08 0.0003592789    1.096    0.087
        17 -12.7002     57.2897    168.6886   1.1782879481e+02   3.3876805015e+01     0.441409    0.2714967 -47.06  0.002445686    2.271    0.560
        18 -11.4520     79.2861    163.6165   1.1203874206e+02   3.2069080880e+01     0.473722    0.4059969  29.14  0.003060178    1.315    0.240
        19 -14.3361     29.0934    214.7966   1.2666417571e+02   2.8349579345e+01    0.9052609    0.8688982   4.25  0.006650304    1.619    0.382
        20  -9.7256     93.6142    148.6644   1.0652255893e+02   3.3049041969e+01    0.2601103    0.2063259  59.09 0.0008328913    1.157    0.136
        21 -11.7023     81.8421    147.2492   1.0933332979e+02   3.5117558231e+01    0.2591053    0.2330858 -66.69  0.000635095    1.227    0.185
        22 -10.5670     23.3235    147.9569   1.2460288670e+02   4.1809693750e+01    0.1728531    0.1308072  82.12  0.001104591    1.121    0.108
        23 -11.8963     67.7952    143.6958   1.1254816190e+02   3.7842013366e+01    0.6507888    0.3528989  58.54  0.002747013    1.863    0.463
        24  -9.4007    107.0557    134.3630   1.0071782750e+02   3.3853117259e+01    0.2414363     0.197556 -26.10  0.001224056    1.566    0.362
        25  -9.9980     93.7400    131.7942   1.0379850615e+02   3.6638615038e+01    0.2064761    0.1987512   9.95 0.0004515201    1.220    0.180
        26  -9.0236    104.9751    122.2346   9.8967916157e+01   3.6817736787e+01    0.1895111    0.1684028  49.43 0.0002326568    1.069    0.064
        27  -8.9174     97.1366    144.8257   1.0504260483e+02   3.3298157733e+01    0.1716234    0.1571991  13.41 0.0003601562    1.304    0.233
        28  -8.9115    167.4674    112.4770   8.1404833685e+01   2.6154441780e+01    0.1433166    0.1397328  59.91 9.432064e-05    1.118    0.106
        29 -13.1261     97.6968    228.3839   1.1442346227e+02   1.8261897336e+01     1.164656   0.04248343  41.33  0.003642603    5.726    0.825
        30 -10.6730    229.0168    249.0080   9.4067657937e+01  -1.5265242647e+00    0.1610131    0.1055723  21.44 0.0005938219    1.007    0.007
        31 -10.5830     59.6352    248.1084   1.2260666732e+02   1.9952245756e+01    0.2385864     0.130824 -46.72  0.001486175    3.559    0.719
        32 -15.5510      7.1213    243.0033   1.3138552293e+02   2.5897353999e+01     10.19222     1.800686 -84.57   0.04607209    5.992    0.833
        33 -10.9861     84.1452    247.8474   1.1830544006e+02   1.7176829981e+01    0.1679442    0.1011218  51.39 0.0008554513    1.249    0.199
