#   1 NUMBER                 Running object number                                     
#   2 MAG_AUTO               Kron-like elliptical aperture magnitude                    [mag]
#   3 X_IMAGE                Object position along x                                    [pixel]
#   4 Y_IMAGE                Object position along y                                    [pixel]
#   5 X_WORLD                Barycenter position along world x axis                     [deg]
#   6 Y_WORLD                Barycenter position along world y axis                     [deg]
#   7 A_WORLD                Profile RMS along major axis (world units)                 [deg]
#   8 B_WORLD                Profile RMS along minor axis (world units)                 [deg]
#   9 THETA_WORLD            Position angle (CCW/world-x)                               [deg]
#  10 FWHM_WORLD             FWHM assuming a gaussian core                              [deg]
#  11 ELONGATION             A_IMAGE/B_IMAGE                                           
#  12 ELLIPTICITY            1 - B_IMAGE/A_IMAGE                                       
         1 -15.1336    245.3256     99.1734   4.6051510685e+01   1.2527085629e+01     5.411736     2.357125 -38.42   0.01033958    1.980    0.495
         2 -15.1486    227.3936     51.7549   3.8131037826e+01   2.3357644158e+01      3.51468      2.66745  88.30     0.021982    1.277    0.217
         3 -14.2232    237.3077     64.1699   3.9699469776e+01   1.9565939963e+01     2.157714     1.534977   6.76  0.008749083    3.129    0.680
         4 -14.4583    245.0975     38.5623   3.3761402176e+01   2.1629741545e+01     3.245404     1.230459 -46.41   0.01011314    2.076    0.518
         5 -13.9865    248.5217     59.7123   3.7644348719e+01   1.8066290084e+01     2.139032    0.5065849 -35.71  0.004976158    4.373    0.771
         6 -14.4207    231.4138     77.9436   4.3299403995e+01   1.8607954323e+01     3.459694     1.241613  56.10  0.003940154    3.063    0.673
         7 -11.1733    200.7474     24.5632   3.4869297276e+01   3.2607388315e+01    0.4703735    0.3544679   8.06  0.002659639    2.272    0.560
         8 -10.4689    211.4070     19.0043   3.2621694562e+01   3.0924792752e+01    0.5232432    0.1966389 -33.34  0.002412769    2.711    0.631
         9 -10.8711    219.8557     16.8058   3.1439647817e+01   2.9383909278e+01    0.3620107     0.237731 -63.47  0.002124494    1.282    0.220
        10 -10.4670    218.7330     12.4680   3.0626922785e+01   3.0102682746e+01    0.2642337    0.2141719 -16.25  0.001291483    1.797    0.443
        11  -8.7748    191.3894     12.2593   3.2950270304e+01   3.6061288914e+01    0.2109375    0.1205438 -25.90 0.0008918224    2.148    0.534
        12 -10.2805    202.9386     14.5770   3.2403934691e+01   3.3254515884e+01    0.3133559    0.2327355 -31.55  0.001991855    1.575    0.365
        13  -9.2506    206.6532      6.6518   3.0351793861e+01   3.3286023369e+01    0.2540772     0.183635  19.38  0.001468733    2.539    0.606
        14  -9.0686    189.9210      6.1515   3.1667872447e+01   3.7009410691e+01    0.2009869    0.1512695  26.15  0.001084008    2.056    0.514
        15 -13.0808    244.4666     30.2524   3.2189496459e+01   2.2815121368e+01     0.732705    0.4624206 -51.74  0.002850831    1.282    0.220
        16 -12.8483    250.3255     27.1468   3.1154570625e+01   2.2081254952e+01    0.8854436    0.1804146 -38.24  0.001110617    3.711    0.731
        17 -10.3298      6.6568    148.1025   1.1546664739e+02   4.2940022162e+01    0.2219791    0.1684174  50.62  0.001338311    1.421    0.296
        18 -12.6690    248.1140    246.3195   7.3755711115e+01  -1.1604946631e+01     1.216002    0.8592035  16.83  0.008559383    1.306    0.234
        19 -10.1575    230.1568    249.8662   7.7486824904e+01  -1.0028429593e+01    0.2183791      0.14333  16.96  0.001152512    1.313    0.239
        20  -9.5904    244.1760    211.7749   6.8505216055e+01  -6.2228158915e+00    0.1727655    0.1397729 -76.85 0.0009508494    2.826    0.646
        21  -8.9002      2.3201    140.6728   1.1593959482e+02   4.5100133003e+01    0.1338127   0.08410125  68.54 0.0007047274    1.684    0.406
        22 -10.2273    227.2601    137.8719   5.6838103926e+01   8.9970615575e+00    0.3683805    0.1767179 -31.76   0.00154331    2.180    0.541
        23  -8.9984    213.4881    137.4815   5.9090157217e+01   1.1567245271e+01    0.3072991    0.1262686 -41.75  0.001204777    2.146    0.534
        24  -8.7486    196.9663    137.9215   6.2229890421e+01   1.4638439587e+01     0.235946    0.1797248 -74.45  0.001132181    1.755    0.430
        25 -10.4045      5.4942    135.9938   1.1451838715e+02   4.6077512353e+01    0.5155854     0.166233  44.96  0.001975885    3.628    0.724
        26 -10.0508    220.7626    135.5089   5.7408930606e+01   1.0598059574e+01    0.2735863    0.1791014 -39.69  0.001200683    1.330    0.248
        27  -9.2266    212.5824    132.3532   5.8120005981e+01   1.2711676598e+01    0.2830955    0.1222603 -45.03 0.0008297345    2.088    0.521
        28  -9.6493    203.8632    130.6862   5.9302264992e+01   1.4711818627e+01    0.3923978     0.170623 -53.58   0.00138389    2.851    0.649
        29  -9.9372    217.0264    129.8772   5.6810871328e+01   1.2339930878e+01    0.3285945     0.181563 -37.89  0.001295723    1.628    0.386
        30  -8.9301    219.1087    150.2127   6.0843769098e+01   8.1469907342e+00    0.2674806    0.1699501 -60.58  0.001153405    2.111    0.526
        31  -8.8699     11.4925    129.4509   1.1191894734e+02   4.7333239794e+01    0.1334293    0.1108929 -69.78 6.553646e-05    1.006    0.006
        32 -12.3472    223.3360     59.2526   4.0198368722e+01   2.3111854305e+01    0.8132257    0.5271112 -88.77  0.004427236    1.684    0.406
        33 -10.6121    220.1587    125.1969   5.5262015991e+01   1.2620719103e+01    0.3273593    0.1916508 -38.64  0.001566295    1.513    0.339
        34 -10.6284    220.3498    115.3498   5.3060022389e+01   1.4386782980e+01    0.3542758     0.210115 -56.00  0.001343386    1.789    0.441
        35  -9.5189    197.7446    131.1369   6.0539921193e+01   1.5831765992e+01    0.3367506    0.2269608   5.94  0.001390671    2.539    0.606
        36  -8.8913      7.3231    124.6591   1.1261314273e+02   4.8820190693e+01    0.1347488   0.08860344  69.55 0.0007050777    1.725    0.420
        37 -10.2642    212.3941    121.1148   5.5645648346e+01   1.4867824819e+01    0.3741258    0.2268762 -57.23  0.001707036    1.836    0.455
        38  -8.5981    205.2245    122.2010   5.7129934743e+01   1.6077813076e+01    0.2008477    0.1635686 -67.24  0.001061494    1.353    0.261
        39  -8.7982    199.3295    121.0301   5.7917945539e+01   1.7490710162e+01    0.3411067    0.1253999 -41.47  0.001215892    2.469    0.595
        40  -9.5794    186.5767    118.8452   5.9807243364e+01   2.0564461860e+01    0.4329205    0.2684441 -71.83  0.001659522    2.674    0.626
        41 -10.8065      2.2920    116.3837   1.1316906749e+02   5.1186494118e+01    0.5052603   0.09302222 -70.15  0.001611515    3.913    0.744
        42  -8.6671    202.5537    116.8122   5.6362301535e+01   1.7644097808e+01    0.2168232    0.1237177 -51.12 0.0009478431    1.724    0.420
        43  -9.5658    190.4520    115.1416   5.8177445134e+01   2.0477210078e+01    0.3698379    0.2262349 -61.16  0.001563943    2.011    0.503
        44  -8.4095    218.2849    119.6255   5.4338128097e+01   1.4002922942e+01    0.1461508    0.1003588 -63.91 0.0004026865    1.714    0.417
        45  -9.0889    204.0960    106.1662   5.3620262130e+01   1.9323659671e+01    0.3279791     0.183658 -46.87  0.001301044    1.631    0.387
        46 -11.5525      3.8636    104.8893   1.1104982859e+02   5.3935387675e+01    0.4951109    0.2672482 -50.38    0.0026113    1.538    0.350
        47 -10.0469    198.7269     93.9383   5.1624668354e+01   2.2685516022e+01    0.7240419    0.1592918 -42.76  0.002111407    3.960    0.747
        48 -13.7645    247.8458     83.1922   4.2462107446e+01   1.4647776679e+01      1.35092    0.7491369 -34.08  0.003130435    1.788    0.441
        49 -10.2511    189.9721     99.9722   5.4596986245e+01   2.3480792945e+01    0.4994023    0.2402077 -55.65  0.001867095    2.520    0.603
        50 -10.5526    199.0573    101.9591   5.3483553761e+01   2.1157470044e+01    0.6190528    0.1856138 -41.84  0.002056319    2.984    0.665
        51 -11.3054      4.6431     85.8261   1.0759990427e+02   5.8461949499e+01    0.6342475    0.3144817  71.45  0.002382335    4.342    0.770
        52  -9.8785    176.8745     73.2243   5.0165453310e+01   3.1186051647e+01    0.4466154     0.200809 -54.11  0.001653571    2.674    0.626
        53 -10.4850    181.6483     77.1357   5.0348261988e+01   2.9428119822e+01    0.3405629    0.2833181 -70.35  0.001094827    1.194    0.163
        54 -10.4041    187.4169     87.1941   5.1892433085e+01   2.6373485255e+01     0.490448    0.1728905 -40.19   0.00169376    2.643    0.622
        55  -9.2033    184.7473     82.3525   5.1139708966e+01   2.7825359307e+01    0.3468019     0.185831 -52.04  0.001476082    1.910    0.476
        56  -9.0716    237.2222    210.3936   6.9463843504e+01  -5.1116645877e+00    0.1598423    0.1131478  36.59 0.0009586998    1.671    0.402
        57 -10.0976    241.2796    204.8422   6.7746161675e+01  -4.7718655203e+00     0.239617    0.1651489 -46.92  0.001392602    1.729    0.422
        58 -12.1149    250.4842     45.4482   3.4652608578e+01   1.9688572415e+01    0.2918531    0.1536342 -35.69 5.085501e-05    1.881    0.468
        59 -10.0209    182.0310     85.9229   5.2520957158e+01   2.7811167976e+01    0.3400467    0.1996638 -50.84  0.001517922    1.685    0.406
        60 -10.0819    178.5221     81.2305   5.1949111475e+01   2.9437808030e+01    0.4404806    0.1950415 -53.18  0.001607555    2.647    0.622
        61 -10.3231    239.4787    200.2093   6.7203604771e+01  -3.7933265742e+00    0.2820968    0.1742491  -0.06  0.001484868    1.922    0.480
        62  -9.8585    187.3497     77.3092   4.9430986902e+01   2.8101299559e+01    0.3326259    0.1663774 -39.35  0.001424338    1.910    0.476
        63 -12.7597    242.9374     48.4542   3.5916463523e+01   2.0719251906e+01    0.4125825    0.3360361  84.97 0.0003932007    1.259    0.206
        64  -9.7603      4.4993     70.4751   1.0454790128e+02   6.1971709952e+01     0.127403   0.09932932 -44.58 0.0001262154    1.020    0.019
        65 -10.2405    185.0316     67.7380   4.7393665049e+01   3.0204195132e+01    0.3024203    0.2440163  -5.35  0.001588008    1.724    0.420
        66 -10.4185    168.4270     67.1051   5.0041004300e+01   3.4163833818e+01    0.3794821    0.1858006 -44.32  0.001594001    2.000    0.500
        67  -8.6155    180.7650     66.2521   4.7702055173e+01   3.1423812086e+01    0.2126701    0.1614737  21.26 0.0008714493    1.942    0.485
        68  -9.2691    177.5806     64.0047   4.7642019220e+01   3.2518256706e+01    0.2104536    0.1332691 -38.28 0.0004569306    1.576    0.366
        69  -9.4873      2.4846     64.4839   1.0407364568e+02   6.3391030386e+01      0.12486   0.09807405 -43.72  -3.3293e-06    1.004    0.004
        70  -9.7083    162.1890     60.1342   4.9265706542e+01   3.6740884228e+01    0.2766179    0.1767364  -9.07  0.001143702    2.680    0.627
        71  -9.0828    182.4897     60.3694   4.5917300377e+01   3.1943053418e+01    0.2350871    0.1272024  62.39  0.001070656    1.829    0.453
        72 -10.4272    172.6544     59.0822   4.7162073345e+01   3.4432811980e+01    0.2798455    0.2284722 -83.22  0.001403592    1.232    0.188
        73 -10.8500    181.2431     50.4765   4.3572173061e+01   3.3693550665e+01    0.3650807    0.3003307 -45.50  0.002124331    1.218    0.179
        74  -9.4562      3.2466     56.9864   1.0188333033e+02   6.4949019179e+01    0.1607466   0.08678862 -57.86 0.0004932667    1.566    0.362
        75 -10.4516    167.9085     52.5180   4.6188664852e+01   3.6529344037e+01    0.3514304    0.1857231 -39.09  0.001505153    1.884    0.469
        76 -10.1096    161.8231     52.5622   4.7232837229e+01   3.7965908985e+01    0.3131662    0.2156297 -22.53   0.00155083    1.784    0.439
        77 -10.3354    171.9524     45.2829   4.3605994834e+01   3.6594679471e+01     0.411262    0.2157768 -23.10  0.001758008    2.599    0.615
        78  -8.7305    157.3262     47.6555   4.6642398021e+01   3.9737003782e+01    0.1480556     0.100537 -71.23 0.0007050619    1.742    0.426
        79 -10.3978    177.8431     43.8202   4.2351660851e+01   3.5410707128e+01    0.3523903    0.1864154 -38.93  0.001676655    1.868    0.465
        80 -10.0624    185.0519     41.3304   4.0721697827e+01   3.4069224294e+01    0.2644361    0.1824393 -47.53   0.00139098    1.394    0.282
        81 -10.1160    179.0726     37.6474   4.0590891658e+01   3.5937629475e+01    0.3477773    0.1553148  69.82  0.001512149    2.196    0.545
        82  -8.9082    246.6385    197.2903   6.5443031112e+01  -4.2823963348e+00    0.1083417   0.09925509 -64.07 0.0007026709    1.695    0.410
        83  -9.5774    193.0362     35.9636   3.8397253571e+01   3.2940292639e+01      0.30065    0.1846037  49.43  0.001559881    1.913    0.477
        84 -10.1918    197.0412     31.7983   3.6943525989e+01   3.2560674208e+01     0.352773    0.1945447 -39.99  0.001682404    1.748    0.428
        85  -7.7525    220.6618    164.3230   6.3513534813e+01   5.2568695173e+00    0.1323257    0.1081281 -71.64 0.0007050866    1.718    0.418
        86  -9.5034    171.2959     35.0386   4.0987543770e+01   3.8090637742e+01    0.1897731    0.1663649 -59.76  0.001018039    1.132    0.116
        87 -10.3550    187.7251     32.3713   3.8162048592e+01   3.4602583358e+01    0.3365015    0.2644623   5.59  0.001907545    1.955    0.488
        88  -9.4968    188.5471     27.1615   3.6795229691e+01   3.5045234258e+01    0.3486862    0.2142112  30.70  0.001619227    2.933    0.659
        89  -9.4918    202.4449     30.3867   3.6028975174e+01   3.1530739149e+01    0.2198992    0.1285065  46.62  0.000814051    2.269    0.559
        90 -10.7352    230.1336    145.9214   5.8063084817e+01   7.0332361128e+00    0.5542739    0.1912652 -48.22  0.001979152    3.038    0.671
        91  -8.2088    212.4599    154.2315   6.2891906011e+01   8.5597518359e+00    0.2025238     0.123267 -50.21 0.0009414678    1.677    0.404
        92 -11.1630    249.5551    191.2313   6.3830598955e+01  -3.7026950479e+00    0.6107992    0.1727857 -42.73   0.00232714    3.247    0.692
        93 -11.2424    243.6533    183.1815   6.3282558007e+01  -1.5809354201e+00    0.5918965    0.1438401 -42.87  0.002025577    3.743    0.733
        94  -8.9725      5.2945    153.6228   1.1637991499e+02   4.1644681694e+01    0.1386805   0.08189391  70.54 0.0007023044    1.745    0.427
        95  -8.0705    193.4700     24.4674   3.5605266628e+01   3.4245296174e+01    0.1265051    0.1069684 -82.33 0.0001742723    1.017    0.016
        96  -8.2261    213.6585    189.3271   6.9818746630e+01   1.8194005057e+00    0.1256806    0.1102411 -80.36 0.0005079178    1.737    0.424
        97  -9.7908    250.2047    177.9784   6.1215476502e+01  -1.6379126546e+00    0.2333679     0.155176 -33.83  0.001059035    1.227    0.185
        98  -8.7917    196.4823     14.0299   3.2874592834e+01   3.4737277173e+01    0.1515592    0.1073264  13.20 0.0008102208    2.572    0.611
        99  -9.0098    250.5015    174.5047   6.0500944683e+01  -1.1057836713e+00    0.2257982    0.1046972 -38.77 0.0007530494    1.776    0.437
       100  -8.9960    175.3948     24.3650   3.7665517803e+01   3.8403592307e+01    0.2247447    0.1287462 -25.05  0.001070465    2.138    0.532
       101 -10.5614    245.6220    174.3219   6.1249734515e+01  -3.8004083220e-01    0.3597299    0.1779165 -42.19  0.001773141    1.766    0.434
       102 -10.9700    249.8649    219.5520   6.8917991342e+01  -8.0867523596e+00    0.5060453     0.162042 -42.01  0.002160011    3.075    0.675
       103  -7.9970    186.3202    148.6485   6.6766440445e+01   1.4538549388e+01    0.1511025     0.118508 -77.90 0.0007047789    1.745    0.427
       104  -9.9747    219.1684    144.6533   5.9649402977e+01   9.1779621535e+00     0.299677    0.2040985 -60.82  0.001460429    1.825    0.452
