#   1 NUMBER                 Running object number                                     
#   2 MAG_AUTO               Kron-like elliptical aperture magnitude                    [mag]
#   3 X_IMAGE                Object position along x                                    [pixel]
#   4 Y_IMAGE                Object position along y                                    [pixel]
#   5 X_WORLD                Barycenter position along world x axis                     [deg]
#   6 Y_WORLD                Barycenter position along world y axis                     [deg]
#   7 A_WORLD                Profile RMS along major axis (world units)                 [deg]
#   8 B_WORLD                Profile RMS along minor axis (world units)                 [deg]
#   9 THETA_WORLD            Position angle (CCW/world-x)                               [deg]
#  10 FWHM_WORLD             FWHM assuming a gaussian core                              [deg]
#  11 ELONGATION             A_IMAGE/B_IMAGE                                           
#  12 ELLIPTICITY            1 - B_IMAGE/A_IMAGE                                       
         1 -10.1220     74.3738     11.2909   4.7112372977e+01   6.3100205791e+01    0.7238306    0.4618805 -58.50  0.003237027    3.471    0.712
         2 -10.0401     75.3904     20.5620   5.0862584200e+01   6.1701602671e+01    0.3735745    0.2440232 -37.30  0.001192459    1.564    0.361
         3 -12.3568    163.4838     42.5252   3.5849093085e+01   3.9097966281e+01    0.7811549    0.5185148 -83.18  0.003211268    2.221    0.550
         4 -11.7490    152.6239     34.8019   3.5488730476e+01   4.2976457694e+01       1.1261    0.7002079 -79.89  0.004095765    2.774    0.640
         5 -10.7703     64.9244     22.8960   5.5611607103e+01   6.3033252927e+01    0.6902032    0.3546676 -48.47  0.003210538    2.578    0.612
         6 -10.3984     46.0327     29.1338   6.5468571296e+01   6.4548308664e+01    0.6448164    0.3709476   4.71  0.002861804    2.393    0.582
         7 -11.8640     17.3276     26.6338   7.6616626812e+01   6.7663442319e+01     1.036258    0.6024388   5.00  0.006500472    2.063    0.515
         8 -12.2711     45.9824      9.2920   5.7016669507e+01   6.7638121364e+01    0.3282607    0.2442798 -14.36 0.0003188323    1.084    0.077
         9  -9.7202     48.1791      2.4603   5.2793556367e+01   6.8253105487e+01    0.2089254    0.1389834 -22.25 0.0002455851    1.277    0.217
        10 -10.6625      7.1100     22.2803   7.9693505748e+01   6.9103650509e+01    0.3971573    0.2224472 -38.59  0.001822987    1.362    0.266
        11 -10.8670     35.1260      9.8861   6.2001888940e+01   6.8842416817e+01    0.5607604    0.3801722  49.76  0.003335755    2.606    0.616
        12 -11.4226     35.9140      2.8776   5.8317150056e+01   6.9750092955e+01    0.9350056    0.4330431  39.08  0.005104678    2.586    0.613
        13 -12.0368     35.5389     19.0546   6.5811348229e+01   6.7375237481e+01    0.8813177    0.4883735   2.54  0.003151353    2.418    0.586
        14 -11.5613     28.7531     17.8258   6.8286855832e+01   6.8246463398e+01    0.6763655    0.2890316 -27.63  0.003196826    2.620    0.618
        15 -12.6834     15.3380     13.6847   7.2781686787e+01   7.0055325413e+01    0.6254252    0.3414644  -5.13 0.0009767205    2.188    0.543
        16 -11.9121      8.5715      8.2426   7.3871337522e+01   7.1427621275e+01    0.8191798    0.3453324 -23.69  0.004249936    2.733    0.634
        17 -11.7631      3.0965      3.6410   7.4747837104e+01   7.2520113451e+01    0.5523528    0.3248689  18.65  0.002736862    1.975    0.494
        18 -11.5009     55.6664     19.1272   5.7523540816e+01   6.4931109054e+01    0.5767902    0.3262932   4.84  0.002539509    2.505    0.601
        19 -11.6786     58.2465     13.1891   5.3872913785e+01   6.5418985491e+01    0.6348793    0.3659976  45.82  0.003473467    2.136    0.532
        20 -10.9447    170.1222     32.3995   3.1297855512e+01   3.8731416367e+01    0.6951029    0.3862338  -7.57  0.001969717    2.591    0.614
        21 -11.0954    236.0393     29.5706   2.1054886462e+01   2.1796062591e+01    0.5873167    0.3917458 -27.82   0.00222555    1.551    0.355
        22 -11.4146    238.8511     21.0677   1.8605357955e+01   2.2129799984e+01    0.6240218    0.4627312 -20.35  0.002773489    1.526    0.345
        23 -10.9129    236.4059     16.7645   1.7775457796e+01   2.3235202854e+01    0.3710042    0.2856624  59.91  0.001104491    1.336    0.252
        24 -11.1499     24.2007     12.1811   6.8004778717e+01   6.9575896512e+01    0.3680703    0.2072369 -49.46 0.0003399977    1.802    0.445
        25  -9.7574    221.7036     15.7858   1.9062815214e+01   2.7060999772e+01    0.3475205    0.2621951  55.63  0.001055398    1.352    0.260
        26 -10.6808    164.4432     22.0651   2.8932486806e+01   4.1499448143e+01    0.4480972    0.3123782  25.51  0.001614119    1.662    0.398
        27  -9.9930    212.1077     22.2195   2.1921642524e+01   2.8811646021e+01    0.2872088    0.2677507  -8.63 0.0006056877    1.220    0.180
        28 -12.0647    111.3849     19.2793   3.9387439291e+01   5.4837843181e+01    0.5791407    0.3929926  -4.49  0.002715676    1.599    0.375
        29 -11.1382    151.9551     17.6590   2.9709258829e+01   4.5252818085e+01    0.7387579     0.470801  34.68  0.001722645    1.655    0.396
        30 -10.1008    152.8089      3.2447   2.4554139117e+01   4.6476964913e+01    0.5345129    0.3134637  11.85    0.0023779    2.220    0.550
        31 -10.3476    156.6113      9.7704   2.6156288336e+01   4.4874663772e+01     0.294867    0.2189624 -29.30  0.001066385    1.453    0.312
        32 -10.5630    153.0876      9.5330   2.6682838350e+01   4.5811367422e+01    0.3403364    0.2626693  65.36 0.0008077511    1.213    0.175
        33  -9.9468     85.8740     14.3595   4.4691641117e+01   6.0648998556e+01    0.3760129    0.2855617 -88.48  0.001733657    2.596    0.615
        34 -10.4986     81.0183     19.2588   4.8393236411e+01   6.0905257008e+01    0.3716029    0.1848773 -34.88  0.001787534    1.955    0.488
        35 -10.3304    230.9683     14.3649   1.7716856076e+01   2.4865458620e+01    0.3324754    0.2458739  44.77  0.001778426    1.557    0.358
        36 -10.5269      1.8308     21.3129   8.1770066241e+01   6.9561570399e+01    0.3359527    0.1075589 -54.18  0.001765627    2.145    0.534
        37  -9.6959     98.2542      7.5573   3.8053668633e+01   5.8973933958e+01    0.5110573    0.1909678  55.22  0.001935057    2.648    0.622
        38 -11.1366    100.7992     16.3605   4.1081501233e+01   5.7452946945e+01    0.6582107    0.4379855   6.93  0.003375869    1.653    0.395
        39 -11.2376     93.2925      9.8796   4.0474625007e+01   5.9734816653e+01    0.6307505    0.4054198  57.68  0.001811059    1.771    0.435
        40 -11.3655     89.7348      3.0027   3.8460961976e+01   6.1174928298e+01    0.4246893    0.3165551  45.59  0.001289179    1.303    0.233
        41  -9.2238    176.2962     12.2923   2.3852057870e+01   3.9429816776e+01    0.4164909    0.2733077 -75.67 0.0002887048    1.858    0.462
        42 -12.5317    187.1078     13.6772   2.2728936746e+01   3.6401108790e+01    0.4619135    0.3914856  12.07 0.0003751596    1.371    0.271
        43 -11.7986    182.5183     12.9235   2.3143515546e+01   3.7705588903e+01    0.4570767    0.3431674 -12.67   0.00128502    1.534    0.348
        44  -9.9653    116.8971      8.6784   3.3745267867e+01   5.4777451120e+01    0.2574733    0.2175337  79.58 0.0005436687    1.448    0.309
        45 -10.1528    138.7473      2.3062   2.6689244939e+01   5.0131170641e+01    0.8671632    0.2845241  68.34  0.002922192    3.310    0.698
        46 -11.9910    122.2909     11.5492   3.3626056818e+01   5.3230970691e+01    0.6423534    0.3034154  38.10  0.001276377    2.135    0.532
        47 -12.1411    127.8667      4.7431   2.9752402810e+01   5.2579161688e+01     0.427834    0.3641491  79.91  0.001387136    1.341    0.254
        48 -10.1595    131.5475     13.1715   3.2189200381e+01   5.0851483268e+01    0.3609396    0.2034474  51.18  0.001197767    1.575    0.365
        49 -10.2795    142.6900     10.8665   2.9065173026e+01   4.8331940418e+01    0.3968767    0.2759758 -65.76  0.001330608    1.926    0.481
        50  -9.9796    211.5145      6.4513   1.7672125677e+01   3.0702025451e+01    0.2763616    0.2389204 -84.09 0.0009810983    1.063    0.060
        51  -9.9190    238.6161      7.3846   1.5242385581e+01   2.3731733720e+01    0.3777107    0.1789384 -53.74   0.00167155    2.110    0.526
        52 -10.6171    208.4692     10.3680   1.9081919153e+01   3.1089735115e+01    0.4426841    0.2729185  48.76 0.0009554866    1.695    0.410
        53 -10.7205    167.9941      5.8497   2.3031977374e+01   4.2270683026e+01    0.4350204    0.3214158 -15.06  0.001702129    1.525    0.344
        54 -11.2929    216.9353      6.2562   1.7047325270e+01   2.9317355226e+01    0.5415804    0.4063373   8.53   0.00124249    1.777    0.437
        55  -8.7764    178.8691      6.7773   2.1759366902e+01   3.9299891988e+01    0.1927696    0.1666134  77.39 0.0002279837    1.078    0.073
        56  -8.8655    175.5231      4.8634   2.1628051601e+01   4.0371940000e+01    0.1932684    0.1829857 -45.26  0.001139936    1.149    0.130
        57  -9.7495     78.0054      6.2032   4.3557063336e+01   6.3061210531e+01    0.2796988    0.2451227 -38.07  0.001813221    1.459    0.314
        58 -10.1184    198.5293      3.4681   1.8291049438e+01   3.4404964910e+01    0.5007037    0.2762929 -65.26  0.002175086    2.147    0.534
        59  -9.6371    195.1933      1.6283   1.8150847703e+01   3.5461608485e+01    0.3268628     0.187095  62.75 0.0009119618    1.549    0.355
        60 -10.6427    105.6418      2.9149   3.4111223967e+01   5.7862221735e+01    0.5379112    0.3622208  88.53  0.002556214    2.528    0.604
        61 -10.4121    244.6717      1.9385   1.3412834928e+01   2.2837000815e+01    0.6475971    0.2466071  82.31  0.002538417    2.876    0.652
        62  -9.5896    204.8344      2.9845   1.7447907892e+01   3.2794233489e+01    0.3868267    0.1922435  43.20   0.00162374    2.364    0.577
        63  -9.2946    230.1424      1.9882   1.4671760394e+01   2.6398296321e+01    0.2161787    0.1554373 -65.89 0.0006652327    1.316    0.240
        64 -10.6097    118.1964      1.4797   3.0547467206e+01   5.5162873448e+01    0.3259268    0.1537751  65.03 0.0007873399    2.223    0.550
        65  -9.2058     64.0107      1.8332   4.6315221273e+01   6.5956133565e+01    0.2058687     0.160326  33.67  0.001020722    1.308    0.235
        66  -9.8181    112.5046    101.4545   6.6305690115e+01   4.0009363809e+01    0.2489267    0.2241794  37.78 1.852273e-05    1.169    0.144
        67  -8.3975    143.3074    250.6560   8.4661760163e+01   6.2199107698e+00    0.1154283   0.07268438  65.99 0.0007043289    1.694    0.410
        68 -11.6895     80.5971    103.2432   7.5536268159e+01   4.5048162771e+01    0.3126966     0.269838   0.81 0.0006378293    1.456    0.313
        69  -8.8908     21.3373    105.1152   9.2376975494e+01   5.1217821361e+01     0.166826    0.1222435 -75.21 0.0006535717    1.085    0.079
        70  -9.6515      1.5528    104.7282   9.7522063789e+01   5.2630455479e+01    0.1912202   0.09989404 -75.21 0.0003507806    1.435    0.303
        71 -10.5352     67.9717    104.1502   7.9284180102e+01   4.6617618842e+01    0.4174537    0.1740827  26.92  0.001621234    3.513    0.715
        72  -9.9146     61.8138    104.2286   8.1034028845e+01   4.7388094618e+01    0.1949035    0.1581625 -78.01  0.001177832    1.180    0.152
        73 -10.1108     45.9421    102.5779   8.5195288654e+01   4.9565048946e+01    0.3357824    0.1751152 -72.23 0.0009220997    1.861    0.463
        74  -9.0325     52.9849    100.7173   8.2851594575e+01   4.9217907725e+01    0.1618283    0.1586567 -78.66 0.0005904045    1.169    0.144
        75 -11.2963    101.6189     97.8592   6.8365099242e+01   4.2798796395e+01    0.2525907    0.2462444 -73.36 0.0001930116    1.037    0.035
        76 -10.1275     96.9857     95.6516   6.9101669650e+01   4.4090648064e+01    0.6123813    0.2343359 -45.15  0.002267464    2.540    0.606
        77  -9.6448     68.1108     99.1641   7.8192510001e+01   4.7713677730e+01    0.2409728     0.191933 -46.46 0.0005309338    1.210    0.174
        78  -9.7198     70.2045     96.0456   7.6898858450e+01   4.8126716075e+01    0.3776314    0.2607154  73.73  0.001917068    1.973    0.493
        79 -10.5237     36.7532     96.5782   8.6747521342e+01   5.1798648074e+01    0.3915476    0.2513999  73.66  0.001104518    1.972    0.493
        80 -10.1211    109.1947     96.5198   6.5930479511e+01   4.1698880828e+01     0.388666    0.2394454  44.68  0.001419755    1.687    0.407
        81 -10.6507    116.4936     97.8763   6.4308658491e+01   4.0001007031e+01    0.4167377    0.2748746  57.74  0.001778521    1.737    0.424
        82  -8.5265    117.3178     94.3263   6.3140172998e+01   4.0589119435e+01    0.2577591    0.1493444  33.60  0.001068195    2.036    0.509
        83  -8.1377     63.6821     98.7449   7.9379848542e+01   4.8380245900e+01    0.1238751   0.09566996 -29.55 0.0002053756    1.535    0.348
        84 -10.3140     25.4599    115.1887   9.2653641273e+01   4.8677788901e+01    0.5537096    0.1315293 -59.51  0.002102731    2.971    0.663
        85  -9.4103     26.9683     96.9852   8.9613681594e+01   5.2556364857e+01    0.1722069    0.1609981 -88.31 0.0004348615    1.193    0.162
        86  -8.8346     23.2329     96.0161   9.0519923969e+01   5.3063481024e+01    0.1665417    0.1202579 -86.24 0.0008475601    1.312    0.238
        87 -10.1109     16.5830     95.4754   9.2313947939e+01   5.3667982058e+01    0.2652875    0.1651583 -85.78  0.001215173    1.526    0.345
        88  -9.5809    147.1826     96.1794   5.5991794601e+01   3.3761777512e+01      0.25936    0.2013305  46.32 0.0003053482    1.279    0.218
        89 -11.2225    137.8529     93.3548   5.7515816653e+01   3.6444390681e+01     1.014436    0.3489795 -34.25  0.002837471    4.102    0.756
        90 -10.3952    120.6531     87.3697   6.0312714833e+01   4.1359650940e+01     0.365568    0.2711853 -63.61  0.001277297    1.574    0.365
        91 -10.2895    124.1688     85.8895   5.8946708253e+01   4.0928614102e+01    0.3526231    0.2950105 -82.99  0.001305602    1.459    0.314
        92 -10.1606    126.3260     91.3363   5.9919898684e+01   3.9360668101e+01     0.275194    0.2613783 -20.00 0.0003549795    1.081    0.075
        93 -12.3546    131.3235     85.9968   5.7095212827e+01   3.9368609518e+01    0.6355608    0.3548458  34.91 0.0003083611    2.113    0.527
        94  -8.5655     61.2755     96.3270   7.9566694865e+01   4.9219059376e+01    0.1309067    0.0904121 -37.34  0.000353046    1.588    0.370
        95  -9.3760      1.3311     94.3738   9.6385451080e+01   5.4849791540e+01    0.1828935   0.07558867 -69.53 0.0002952867    1.745    0.427
        96  -8.6681     77.8433     94.1555   7.4232634616e+01   4.7469162045e+01    0.1800738    0.1566665 -22.15 0.0007666892    1.303    0.233
        97  -8.8754      4.9774     93.7229   9.5304640485e+01   5.4783980019e+01    0.1379007    0.1218256 -72.96 0.0004138498    1.182    0.154
        98  -9.0620     87.4815     93.5376   7.1282534540e+01   4.6130322282e+01    0.2079942    0.1220312 -42.57  0.000558322    1.682    0.406
        99  -9.6410     42.4698     90.8162   8.3999720469e+01   5.2524845416e+01    0.3550067     0.241098   4.11  0.002019457    2.135    0.532
       100 -12.3355     34.8112     89.6111   8.6057921489e+01   5.3508408841e+01    0.2913798    0.2294695 -84.80 0.0002613997    1.276    0.216
       101  -9.6451     30.1948     85.4279   8.6671723223e+01   5.4819285520e+01    0.2473274    0.1872665  61.73  0.001040828    1.587    0.370
       102  -9.9496     50.2369     89.7028   8.1441971137e+01   5.1965225481e+01    0.4072911    0.2493759  53.56  0.002171444    2.054    0.513
       103  -9.3616     57.4608     89.4533   7.9208245198e+01   5.1200409357e+01    0.1900508    0.1664084  49.45 0.0005505905    1.306    0.235
       104  -9.1876     54.5280     87.5251   7.9671038919e+01   5.1965315696e+01    0.2133029    0.1556746 -64.71  0.000900204    1.239    0.193
       105  -9.3988     62.7263     89.6940   7.7675010286e+01   5.0505366269e+01     0.236898    0.1887056 -20.05 0.0009371525    1.520    0.342
       106 -10.3265    102.2408     70.1078   6.0374443591e+01   4.8467030707e+01    0.4663613    0.3105434 -47.60  0.002265177    1.477    0.323
       107 -10.8382    101.8709     86.8628   6.5388504306e+01   4.5109784554e+01    0.6863897    0.2565735 -40.69  0.002395492    2.843    0.648
       108 -11.6279    113.2166     81.3186   6.0606487128e+01   4.4101215940e+01    0.7504601    0.3574742  38.08  0.002924529    2.336    0.572
       109 -12.5046    110.7999     64.8370   5.6210177487e+01   4.7817163933e+01    0.6193856    0.5529168 -29.29  0.001459084    1.075    0.070
       110  -9.4475     12.2246     88.2788   9.2497934476e+01   5.5513480073e+01    0.2686253    0.1619202  26.26  0.001177434    2.106    0.525
       111 -10.0082    110.3409     87.8721   6.3279521850e+01   4.3312518356e+01    0.2561828     0.248176  30.34 0.0002406122    1.073    0.068
       112 -10.2346     89.1395     86.0225   6.8859029747e+01   4.7486988215e+01    0.4395834    0.2292399  33.80  0.001918359    2.217    0.549
       113  -9.3378     87.9088     75.5977   6.6332079496e+01   4.9882322486e+01     0.448678    0.2108022 -54.37  0.001259673    2.252    0.556
       114 -10.8005     79.2974     81.4345   7.0588435791e+01   5.0013071299e+01    0.6934347    0.4178118 -13.36  0.002708856    3.335    0.700
       115  -9.2904     71.2461     83.5243   7.3598344862e+01   5.0727022879e+01      0.34762    0.1633518  35.32  0.001370177    2.396    0.583
       116 -10.4244     83.3219     74.2979   6.7367633813e+01   5.0891337511e+01    0.2899859    0.2253861 -38.28 0.0007045201    1.200    0.167
       117 -10.8155     76.9252     75.2947   6.9644883060e+01   5.1664080271e+01    0.5446047    0.2935311  30.11  0.002032317    2.215    0.548
       118 -10.6964    157.0230     84.6197   5.0368468540e+01   3.3679399735e+01    0.3611662    0.2982405  63.58 0.0009883547    1.277    0.217
       119  -9.1363     59.6187     82.9857   7.7058919064e+01   5.2355022413e+01    0.1945044     0.144091 -55.49 0.0004657091    1.169    0.144
       120  -9.1855     19.8414     82.8491   8.9360591542e+01   5.6172675521e+01    0.2102969    0.1527466 -60.34 0.0009331866    1.085    0.079
       121  -9.3977      1.8821     82.9567   9.4743567435e+01   5.7245512611e+01    0.1649777    0.1222482 -67.84 0.0004213731    1.017    0.016
       122 -10.9828     54.1253     80.9880   7.8303399909e+01   5.3435734246e+01    0.2542668    0.2243565 -43.58 0.0003189084    1.091    0.084
       123  -8.7612     91.8113     80.1377   6.6451009317e+01   4.8287288473e+01    0.1932489    0.1588898 -21.91 0.0005661729    1.319    0.242
       124 -10.6890     42.8705     63.1449   7.7577676752e+01   5.8416021435e+01    0.5731219      0.30465 -53.61  0.002302804    1.545    0.353
       125 -10.0526     43.9780     78.4608   8.0938007783e+01   5.5069444790e+01    0.3168561    0.2534243  40.69  0.001303561    1.488    0.328
       126 -11.6519     46.3987     73.0857   7.8898417832e+01   5.5973134089e+01    0.5724701    0.3860622  74.71 0.0008223587    2.324    0.570
       127  -8.4647      6.9051     80.3528   9.2872438190e+01   5.7526245356e+01    0.1426534    0.1176903 -69.09 0.0004073565    1.093    0.085
       128 -11.2761    104.2261     78.7205   6.2396201790e+01   4.6366709356e+01    0.6172825    0.5683554  10.74  0.003508941    1.148    0.129
       129  -9.9109     61.0111     76.4359   7.4997552912e+01   5.3592300039e+01    0.2841984    0.1669861 -56.99            0    1.538    0.350
       130  -8.8777    187.5089     76.4863   4.1475264706e+01   2.7464706595e+01    0.1556375    0.1523663  38.09  5.55851e-05    1.017    0.017
       131 -12.6003    153.6540     71.6565   4.7274344759e+01   3.6885979534e+01     1.142805    0.7658446 -20.22  0.001061391    1.775    0.437
       132 -10.9833    154.0323     49.7254   4.0193329138e+01   4.0457579911e+01    0.6695715    0.5301172 -87.67  0.003198562    1.583    0.368
       133 -11.2298    147.1660     61.7844   4.5693188626e+01   4.0203748039e+01     0.624448    0.3584639  37.66 0.0004441067    1.924    0.480
       134 -13.0372    150.7719     57.7025   4.3533760820e+01   4.0001474213e+01    0.4905342    0.3930416 -48.89 0.0004921819    1.343    0.255
       135 -11.3353    140.5877     72.3385   5.0631580670e+01   3.9899618074e+01    0.5112321    0.4388692   4.88  0.001565627    1.296    0.229
       136 -10.2567    136.4392     74.1226   5.2227415097e+01   4.0528469042e+01    0.3263446    0.2545381 -27.88   0.00090601    1.332    0.249
       137 -10.7172    136.5314     69.9395   5.0901249351e+01   4.1285001797e+01    0.4086419     0.302905  25.39  0.001365521    1.558    0.358
       138 -10.9922    136.7151     65.9963   4.9603304889e+01   4.1958824033e+01    0.6178697     0.350419  55.47 0.0006353162    1.862    0.463
       139 -10.3905    104.4798     58.3428   5.5904233548e+01   5.0275972055e+01    0.3604785    0.2689333 -10.08 0.0006693047    1.556    0.357
       140  -9.3222     91.9750     74.5385   6.4787098402e+01   4.9417608068e+01    0.2605702    0.1837856 -31.31 0.0007179669    1.469    0.319
       141 -10.1863      9.3747     74.3728   9.1150517709e+01   5.8652657153e+01    0.2970365    0.1667916  37.48  0.001243267    2.227    0.551
       142  -8.3550      4.6411     75.6995   9.2841551170e+01   5.8634416603e+01    0.1164632   0.08736266 -66.24 0.0005515762    1.009    0.009
       143  -8.8158      3.9179     72.7619   9.2599752453e+01   5.9290010398e+01    0.1618261    0.1289617 -84.84 0.0005111731    1.245    0.197
       144  -8.3489    178.7088     74.6971   4.2717611529e+01   3.0033419961e+01    0.1582891     0.121868  19.42 0.0002563556    1.570    0.363
       145 -10.9885    164.0836     70.5249   4.4570699214e+01   3.4485231912e+01    0.4263084    0.3688729  10.77  0.001368501    1.283    0.220
       146 -10.0063    129.0268     70.9847   5.3168455320e+01   4.2792321693e+01    0.2323728    0.1805079   7.32 0.0004185368    1.587    0.370
       147  -9.0937     96.9800     71.3155   6.2311530064e+01   4.9192541325e+01    0.1976747    0.1907822  15.31 0.0006746855    1.083    0.077
       148  -9.1169     63.9723     70.6010   7.2487956636e+01   5.4445873281e+01    0.2896307    0.2126921  29.58  0.001595535    1.551    0.355
       149 -10.0822     60.2501     66.0069   7.2436646525e+01   5.5871415093e+01    0.3850235    0.2836025 -30.42  0.001446772    1.351    0.260
       150 -10.0653     56.8598     72.6506   7.5361524195e+01   5.4900318999e+01    0.4339743    0.2076025 -34.43  0.001590016    2.608    0.617
       151 -10.2626     17.5111     70.5929   8.7854666105e+01   5.8947213145e+01    0.2181021    0.1912467 -53.89 0.0006409427    1.139    0.122
       152  -8.8209     21.9881     70.2351   8.6313212505e+01   5.8713680548e+01    0.1453529    0.1072712 -12.26 0.0005812116    1.690    0.408
       153 -10.8571     34.9726     66.7293   8.1186048997e+01   5.8413789325e+01    0.5148211    0.2488644 -70.36  0.002272382    2.439    0.590
       154  -9.4034     11.6957     68.2635   8.9318492244e+01   5.9802666282e+01    0.3914689    0.1700884 -31.25  0.001526664    3.069    0.674
       155  -9.0527      9.2597     65.9703   8.9695476761e+01   6.0422785274e+01    0.1611782    0.1075379 -63.43 0.0002995643    1.142    0.124
       156 -10.0033    180.7471     64.7198   3.9354835161e+01   3.1176654646e+01    0.5142269    0.3379352  -5.70  0.002067108    2.155    0.536
       157  -9.8205    177.1185     64.1071   3.9889584489e+01   3.2221351061e+01    0.4431301    0.2603734 -35.00  0.001193641    1.720    0.418
       158  -9.3311     91.3042     67.4095   6.2833520748e+01   5.0967986433e+01    0.3516415     0.214152  52.95  0.001113194    2.030    0.507
       159 -10.4999     89.3931     62.7603   6.1958909708e+01   5.2206890177e+01    0.4904656    0.2677751 -46.31  0.001785288    1.743    0.426
       160  -9.8871     77.6825     66.2643   6.6776940614e+01   5.3404923774e+01    0.2261727    0.2035048 -22.29 0.0002829447    1.076    0.071
       161 -11.1761     82.5855     63.7244   6.4419806810e+01   5.3145915653e+01    0.4464816    0.2931181 -18.17  0.001050899    1.963    0.490
       162  -9.2298     72.3430     65.7574   6.8358106521e+01   5.4296431737e+01    0.3504412    0.2080625 -14.06  0.001458473    2.924    0.658
       163  -8.9640     54.6685     67.0488   7.4598215395e+01   5.6330961776e+01    0.2153383    0.1675451  51.55  0.000673447    1.613    0.380
       164  -8.9418     48.8907     67.0832   7.6554160223e+01   5.6972905010e+01    0.2656392    0.1517006  48.47  0.001358058    2.356    0.576
       165  -8.7796     26.4524     65.8829   8.3888217515e+01   5.9296796711e+01    0.1768786   0.09493509 -60.44 0.0009949208    1.493    0.330
       166 -10.7753    211.5807     49.4279   2.9575647721e+01   2.5410463255e+01    0.3417403    0.2772061  78.51 0.0006852348    1.259    0.206
       167  -9.4324    201.2391     49.8868   3.1319464468e+01   2.8058197436e+01    0.3049813    0.2691331  56.85   0.00100721    1.113    0.102
       168  -8.4627    189.9619     61.5317   3.6660997896e+01   2.9275175109e+01    0.3233664    0.1254173  49.65  0.001093324    2.502    0.600
       169 -10.4272    195.4310     61.7014   3.5724015329e+01   2.7814035658e+01    0.5278804    0.3956467  -3.93  0.002000328    1.658    0.397
       170 -10.9881    200.0992     55.3339   3.3077877225e+01   2.7559298544e+01    0.6598812    0.3513933  34.61  0.002337298    2.582    0.613
       171  -8.2253    126.3262     64.2321   5.1725526930e+01   4.4639299594e+01     0.147462     0.112145  20.58 0.0001719833    1.518    0.341
       172  -9.8268     67.2496     63.1615   6.9265202381e+01   5.5534369897e+01    0.2338118    0.1996974   6.83 0.0003769655    1.284    0.221
       173  -9.1214      1.7342     64.1638   9.1865573040e+01   6.1189539972e+01    0.1614933    0.1195834 -70.76 0.0007536094    1.133    0.117
       174  -8.8339    203.6591     62.8350   3.4621145932e+01   2.5488400935e+01    0.2740631    0.1825058 -42.59  0.001081466    1.508    0.337
       175  -9.6580    172.0627     62.8231   4.0523820697e+01   3.3743374651e+01    0.2693003    0.2413825  -2.08  0.001130123    1.205    0.170
       176  -9.4498    167.9679     61.0855   4.0836992692e+01   3.5085482004e+01    0.3408071    0.2172962   0.03  0.001048077    2.462    0.594
       177 -10.4265    219.0311     59.2096   3.1145966917e+01   2.2068184489e+01     0.355465    0.2699822 -31.52 0.0005012558    1.316    0.240
       178  -9.5541    222.5083     55.3679   2.9588397818e+01   2.1743358127e+01    0.2976575    0.2473196  81.12 0.0005642147    1.246    0.198
       179  -9.3445    131.8083     60.5184   4.9074487876e+01   4.4064296699e+01    0.2735367    0.2240574  82.18  0.001340984    1.551    0.355
       180 -10.2428     22.2028     60.8522   8.4217908994e+01   6.0659466608e+01     0.190233    0.1438458 -47.93 0.0002331337    1.089    0.081
       181 -10.7645     60.3697     57.7704   6.9970303231e+01   5.7519431664e+01    0.3896225      0.29705  19.30  0.001976162    1.485    0.326
       182 -10.4076    184.8038     54.8753   3.5627837499e+01   3.1663640285e+01    0.6607991     0.308714 -37.72   0.00174309    2.126    0.530
       183 -10.3655      7.1433     57.7668   8.8826296295e+01   6.2232904852e+01    0.4497414    0.2071313 -27.76  0.001940424    2.751    0.637
       184 -10.9500    161.1820     56.5420   4.0847838480e+01   3.7564104473e+01    0.4571742    0.3888639  69.11   0.00077232    1.231    0.187
       185  -8.8787    162.1732     52.5948   3.9375659102e+01   3.7933472529e+01    0.2591812    0.2288811  43.42 0.0005903696    1.101    0.092
       186  -9.9324     95.7800     56.7912   5.8006311682e+01   5.2205949854e+01    0.4604216    0.3271999 -83.34  0.001999099    2.724    0.633
       187  -9.8784     32.9523     37.4624   7.3711443374e+01   6.4413153668e+01     0.252686     0.140737 -51.74 -9.141194e-05    1.549    0.354
       188 -11.2925     17.8453     48.9611   8.2942455082e+01   6.3375521602e+01    0.4584163    0.2289489 -40.90  0.001201908    1.709    0.415
       189 -10.4236     25.0874     49.4486   8.0346202275e+01   6.2759719697e+01    0.4358465    0.2108676 -28.05  0.002198048    2.529    0.605
       190  -9.0566     38.4219     45.0928   7.4021302991e+01   6.2455886295e+01     0.428544    0.1251818 -44.42  0.001652977    2.751    0.637
       191  -9.7501     33.7433     43.3503   7.5278601002e+01   6.3229295057e+01    0.3872537    0.2275281 -36.00  0.002280824    1.489    0.328
       192 -11.2341     30.2372     52.6150   7.9282526713e+01   6.1715780463e+01    0.6135911    0.2967798 -63.99   0.00165738    2.112    0.527
       193 -10.3789     35.1411     51.3813   7.7128825093e+01   6.1535239054e+01    0.2017993    0.1869456 -51.58 0.0003655038    1.197    0.165
       194  -9.7621     86.1347     34.1297   5.2816413193e+01   5.7824941756e+01    0.4022316    0.2472604  20.20  0.001244156    1.969    0.492
       195  -8.3718     83.5135    249.4547   9.4362660122e+01   1.5415766555e+01    0.1090668   0.07732771  62.03 0.0001693835    1.016    0.016
       196 -10.3901     77.9701     55.4820   6.3263691833e+01   5.5470513063e+01    0.3001004    0.1993375 -32.46 -0.0001265177    1.431    0.301
       197  -9.9708     73.7517     25.3916   5.3477483038e+01   6.1275132160e+01    0.4320511    0.2718627  25.18  0.002316499    1.676    0.403
       198  -8.8229    106.8974    246.3465   9.0304386774e+01   1.2518178244e+01    0.1794231    0.1292738  80.22 0.0009741448    1.371    0.270
       199 -10.8247     84.7529     38.9168   5.5115387956e+01   5.7298294933e+01     0.353395    0.2148322 -40.65 0.0002140827    1.606    0.377
       200 -10.5959     81.7188     52.2626   6.0939510286e+01   5.5475004216e+01    0.7907644    0.2464862 -44.88  0.002832148    3.033    0.670
       201 -10.4422     85.0309     48.9688   5.8707792423e+01   5.5522344290e+01    0.5633048    0.2499211 -46.61  0.001410846    2.314    0.568
       202 -10.4319     82.3368     31.4574   5.3012997743e+01   5.8908679052e+01    0.4375697     0.287391 -11.85 0.0006913134    1.671    0.402
       203 -10.5703     81.6633     26.7822   5.1344085707e+01   5.9731066646e+01    0.5769165    0.3838316  23.64  0.003104437    1.567    0.362
       204  -9.9441    246.0108     55.7534   2.6501671755e+01   1.5889281890e+01    0.2249665    0.1946877 -28.21 0.0002742523    1.160    0.138
       205  -9.2863    239.1022     55.9785   2.7450301855e+01   1.7521590261e+01    0.2227647    0.1999173 -53.46 0.0007492592    1.060    0.056
       206 -11.3893    175.0384     53.7370   3.7129375580e+01   3.4409366812e+01    0.5509211     0.467519  36.39 0.0003491648    1.209    0.173
       207  -8.4091     69.3096     56.7130   6.6571985677e+01   5.6523399664e+01    0.1208211    0.1042162 -85.39 0.0002719868    1.575    0.365
       208  -8.7924     26.9702     56.4359   8.1468067387e+01   6.1207857561e+01    0.1452296    0.1153632  11.19 0.0009533394    1.518    0.341
       209  -8.5344    116.6867    236.7386   8.7721313497e+01   1.2492993814e+01    0.1031729    0.0818877  34.37  0.000171098    1.536    0.349
       210 -10.6907    126.6204     38.5072   4.2780238395e+01   4.8816401457e+01    0.9827779    0.3188605  49.18  0.003366245    2.843    0.648
       211 -11.1728    127.9430     53.0608   4.7570938688e+01   4.6224581119e+01    0.6598037    0.5176239 -13.87 0.0004971502    1.369    0.269
       212 -11.4712     76.6692    219.8432   9.3066220013e+01   2.1257627251e+01    0.6424157    0.3822903  43.62  0.003454854    1.587    0.370
       213 -10.9353    148.8114     37.7275   3.7298381499e+01   4.3543736227e+01    0.4844386    0.3445418 -17.97 0.0002903806    1.532    0.347
       214 -12.9910    137.9706     47.2630   4.3063624393e+01   4.4810496121e+01    0.5519689    0.5432641 -56.52 0.0006799016    1.105    0.095
       215 -12.3451    140.2485     37.9545   3.9289399227e+01   4.5644030945e+01    0.5087628    0.4068683 -67.98 0.0003101668    1.584    0.369
       216 -11.5941    117.7038     51.6327   4.9820117611e+01   4.8737383865e+01    0.3619496    0.3194638  39.76  0.001990779    1.135    0.119
       217 -11.3966    122.2063     49.2268   4.7757148517e+01   4.8151102003e+01    0.4693717     0.321959 -40.72  0.002257983    1.497    0.332
       218 -10.0241    161.0001     64.8469   4.3502188246e+01   3.6239958739e+01    0.2696125    0.2288303 -32.96 0.0005232216    1.201    0.167
       219  -8.2885     51.3557     54.6602   7.2191333256e+01   5.9224560722e+01    0.1208423   0.09775553  87.88 0.0007040317    1.812    0.448
       220  -9.1692      1.8492     53.9383   8.9927584861e+01   6.3276818533e+01    0.2910285    0.1170139 -67.44  0.001564935    1.975    0.494
       221 -10.2796      5.5837     48.8536   8.7503074426e+01   6.4117547903e+01    0.3437462    0.3000227 -55.44   0.00239259    1.172    0.147
       222  -9.7409      9.7089     50.0219   8.6236934687e+01   6.3662577592e+01    0.1834248    0.1416406 -28.60 0.0003085877    1.331    0.248
       223  -9.6776     65.0293     52.3205   6.6619671396e+01   5.7964910546e+01    0.2289884    0.1696095 -49.36 0.0003906121    1.303    0.233
       224  -9.5465     44.4964     51.9337   7.3846938504e+01   6.0513087633e+01    0.2432328    0.1832755 -78.94  0.000991807    1.860    0.462
       225 -11.1102    107.3997     43.3687   4.9779342668e+01   5.2273811130e+01    0.4080192    0.3042508  46.19  0.001023965    1.372    0.271
       226 -10.5183    106.4175     48.5212   5.1928369336e+01   5.1621961911e+01    0.6555173    0.3497426  33.74  0.002400046    2.133    0.531
       227  -8.5484    111.2314     49.0013   5.0708872449e+01   5.0553677793e+01    0.1827397    0.1731584 -63.03 0.0002877025    1.235    0.190
       228  -9.3881     55.1103     49.6880   6.9282596342e+01   5.9749069423e+01    0.1906409    0.1515068 -43.98  0.000534073    1.129    0.114
       229 -10.3259    246.3448     47.9208   2.4497550320e+01   1.6887615733e+01    0.2935337    0.2550867  -3.63  0.001105571    1.341    0.254
       230 -10.8912    233.0111     48.2218   2.6242590225e+01   2.0105337052e+01    0.2559475    0.2370398  87.53 0.0002747955    1.067    0.063
       231  -8.8638    194.3288     49.2945   3.2286326944e+01   2.9971547219e+01    0.3370983    0.1232493  57.50  0.001149152    2.516    0.603
       232  -9.1661     62.4825     47.8807   6.6034562543e+01   5.9147806417e+01    0.1971841    0.1127795 -44.84 0.0008573493    1.546    0.353
       233  -9.4153    228.0310     45.5321   2.6189662901e+01   2.1724364733e+01    0.2290657    0.1910689 -34.90  0.000814901    1.192    0.161
       234 -10.3791    209.1269     43.5531   2.8292826280e+01   2.6873152549e+01    0.3953916    0.3177696 -54.95  0.002022848    1.266    0.210
       235 -11.6030     90.9333     43.9438   5.4994285752e+01   5.5362508053e+01    0.2982705    0.2509297  -2.66 0.0002967681    1.156    0.135
       236 -10.3043     91.2824     40.2989   5.3527970642e+01   5.5906085449e+01    0.2362371    0.1945148  27.61  0.001358026    1.211    0.174
       237  -9.3560     78.9890     44.2709   5.9026464867e+01   5.7356046631e+01    0.2482017    0.2066953  79.47 0.0009870685    1.864    0.464
       238  -9.1825     73.5110     44.9529   6.1140503398e+01   5.8098907247e+01    0.2661541    0.1687032 -43.65 0.0008744462    1.488    0.328
       239  -9.1038     67.1428     44.8870   6.3341493088e+01   5.9053120463e+01    0.1878281    0.1788217  28.57 0.0003226465    1.258    0.205
       240  -9.2433     70.7001     43.0687   6.1438525780e+01   5.8859081959e+01    0.3539403    0.1962048   9.40   0.00115867    3.323    0.699
       241  -9.1124    178.5106     44.0271   3.3460208741e+01   3.4928302473e+01      0.22611    0.1521656 -29.03  0.001019254    1.550    0.355
       242 -10.1021     56.5266     41.8535   6.6113977580e+01   6.1035979690e+01    0.2555362    0.1790417 -10.10 0.0002606335    1.584    0.369
       243 -11.8964     62.6830     37.4251   6.2234718447e+01   6.1003897848e+01    0.5336306    0.3767654  23.69  0.003137619    1.516    0.340
       244 -10.3058     18.3377     42.6936   8.1098556518e+01   6.4577345562e+01    0.2232258    0.1995162   3.81  0.001085985    1.347    0.258
       245  -8.9134    217.8243     41.5989   2.6508299179e+01   2.4870924850e+01    0.1970999    0.1899738  -6.64  0.000469358    1.138    0.122
       246  -9.3566     98.9644     41.8016   5.1704108575e+01   5.4212139757e+01    0.3496891    0.1918819  57.01  0.001053722    2.396    0.583
       247  -9.5102     28.3384     41.7305   7.6891750911e+01   6.4008409697e+01    0.1918037    0.1615987 -65.99  0.000779891    1.374    0.272
       248 -10.1744    230.6864     39.3766   2.4225494376e+01   2.1880411900e+01    0.2820022    0.2396074 -73.05 0.0006064162    1.158    0.136
       249  -9.1943    113.3434     40.0619   4.6875287577e+01   5.1546809463e+01    0.2632141    0.1869932  22.57  0.001064774    1.543    0.352
       250 -10.6463    201.9770     37.4356   2.7608364077e+01   2.9585436403e+01    0.3026551    0.2702569 -64.65 0.0002000297    1.128    0.113
       251 -10.5224    194.7885     36.6222   2.8465810154e+01   3.1604964822e+01    0.4303181    0.2626907 -27.32 0.0005931796    1.728    0.421
       252  -8.7542    181.7456     38.0987   3.1049014882e+01   3.4888730253e+01    0.2032319    0.1919421 -32.17 0.0007190449    1.109    0.098
       253 -10.8576     73.4842    213.8792   9.3097358674e+01   2.2760867090e+01    0.6303582    0.3264115  37.41  0.003533576    2.140    0.533
       254 -10.2756     39.2183     35.4539   7.0523863185e+01   6.4177551045e+01    0.4685218    0.1956263 -33.80   0.00215941    2.455    0.593
       255  -8.9121     91.0857    214.5135   8.9987711375e+01   2.0132977917e+01    0.1809807   0.09607265  47.30  0.001026619    1.575    0.365
       256  -9.6979    123.9713    205.9868   8.2850558096e+01   1.6407982114e+01    0.1786028    0.1457717  60.14  0.001148249    1.005    0.005
       257  -9.1621     90.3363    206.0708   8.9248828901e+01   2.1774433438e+01    0.1717796    0.1314563  79.57  0.001141026    1.150    0.130
       258 -10.6248      5.0130    202.6933   1.0404768513e+02   3.2596275394e+01    0.1928221   0.09006798 -59.57  0.001187437    2.701    0.630
       259  -9.9118      1.3548    184.8923   1.0373883269e+02   3.6230482871e+01    0.3072933   0.07386315 -78.26  0.001401838    3.286    0.696
       260  -8.2726     77.6748    185.7373   8.9466648653e+01   2.7529221918e+01    0.1018058   0.09843515 -10.08 0.0003595205    1.561    0.360
       261  -9.0036     25.1104    173.8279   9.8674278526e+01   3.6243915905e+01    0.1357571    0.1119682 -78.78 0.0002675681    1.291    0.225
       262 -10.6477      9.6062    163.7734   1.0091853994e+02   3.9682461896e+01    0.2372362    0.1411685  32.36  0.001434698    2.096    0.523
       263 -11.5766     18.1352    159.7202   9.8924988142e+01   3.9772976202e+01    0.3275949    0.2251906   9.65  0.002095524    2.628    0.619
       264  -9.3066      5.9285    159.5325   1.0133624127e+02   4.0841074097e+01    0.1302356    0.1006672  43.81 0.0005310089    1.540    0.351
       265 -10.8359      2.5965    153.3811   1.0156261070e+02   4.2349775631e+01    0.2518883    0.1840738 -83.25  0.001935042    1.115    0.103
       266 -10.5620     19.2463    151.7524   9.8024698788e+01   4.1330378584e+01    0.3485705    0.1307879  81.16  0.001416385    3.787    0.736
       267 -11.0418     30.6702     31.3449   7.2565619382e+01   6.5739923360e+01    0.3103867    0.2361867 -65.34 0.0007024377    1.696    0.410
       268 -12.5764     35.3408     27.3999   6.9188355588e+01   6.5995711164e+01    0.4662243    0.2566251  16.10 0.0004956433    2.176    0.540
       269 -10.1159     14.5772    150.6722   9.8908695675e+01   4.1956508530e+01     0.213202   0.08064704 -71.28  0.001129553    2.049    0.512
       270 -11.7274     30.7315    147.2045   9.5123515219e+01   4.1236188269e+01    0.2775928    0.1906339 -75.95 0.0001738972    1.192    0.161
       271 -11.2722    246.8948     33.0391   2.0736014462e+01   1.8704893748e+01    0.6056749    0.2993247 -50.87  0.002649646    2.019    0.505
       272 -10.0437     23.9190    148.8795   9.6770397318e+01   4.1517908684e+01    0.1671966    0.1288062 -69.32  0.000493073    1.265    0.210
       273 -11.7920     54.1787     34.3244   6.4256537907e+01   6.2670162580e+01    0.4385585    0.2091081 -46.77  0.001342747    1.975    0.494
       274  -9.4871     74.7500     33.9557   5.6587391884e+01   5.9779953346e+01    0.2484725    0.1539751 -25.97  0.001055732    1.548    0.354
       275  -8.2914     48.4473     37.4438   6.7604222291e+01   6.2814036237e+01    0.1241272    0.1008852 -28.30 0.0001964744    1.009    0.009
       276  -9.7026    115.0181     34.2762   4.4254414885e+01   5.2047172637e+01    0.4748411    0.1824613 -36.49  0.001587905    2.584    0.613
       277  -9.1392     28.1531     36.4699   7.5320034612e+01   6.5018872655e+01    0.1812956    0.1115954  11.79   0.00110308    1.939    0.484
       278  -8.8956    185.3313     34.9110   2.9464950284e+01   3.4355234691e+01    0.2071368    0.2008399   0.01  0.001147612    1.103    0.093
       279  -9.4366    106.8856     34.8701   4.6746316650e+01   5.3697709997e+01    0.2104921    0.1696763  13.23 0.0003219459    1.241    0.194
       280 -10.7670     96.6413     33.5951   4.9286789131e+01   5.5950234506e+01    0.3870906    0.2395362  23.29  0.001830142    1.887    0.470
       281  -9.5752     59.5533     31.9024   6.1288424416e+01   6.2374786540e+01     0.256617    0.1660851 -22.55 0.0008195432    1.488    0.328
       282 -10.7011      7.1524    148.2759   1.0025728451e+02   4.3051454393e+01    0.2994348    0.1386038  46.38  0.001827958    2.137    0.532
       283 -12.8803     28.2964    138.9996   9.4801781588e+01   4.3231095563e+01    0.8484901    0.4367228 -66.30  0.004925169    1.599    0.375
       284  -9.6373    244.8132     18.8388   1.7462867649e+01   2.0934139315e+01    0.3138102    0.2119061 -66.72 0.0009396706    1.465    0.318
       285 -10.7383     11.7032    144.8999   9.9026386834e+01   4.3398143132e+01    0.2423312    0.2093091 -76.33            0    1.273    0.215
       286 -11.6370    132.0090     29.5431   3.8189163945e+01   4.8794805077e+01    0.3743361    0.2866884 -24.85  0.001941735    1.341    0.254
       287  -9.7940     66.1763     31.0752   5.8507324184e+01   6.1568615428e+01    0.2072817    0.1994379 -70.43 0.0004036747    1.454    0.312
       288  -9.9944    124.1390     30.5699   4.0482290580e+01   5.0511432881e+01    0.2852762    0.2354262  45.19 0.0004918139    1.159    0.137
       289 -10.0130    215.9432     29.2434   2.3371509911e+01   2.6960270702e+01    0.3307436    0.2530625  74.87 0.0008493057    1.262    0.208
       290  -8.6746    201.3424     30.1128   2.5584824452e+01   3.0696642050e+01    0.2143686    0.1223132 -40.85 0.0007199591    1.760    0.432
       291  -9.6830    180.0318     29.1307   2.8551036280e+01   3.6509540702e+01    0.3494546    0.2494122 -80.52  0.001182505    1.676    0.404
       292  -9.4069    110.3841     29.7154   4.3776368519e+01   5.3698586212e+01     0.294465    0.2156775  26.59  0.001536711    1.367    0.269
       293 -11.7431      4.1314    141.7957   1.0037910406e+02   4.4623064189e+01    0.5775447    0.5063102 -32.95  0.004146707    1.684    0.406
       294  -9.8490    206.9285     25.8929   2.3611804704e+01   2.9735831068e+01    0.2961963    0.2137406 -11.89 0.0008130394    1.661    0.398
       295 -10.2095    183.9827     25.3970   2.6761783041e+01   3.5909754552e+01    0.3981451    0.2613928 -88.84  0.001154383    1.814    0.449
       296 -10.4875    179.5180     21.5909   2.6278441075e+01   3.7551231364e+01     0.414974     0.293111 -70.46  0.001853093    1.669    0.401
       297  -9.6983     98.8400     23.4947   4.4592894022e+01   5.6950720223e+01    0.2757522    0.2056257 -48.01 0.0009712214    1.679    0.404
       298 -11.4983     21.6603    142.0077   9.6600794297e+01   4.3180191637e+01    0.4322286    0.2239179  51.56  0.000409296    1.943    0.485
       299 -10.0341    224.9990     22.9971   2.0597836555e+01   2.5381665297e+01    0.3543021    0.2460005  50.69 0.0007091996    1.525    0.344
       300 -10.1163    222.5055     19.9624   2.0079110226e+01   2.6377406842e+01    0.3285314    0.2697287 -32.45  0.001176381    1.271    0.213
       301  -9.4754    158.8891     22.8045   3.0180880896e+01   4.2869067824e+01    0.3126197    0.1923107  51.19 0.0009086709    1.487    0.328
       302 -11.9407      3.7399    117.3738   9.8297306221e+01   4.9800602392e+01     1.007163    0.4525498  71.68  0.002470886    2.663    0.624
       303  -8.7976    168.6736     21.3076   2.7953290895e+01   4.0469715184e+01    0.2775131    0.1891688 -76.81 0.0006772563    1.865    0.464
       304  -8.5714    104.1391     24.0864   4.3300702676e+01   5.5783892504e+01     0.162184    0.1604203 -26.81 -0.0006383859    1.225    0.184
       305  -9.7294    248.6713     22.3904   1.7952363791e+01   1.9586269719e+01    0.2446431    0.2112139 -73.82 0.0006751915    1.055    0.052
       306 -10.7838     12.8815    128.8246   9.7282154820e+01   4.6715055427e+01    0.6267419    0.1721972  34.09  0.002986536    3.649    0.726
       307 -11.3275     17.4638    134.1134   9.6759469969e+01   4.5222403813e+01    0.4950489    0.2764681  60.07  0.002268609    1.828    0.453
       308  -9.6260    117.7445     19.2747   3.7753753817e+01   5.3415843057e+01    0.3254797    0.1980053  47.20  0.001196933    1.509    0.337
       309  -8.4167    206.2817     21.3010   2.2399769285e+01   3.0451386215e+01     0.142279    0.1062135  35.79  0.000696615    1.548    0.354
       310  -8.7507    188.1100     21.1462   2.4842769465e+01   3.5305487261e+01     0.214399    0.1830098  37.88 0.0003632115    1.239    0.193
       311  -8.7348    143.0283     21.5347   3.2841451778e+01   4.7082743619e+01    0.2183771    0.1358508  60.00 0.0007509613    1.526    0.345
       312  -9.9905     12.9386    134.9930   9.7868011757e+01   4.5393760227e+01     0.198889    0.1561647 -78.98 0.0003663057    1.107    0.097
       313 -10.7537     27.0349    130.3001   9.4123204996e+01   4.5233453594e+01    0.3001967    0.2480126   0.82  0.001303651    1.816    0.449
       314 -11.5625     29.3494    125.0382   9.2935760701e+01   4.6177487386e+01    0.3437511    0.3139373  81.79 0.0009877128    1.203    0.169
       315  -8.2131     60.6914    148.2683   8.8503888301e+01   3.7687172579e+01    0.1258879   0.08267612  72.63 0.0001819745    1.539    0.350
       316  -8.9549    131.3830     19.7055   3.4684001407e+01   5.0165381351e+01    0.2878433    0.1630276  52.88  0.001282068    1.607    0.378
       317  -9.8336     36.4734    148.1641   9.3958270174e+01   4.0460466015e+01    0.1896693    0.1541667  57.59 0.0005371877    1.281    0.219
       318  -9.7122     36.0549    142.6982   9.3447079652e+01   4.1683047158e+01    0.1630995    0.1340367 -85.43 0.0008092016    1.061    0.057
       319 -10.0772    227.2705     18.2399   1.9100773123e+01   2.5359524178e+01    0.3006355    0.2513247  75.44  0.001225416    1.140    0.123
       320  -9.2954     57.0726    141.0545   8.8367861030e+01   3.9719060568e+01    0.2393462    0.1376204 -45.83  0.001227392    2.141    0.533
       321  -9.0148    119.6929     26.4324   4.0039377228e+01   5.2080570285e+01     0.248991    0.1603276  42.54 0.0006874476    1.460    0.315
       322  -9.9244     44.4187    141.6736   9.1408545810e+01   4.1033705688e+01    0.2069146    0.1837386 -79.67  0.000646379    1.169    0.145
       323  -9.8168    192.9946     17.3376   2.3013286728e+01   3.4431694503e+01    0.3507564    0.2124059  49.91   0.00161679    1.624    0.384
       324  -9.4367      4.5443    131.5566   9.9434110877e+01   4.6739104009e+01    0.1882888    0.1361045 -88.37 0.0002630798    1.054    0.051
       325 -10.0011     41.2541    128.0194   9.0399949246e+01   4.4375419393e+01    0.1872639    0.1656193  77.01 0.0004855899    1.158    0.136
       326 -10.8299     48.3769    126.1820   8.8371306579e+01   4.4027572045e+01    0.4124854     0.317269  19.47  0.001260997    1.769    0.435
       327 -10.0665     97.7252    125.9349   7.5759017929e+01   3.7259564052e+01    0.2283347    0.1924807  56.29 0.0003924575    1.196    0.164
       328  -8.3214     92.4499     16.3801   4.3531365250e+01   5.9136714058e+01    0.1309778    0.1147989  14.29 9.373631e-05    1.038    0.037
       329 -10.1527     23.4731    124.4432   9.4296034352e+01   4.6818087191e+01    0.2994353    0.1543638 -77.82   0.00120843    1.619    0.382
       330 -10.1823    229.9319    123.1744   4.5802955273e+01   9.2711749528e+00    0.5901771    0.3191744 -49.40  0.002397276    2.298    0.565
       331  -9.3307     67.6524    118.1545   8.2082489438e+01   4.3508982316e+01    0.2145779    0.1699673  59.84 0.0005271421    1.331    0.249
       332  -9.4426     67.0070    123.7830   8.3246228194e+01   4.2325851174e+01    0.1993743    0.1485859 -36.91 0.0005723353    1.667    0.400
       333  -9.1628     71.1024    120.9371   8.1680279745e+01   4.2420812519e+01     0.225678     0.190878  -5.72  0.001001566    1.638    0.390
       334  -9.7499     83.4166    118.8332   7.8046799842e+01   4.1129747503e+01    0.3536187    0.2040903 -43.50  0.001662036    1.906    0.475
       335 -10.0969     57.9977    117.7752   8.4565729803e+01   4.4807791388e+01     0.265861    0.2290578 -89.50 0.0007667823    1.094    0.086
       336 -10.5095     62.4631    112.7151   8.2475976751e+01   4.5400106854e+01    0.3987332    0.2189923 -44.89  0.001222787    1.951    0.488
       337  -9.0428    247.4881     13.4869   1.5920026574e+01   2.0904121125e+01    0.1340785    0.1176135 -70.62 2.489781e-05    1.002    0.002
       338  -8.9189     98.8605    117.4801   7.3704796585e+01   3.8952043726e+01    0.1964748     0.138288  44.06 0.0004602724    1.476    0.322
       339  -9.4808     46.6050    116.6639   8.7380898865e+01   4.6346207798e+01    0.2365134    0.1806933 -82.70 0.0007670291    1.177    0.150
       340 -11.0683      9.0173    107.4557   9.5914099340e+01   5.1584856672e+01    0.4073793     0.352773  85.87  0.003182509    1.189    0.159
       341 -10.5816     22.5097    110.3253   9.2774106699e+01   4.9985089102e+01    0.2868211    0.2229875  36.42  0.001834674    1.568    0.362
       342 -10.7046     25.8581    107.4196   9.1490397980e+01   5.0353000162e+01    0.3703514    0.2068044  64.61  0.001046429    2.198    0.545
       343  -9.9739     11.3760    115.7932   9.6270340660e+01   4.9626975442e+01    0.1853474    0.1533514 -71.41 0.0005149299    1.153    0.132
       344  -8.4195    103.4109    114.2448   7.1796141708e+01   3.8881531902e+01    0.1392761    0.1127376   1.56 0.0006926042    1.709    0.415
       345  -9.1284     84.1252    113.0195   7.6674650112e+01   4.2328507583e+01      0.19788     0.179263 -73.32 0.0002844373    1.013    0.013
       346 -10.2884     46.7910    109.6039   8.6181154197e+01   4.7906323279e+01    0.3138552    0.2519136 -62.11  0.001159949    1.100    0.091
       347 -11.0424     34.7270    109.6998   8.9453139412e+01   4.9077380395e+01    0.4836115    0.2547399 -52.35  0.002654337    1.738    0.424
       348  -9.0340     34.3022    103.6944   8.8633587079e+01   5.0447630228e+01    0.1979105    0.1449396  87.29 0.0005735116    1.381    0.276
       349  -9.6946      2.9501     37.7179   8.5893742369e+01   6.6437717295e+01    0.2842422    0.1368053 -20.05  0.001139914    2.561    0.609
       350 -11.1759     16.0649    104.6004   9.3715533664e+01   5.1720894047e+01    0.5146163    0.2723299 -87.29  0.001751861    1.877    0.467
       351  -9.0341    139.0658    107.8630   6.1098828531e+01   3.3195277941e+01    0.2220003     0.200162  89.13            0    1.198    0.165
       352  -9.8592    127.0357    106.0036   6.3651213524e+01   3.6142065727e+01    0.2193501    0.2136229 -69.06            0    1.009    0.009
       353  -9.4578    131.1702    104.8171   6.2291271146e+01   3.5528471902e+01      0.20543     0.181213   3.16 0.0004599748    1.330    0.248
       354 -11.3197    107.7898    103.1630   6.8005241248e+01   4.0525600394e+01    0.3849917    0.2788228  53.19  0.001915328    1.472    0.321
