#   1 NUMBER                 Running object number                                     
#   2 MAG_AUTO               Kron-like elliptical aperture magnitude                    [mag]
#   3 X_IMAGE                Object position along x                                    [pixel]
#   4 Y_IMAGE                Object position along y                                    [pixel]
#   5 X_WORLD                Barycenter position along world x axis                     [deg]
#   6 Y_WORLD                Barycenter position along world y axis                     [deg]
#   7 A_WORLD                Profile RMS along major axis (world units)                 [deg]
#   8 B_WORLD                Profile RMS along minor axis (world units)                 [deg]
#   9 THETA_WORLD            Position angle (CCW/world-x)                               [deg]
#  10 FWHM_WORLD             FWHM assuming a gaussian core                              [deg]
#  11 ELONGATION             A_IMAGE/B_IMAGE                                           
#  12 ELLIPTICITY            1 - B_IMAGE/A_IMAGE                                       
         1  99.0000    200.8634     37.2424   3.5917995088e+02   3.0572640376e+01     3.808705     1.557139 -36.92   0.01726435    2.020    0.505
         2 -13.9520    243.5653      8.1771   3.4965651888e+02   2.5224245823e+01     1.150232    0.4240928 -72.72    0.0055283    2.932    0.659
         3  99.0000    244.2296     22.2413   3.5257954614e+02   2.3607522277e+01    0.9093219    0.7910386 -10.74  0.006678309    1.568    0.362
         4 -13.5103    222.7919     10.8635   3.5122727182e+02   2.8968039698e+01    0.9670487    0.5870121 -66.15   0.00539044    1.402    0.287
         5 -12.7124    178.8518     37.9368   1.6593846630e+00   3.5508982119e+01    0.8295649    0.6570376  21.50  0.003016772    1.808    0.447
         6 -12.4165    160.4961     38.2300   4.0730734993e+00   3.9935044102e+01     1.364612    0.8590431  43.52  0.006398874    1.994    0.499
         7 -13.7354    225.8155     24.6319   3.5418892631e+02   2.6859300939e+01    0.9294207    0.7041835  77.32   0.00418224    1.468    0.319
         8  99.0000     35.9115     21.3737   3.4878747059e+01   7.2145456006e+01     2.572139     1.013201  44.43   0.01030555    2.645    0.622
         9 -12.4370     64.8679      5.4305   1.0604223488e+01   6.8290986595e+01     1.157058    0.4571898  47.45  0.004757426    2.266    0.559
        10 -14.1813     33.9374     57.0509   5.2314073965e+01   6.4873904580e+01     2.382704     1.474774 -24.44   0.01065831    1.998    0.499
        11 -12.9976     79.3355     22.2325   1.4986024549e+01   6.2850850685e+01     1.119976    0.5498027  50.07  0.002631775    1.862    0.463
        12 -13.0692     68.0068     13.5133   1.4222492900e+01   6.6661733767e+01     1.512271     0.606994  44.97  0.004271177    2.406    0.584
        13 -14.0125     63.6290     34.0192   2.6946886590e+01   6.4662363059e+01     1.935553     1.706804  56.42   0.01085059    1.172    0.147
        14 -11.6259     77.0116      4.7556   6.5047337674e+00   6.5386559160e+01     0.402224    0.2108607 -13.36 0.0006259801    2.336    0.572
        15 -13.3685     14.8398     47.8982   6.1193918822e+01   6.9014563364e+01     2.022883    0.9866046  80.47  0.006691299    4.541    0.780
        16 -13.1896      6.7984     40.4444   6.4648164578e+01   7.1354712034e+01     1.140444    0.5966904  75.28  0.003914366    3.151    0.683
        17 -11.1387    101.8310     22.2168   8.7573970855e+00   5.7178030499e+01    0.5043469    0.2130155 -33.71  0.001993645    2.397    0.583
        18 -10.4548    176.2338     24.9781   3.5827652326e+02   3.7743411561e+01    0.4022336    0.1882444 -53.35   0.00179568    1.994    0.499
        19 -10.0495    125.3757     18.1803   2.5230874183e+00   5.1466555396e+01    0.4115666    0.1395534 -25.95  0.001466349    3.167    0.684
        20 -10.4079    116.8959     17.1592   3.5634967634e+00   5.3814364553e+01      0.42846    0.3186722 -18.42  0.002238885    1.565    0.361
        21 -11.0486    112.6285     22.2143   6.4123512988e+00   5.4360455789e+01    0.5057594    0.3653976 -37.85  0.002597403    1.438    0.305
        22  99.0000    108.7061      9.1184   1.6969225674e+00   5.6796934679e+01    0.7778072    0.4479723   4.94  0.003337494    2.648    0.622
        23  99.0000    103.3161      9.4461   2.8267260186e+00   5.8182601102e+01    0.7029306    0.3004281  32.87  0.002319279    4.068    0.754
        24  99.0000    100.0929      6.0775   1.9304661487e+00   5.9341142803e+01    0.3686591    0.2191575 -58.95  0.001507718    1.920    0.479
        25 -10.7554    114.9378      2.9976   3.5815265059e+02   5.5702747358e+01    0.2960449    0.2131182  41.43 0.0007562504    1.545    0.353
        26 -11.7331    112.9941     14.4030   3.1446060820e+00   5.5138059288e+01    0.3926699    0.2597172 -18.38 0.0005221508    1.772    0.436
        27 -12.0532    116.1535      7.9842   3.5999701638e+02   5.4938966097e+01    0.4774283    0.3899239  11.18   0.00180731    1.521    0.343
        28 -12.8405    221.4505     39.5445   3.5794451269e+02   2.5960254308e+01    0.8521585    0.3802309 -58.12  0.001333531    2.211    0.548
        29 -11.3277    203.3288     18.0956   3.5414537581e+02   3.2294562620e+01    0.4061542    0.2710797  38.35  0.001962171    2.305    0.566
        30 -11.5259     20.5699     22.6141   4.6696432212e+01   7.4127263548e+01    0.4431057    0.2422937 -55.65 0.0004797755    1.957    0.489
        31 -10.7775    150.2911     13.3595   3.5747817716e+02   4.5487727484e+01    0.2448848    0.2013351 -66.98 0.0007104837    1.089    0.082
        32 -11.2177    125.6718     11.9383   1.1275304292e-01   5.2044891699e+01     0.333275    0.2285358  86.61 0.0009300145    1.373    0.272
        33 -11.0456     38.0632     12.3179   2.7714568949e+01   7.3225636412e+01     0.207712    0.1751468  -4.11 0.0003562856    1.169    0.145
        34 -10.9565     13.8546     12.3968   4.6436956840e+01   7.6887216640e+01    0.1993949    0.1696921 -49.75 0.0003237316    1.312    0.238
        35 -10.0582     88.6662     12.0661   7.2518475356e+00   6.1719536792e+01    0.1804138    0.1670745  -1.65 0.0004535656    1.207    0.171
        36  -9.3361    124.2929      8.6189   3.5904575530e+02   5.2731343983e+01    0.1447422    0.1273223  88.69  0.000838535    1.004    0.004
        37 -10.0719    144.3459     10.1604   3.5708003756e+02   4.7339873063e+01    0.2797841    0.1512105 -77.74 0.0009573276    1.940    0.485
        38 -10.1037     26.3425      9.6668   3.3931786077e+01   7.5658496853e+01    0.3483645    0.1998805  24.60  0.001320012    1.865    0.464
        39 -11.7551    194.0569      8.0999   3.5222940841e+02   3.5417464963e+01    0.2694865    0.2245919 -87.62 0.0007976679    1.181    0.153
        40 -12.5000    173.1983      6.3976   3.5322756019e+02   4.0473081272e+01    0.4181239    0.2815044 -15.88  0.001821073    1.830    0.454
        41 -11.1943     46.1556      2.1898   1.6091324743e+01   7.2884421671e+01    0.2452086     0.197286  18.80 0.0009287022    1.228    0.186
        42  -9.5245     44.5512      8.2621   2.1195109194e+01   7.2510948989e+01    0.2730474    0.1971847   8.91  0.001124562    1.565    0.361
        43 -10.3219     48.8206      6.2914   1.7685022750e+01   7.1851884926e+01    0.3246728    0.2291043  45.51  0.001767355    1.268    0.211
        44  -9.7866    164.4976      7.5256   3.5426169185e+02   4.2492563386e+01    0.1343262    0.1134164 -73.38 0.0008101071    1.011    0.011
        45 -10.6458      3.7961      5.7639   5.2389762453e+01   7.9137007982e+01    0.4727771    0.2000208 -33.02   0.00213768    2.484    0.597
        46  99.0000    209.9481      6.0178   3.5077683427e+02   3.2134239143e+01    0.2750858    0.1889457  86.69   0.00130111    1.424    0.298
        47 -11.3396    217.4755      2.4062   3.4955016919e+02   3.0912371320e+01    0.2110523    0.1788976 -84.19  0.001504351    1.242    0.195
        48 -10.8352    213.5083      2.4867   3.4975705403e+02   3.1731046020e+01    0.2533509    0.2394878 -79.08  0.001872602    1.308    0.236
        49  -9.4828     91.4572      6.5623   3.9159232541e+00   6.1543863673e+01    0.1387793    0.1234812  85.64 0.0008042847    1.088    0.081
        50  -9.6763    188.7360      5.2643   3.5182889271e+02   3.6914873727e+01    0.1873442   0.08485669 -42.02 0.0002401905    1.804    0.446
        51  -9.7582    184.3509      3.1622   3.5154752618e+02   3.8134806466e+01    0.2829243    0.1557837  71.25  0.001492726    1.789    0.441
        52  -9.2911    142.4848      3.6341   3.5506576315e+02   4.8433161264e+01     0.271253    0.1455581  47.56  0.001134838    2.181    0.542
        53 -10.8627     55.6796      3.4093   1.2739102634e+01   7.0640563986e+01    0.3526979    0.2293828  34.95 0.0008539192    1.519    0.342
        54 -10.7082    154.7475      2.2604   3.5347227451e+02   4.5423650075e+01    0.2073973    0.1839182 -30.21 0.0007356771    1.286    0.222
        55 -11.4053     88.2408      1.2853   2.0044043859e+00   6.2832265356e+01     0.238502    0.1085334  69.28 0.0002545701    1.932    0.482
        56 -10.2103    126.9308      1.6758   3.5607081061e+02   5.2655955225e+01    0.1923892    0.1495554  83.90 0.0002937159    1.130    0.115
        57 -10.6960     11.7072     98.0572   7.2337904932e+01   5.6046839487e+01    0.2075093    0.1664975 -77.25 0.0007243119    1.125    0.111
        58 -11.6482      3.1667    247.9814   8.2632961120e+01   2.0736308622e+01    0.4810879    0.2022228  68.34  0.002731031    2.108    0.526
        59 -11.2154     74.1540     96.8571   4.5644758120e+01   4.8729678078e+01     0.300803    0.2184532 -49.96  0.001375412    1.374    0.272
        60 -10.3568     16.9528     96.9994   6.9877532297e+01   5.5981187304e+01    0.2111109    0.1926145 -76.35 0.0003279808    1.012    0.012
        61 -11.0730    159.4266     95.8373   2.0938606656e+01   3.0695664117e+01     0.433706    0.2120667  57.57  0.001036602    2.313    0.568
        62 -12.8601     59.5093     90.7903   4.9862579878e+01   5.2756342619e+01    0.4976934    0.4238899 -76.80  0.001926025    1.213    0.175
        63 -11.6905     45.2190     92.8447   5.6499914022e+01   5.4267346077e+01    0.4524387    0.2945433   1.20  0.001931241    2.073    0.518
        64 -12.1761    160.5955     54.6284   9.0231636323e+00   3.7549173425e+01     1.138718    0.8144174  48.51  0.005698291    1.570    0.363
        65 -11.1987     36.2933    249.1684   7.5727634038e+01   1.7439135695e+01    0.1573203    0.1486103 -59.85  0.001219356    1.437    0.304
        66 -14.4637    196.8473     80.5700   1.0597822330e+01   2.5243165575e+01     3.171525     1.487001  64.27    0.0125179    2.570    0.611
        67 -12.9883    191.3766     42.9656   1.6243280586e+00   3.1944662828e+01     1.253737    0.6932485  47.56   0.00588268    2.347    0.574
        68 -12.6359    194.7918     57.0616   4.9159097098e+00   2.9233884587e+01    0.7096353    0.6027646  -8.74  0.003261699    1.478    0.323
        69 -12.7256    165.4149     65.6818   1.1462031759e+01   3.4642590721e+01     1.358526    0.5331723  54.33  0.005135239    2.605    0.616
        70 -13.9443    181.4786     71.0285   1.0387509741e+01   3.0076554120e+01     2.814293      0.55736  55.83  0.008280655    4.780    0.791
        71 -13.2729    184.4388     61.2773   7.3572802994e+00   3.0920940881e+01     1.119102    0.7559981 -46.64  0.001287004    1.316    0.240
        72 -11.3844     12.4501    247.2640   8.0695576196e+01   2.0056530028e+01    0.2474707     0.100257  89.60  0.001317511    2.692    0.629
        73 -12.2468    162.2216     83.4981   1.7045103127e+01   3.2339387072e+01    0.5029916    0.4451798  67.35  0.002751602    1.177    0.151
        74 -12.7007    168.6091     78.4105   1.4479672819e+01   3.1770507403e+01    0.9126756    0.4414335 -48.72  0.002372042    2.051    0.512
        75 -13.2893    217.2014     52.7825   1.4327779697e+00   2.5110008438e+01     1.148992    0.6952836 -64.09  0.006216998    1.685    0.407
        76 -10.8325    180.5023    244.0453   4.5130560752e+01   1.4672410384e+00    0.1795311    0.1225897  17.83 0.0009644592    1.144    0.126
        77  -9.7052    218.5092    239.9672   3.7898213810e+01  -2.1452500918e+00      0.14576   0.08884011 -27.66 0.0005468236    1.541    0.351
        78 -12.4906    188.7386     35.1102   3.5980930731e+02   3.3564575281e+01    0.5785742    0.4531142  25.98  0.001879466    1.851    0.460
        79 -13.9393    209.8135     67.8948   5.8307369749e+00   2.4499207538e+01    0.9566851    0.7253612  86.98   0.00156642    1.491    0.329
        80 -13.0233    209.2585     59.1126   3.7679284501e+00   2.5863885284e+01    0.5514862    0.5061331 -69.59  0.003624974    1.130    0.115
        81 -11.9351    172.3405     44.0122   4.1896402557e+00   3.6246461036e+01    0.5174652    0.3172347  73.45  0.001542523    1.667    0.400
        82 -10.6172     15.9204    238.6265   7.9696917552e+01   2.1359489463e+01    0.1746398    0.1499322 -89.31 0.0006340332    1.368    0.269
        83 -11.7134    149.3974     40.8338   6.5481913902e+00   4.2369718615e+01     1.043058    0.6333157  41.37  0.004619963    2.103    0.524
        84  -9.7381     26.3755    207.3075   7.5967737116e+01   2.6795922975e+01     0.119443   0.09424241 -26.69 0.0007029952    1.776    0.437
        85 -12.1779    232.9843     36.2420   3.5631598401e+02   2.4103729988e+01    0.5847073    0.2699275 -67.21    0.0015875    2.443    0.591
        86  -9.6568    101.0900    176.0845   5.3018043284e+01   2.4452861995e+01     0.181181    0.1528721  55.72 0.0009823526    1.202    0.168
        87 -12.8905    238.2034     51.4637   3.5927468756e+02   2.1247264196e+01     1.260158    0.3815642 -52.48  0.004907836    3.451    0.710
        88 -13.3879    230.1033     47.0804   3.5896400474e+02   2.3318704812e+01    0.9019501    0.5565329  49.16  0.005113529    2.203    0.546
        89 -13.9029     51.0362     85.6068   5.2156308516e+01   5.5385094149e+01    0.9912294    0.8741097   4.25  0.005216961    1.248    0.199
        90 -12.1190     99.1799     55.2823   2.3091693899e+01   5.2744050512e+01    0.9617302    0.7054599   9.84  0.004190868    2.036    0.509
        91 -11.8043     89.7604     54.6490   2.5899723672e+01   5.5088417378e+01    0.9491099    0.4641298 -45.37  0.003691577    2.116    0.528
        92 -11.6102    123.5265     53.6409   1.5931815583e+01   4.6997447624e+01    0.4249586    0.2796745  65.80 0.0007875304    1.534    0.348
        93 -10.1243    236.9212    146.0474   1.9204998241e+01   8.1490648009e+00    0.1807107    0.1435584 -21.24 0.0004347699    1.022    0.022
        94 -14.7056     41.6067     77.2114   5.4310785849e+01   5.8854656719e+01      2.48543     1.556504  -8.91  0.008375868    2.311    0.567
        95 -13.5165     99.8525     72.2990   2.9008349579e+01   4.9215204150e+01     1.872694     1.382892 -11.50  0.004117226    1.966    0.491
        96 -12.4026     87.2471     64.2322   3.0412587144e+01   5.3744538021e+01    0.8744263    0.5407044  66.73 0.0007463128    2.196    0.545
        97 -10.5703    250.1443    131.9943   1.4741491029e+01   8.2898931903e+00    0.1725217    0.1330219 -28.29 0.0003981677    1.013    0.013
        98  -9.5968    174.1775    130.6545   2.6487380537e+01   2.1050926013e+01    0.1963237    0.1291799  33.99  0.000640249    1.673    0.402
        99 -12.1793    123.7746     69.9118   2.1387267170e+01   4.4016691221e+01    0.4526774    0.3983869 -40.84   0.00106586    1.162    0.139
       100 -13.6526    117.1926     60.9218   2.0045250807e+01   4.7306816838e+01     1.047628    0.7032137 -52.08  0.003455288    1.553    0.356
       101 -10.2340    222.1501    124.9068   1.7068967414e+01   1.3539483469e+01    0.2397899    0.1566917 -40.13 0.0003384324    1.327    0.247
       102 -10.7096    220.9621    121.4529   1.6513294921e+01   1.4268594703e+01    0.3600531    0.2089385  57.70  0.001833437    2.321    0.569
       103 -10.2924    196.1127    123.3715   2.0815866945e+01   1.8276562878e+01    0.2792658    0.1595341 -51.50  0.001257091    1.947    0.486
       104 -12.3992     58.3259     60.6901   4.0959994919e+01   6.0334233540e+01    0.7590089    0.5362449 -78.18  0.003023072    1.988    0.497
       105 -13.0037     51.4266     54.2640   4.1863660717e+01   6.2970403145e+01    0.9005595    0.8150787 -36.13  0.003167738    1.089    0.082
       106 -13.1360     51.7703     44.5414   3.7627317437e+01   6.4996382293e+01    0.7111699    0.4257825  16.20  0.001104904    2.466    0.595
       107 -13.2785     61.0379     43.4860   3.2613204637e+01   6.3461008039e+01    0.4519872    0.4279945 -71.31 0.0005581162    1.175    0.149
       108 -14.1431     76.9629     58.8880   3.2249864544e+01   5.7087691475e+01    0.9217826    0.7042809  42.98  0.004503188    1.290    0.225
       109 -13.7521     81.6451     42.1192   2.3547120073e+01   5.9254884506e+01     1.267918    0.8032934 -25.07  0.003820595    1.918    0.479
       110 -12.0315     75.1174     41.8039   2.5849665528e+01   6.0796791436e+01    0.2856381    0.2829219  -6.42 0.0006007224    1.043    0.041
       111 -10.2773    167.2498     89.9962   1.7855471873e+01   3.0036907159e+01    0.2715596    0.2052174  78.72 0.0005741334    1.577    0.366
       112 -11.7901    172.7164     90.7236   1.7043520152e+01   2.8701687753e+01    0.3151468    0.2580294  54.08 0.0004884786    1.312    0.238
       113 -12.2436    174.4507     86.5802   1.5650832298e+01   2.9048122948e+01    0.7352457    0.2627636  50.41  0.002650953    2.981    0.665
       114 -12.7042    179.4396     79.4372   1.2933498252e+01   2.9161171015e+01    0.7863337    0.6125114  33.14  0.004127974    1.612    0.380
       115 -14.0422    226.6513     62.9864   2.8765253839e+00   2.1886096428e+01     1.912391    0.9825802  62.75   0.01006913    2.264    0.558
       116 -12.4591    207.3854     86.8010   1.0652321238e+01   2.2141053611e+01    0.5410823    0.2386325 -34.63  0.002376921    2.007    0.502
       117 -11.6199    237.5548     86.6125   6.9636969129e+00   1.6638379469e+01    0.3069179    0.2673396  89.89 0.0008037283    1.385    0.278
       118 -11.4748    233.5379     84.4892   6.9427440338e+00   1.7632722896e+01    0.3187965    0.2760278  83.10  0.001457428    1.390    0.281
       119 -11.7504    106.3014     86.8869   3.1688972868e+01   4.4602088895e+01    0.4725307    0.3215632  45.11  0.001679747    1.471    0.320
       120 -11.9544    114.3914     86.6157   2.9208253725e+01   4.2838575017e+01     0.449578    0.3211997  52.31 0.0006775991    1.406    0.289
       121 -12.8238    114.6291     80.7532   2.7327948375e+01   4.4028985083e+01    0.7379093    0.5216432 -46.25  0.002198426    1.413    0.292
       122 -12.5654     66.1825     82.0712   4.4626284421e+01   5.3858496653e+01     0.812028    0.5930796  69.47  0.002090606    1.727    0.421
       123 -10.7834    228.3948    118.9762   1.4954819694e+01   1.3431881636e+01    0.2957098    0.1788293  48.46 0.0009246479    1.996    0.499
       124 -12.4319    248.9386     83.0653   5.0455402106e+00   1.5229204598e+01    0.2457127    0.2189848 -47.83 0.0004092971    1.163    0.141
       125  -9.7523     80.2349     84.6041   3.9846729157e+01   5.0624778367e+01    0.2142151    0.1508293  28.46 0.0003319765    1.592    0.372
       126 -10.7852     17.9781     82.6340   6.7195486364e+01   5.9813902216e+01    0.4474203    0.1889728 -25.73  0.001328412    3.640    0.725
       127 -13.0722     17.6570     63.7601   6.3592604499e+01   6.4820009913e+01      1.47636    0.4964949  48.07  0.004564004    4.529    0.779
       128 -10.8329    238.0260     80.9969   5.7074509394e+00   1.7342533113e+01     0.260387    0.1650608 -24.08 -0.005334738    1.611    0.379
       129 -11.7207    233.1494     79.2697   5.8446956420e+00   1.8437900849e+01    0.3826801    0.2391711  75.57  0.002159624    2.116    0.527
       130 -10.9049     82.1776     79.3994   3.7488349649e+01   5.1467671950e+01    0.4947251    0.2468507  43.14  0.001887589    1.991    0.498
       131 -11.7361     85.1559     73.3124   3.4375685587e+01   5.2237908037e+01    0.7867167    0.5848451 -76.87  0.001952664    1.730    0.422
       132 -10.4884     74.5513     70.1818   3.7350907161e+01   5.5121112464e+01    0.3670679    0.2572404 -30.98  0.001630202    1.675    0.403
       133 -11.9887     74.3501     75.5931   3.9260872378e+01   5.3911362955e+01    0.6319633    0.3548901  47.24  0.001536379    1.831    0.454
       134 -10.7153     77.5927     72.2022   3.6846607097e+01   5.4052568380e+01     0.282537    0.2618661  57.17  0.000984268    1.087    0.080
       135 -12.0392    249.4258     72.9847   2.9041490932e+00   1.6494010138e+01    0.5061291    0.2082626 -33.98  0.001351457    1.914    0.478
       136 -11.8487    241.9841     74.1684   3.8474848733e+00   1.7595146473e+01    0.4228343    0.3327464 -54.72  0.002689803    1.173    0.148
       137 -10.6198    240.0219     68.6672   2.8525219242e+00   1.8676138068e+01    0.2986496    0.1928672 -43.07  0.001830021    1.207    0.171
       138 -11.6546    231.9178     73.1192   4.6188330590e+00   1.9516916132e+01    0.2411497    0.1854879 -31.43  0.001034515    1.204    0.169
       139 -12.1584    136.8255     71.7137   1.8844514774e+01   4.0500326638e+01      1.39324    0.4109598  55.51  0.004213712    3.439    0.709
       140  -9.2969    136.6394     62.0370   1.5815150035e+01   4.2273202899e+01    0.3370529    0.2775561  64.13 0.0008169461    1.203    0.169
       141 -10.9955    137.1931     58.0779   1.4411480333e+01   4.2808114600e+01    0.4893977      0.31915 -81.00  0.001193872    2.031    0.508
       142 -11.4598    154.7625     65.2031   1.3192504291e+01   3.7275739976e+01    0.6274598    0.3220791 -39.24  0.001690955    1.844    0.458
       143 -11.0666    152.0055     59.2511   1.1896367672e+01   3.8928919895e+01     0.348482    0.2795708  -2.67            0    1.678    0.404
       144 -11.8700    144.0597     67.9948   1.6129382609e+01   3.9404426660e+01    0.3575201    0.2921007 -45.01 0.0004404827    1.189    0.159
       145 -11.8436    148.7089     65.7600   1.4509196724e+01   3.8655212169e+01    0.7396936    0.4197451 -66.33  0.001827629    2.475    0.596
       146 -11.3683    144.6627     59.8034   1.3454167094e+01   4.0655461740e+01    0.5843851    0.3188776  42.82  0.001776027    2.236    0.553
       147 -10.6098    145.8316     52.1529   1.0800247477e+01   4.1594855666e+01    0.2939158    0.2028164  52.30 0.0009896364    1.514    0.339
       148  -9.8469     70.5294     70.4814   3.9091210247e+01   5.5837969861e+01    0.2546048    0.2069066 -39.11 0.0007125714    1.269    0.212
       149  -9.9185     67.5127     70.5126   4.0365267381e+01   5.6401450708e+01    0.2708988    0.1497272  26.68  0.001028996    2.263    0.558
       150 -10.6409     70.7943     87.8361   4.4449337794e+01   5.1606127565e+01    0.4672079    0.2834565  45.55  0.001061466    1.682    0.405
       151 -11.8153     11.8536     24.7972   5.4961143775e+01   7.4574005343e+01    0.7175659    0.4008333   3.68  0.000678389    1.993    0.498
       152 -12.0665      3.1316     46.2545   6.8717175485e+01   7.0122623104e+01     0.829097    0.3829342 -71.80  0.003003222    1.989    0.497
       153 -11.5001    204.2063    116.6152   1.7984129890e+01   1.7943859153e+01    0.4974369    0.3475024  82.26  0.002457621    2.393    0.582
       154 -11.2875     13.8133     37.1565   5.8424227633e+01   7.1648000249e+01    0.4663302    0.3196131 -19.49 0.0004456958    1.494    0.331
       155 -11.1877      1.5184     60.5317   7.2435365230e+01   6.6579578244e+01    0.3462498    0.1855067 -85.79 0.0009840794    1.874    0.466
       156 -12.4982      5.7123     56.2571   6.9125625191e+01   6.7494811933e+01    0.6186974    0.4380137  -6.77  0.002254748    1.519    0.342
       157 -10.5212    247.7498    117.5812   1.2207259597e+01   1.0643298792e+01    0.2609906    0.1900526  81.50  0.001590957    2.326    0.570
       158 -12.4093     25.6797     44.1298   5.2757194218e+01   6.8894438794e+01     0.871599    0.6436507   1.97   0.00346161    1.449    0.310
       159 -11.5755      6.0039     34.9932   6.3623331810e+01   7.2693539739e+01    0.3630021    0.2990057  80.43 0.0003348531    1.460    0.315
       160 -12.6866     12.1902     32.3736   5.7876177125e+01   7.2872929728e+01    0.9166559    0.3016522  26.42  0.002693279    2.905    0.656
       161 -11.9687     26.1868     36.2624   4.9212388018e+01   7.0602684749e+01    0.3924504     0.306416 -44.81  0.001090453    1.215    0.177
       162 -11.4929     29.9052     34.9030   4.6076520268e+01   7.0424382104e+01    0.2522409    0.2271623 -40.37  0.001515504    1.112    0.101
       163 -10.8751    126.9696     58.6676   1.6862224802e+01   4.5272426478e+01    0.4206551    0.2918799  36.03  0.001882856    1.764    0.433
       164 -11.8363    173.6851     56.8842   7.6695305297e+00   3.4064943868e+01    0.3033607    0.2657541  76.86 0.0003723328    1.171    0.146
       165 -10.2252    249.9829     55.4171   3.5918785010e+02   1.8660737282e+01    0.2173396    0.1391575 -25.53 0.0008629338    1.579    0.367
       166 -10.8153    249.7200     49.9178   3.5805711255e+02   1.9388967548e+01    0.3271173    0.2054953 -44.27  0.002069746    1.189    0.159
       167 -10.8275    245.3989     53.5098   3.5914233457e+02   1.9697073491e+01    0.2642961    0.1639117 -30.03  0.001095095    1.471    0.320
       168 -10.7226    245.2047     49.9917   3.5840895718e+02   2.0171262301e+01    0.2380596    0.1433347 -33.78 0.0002317369    1.393    0.282
       169 -10.7015    142.3484     55.0200   1.2379809799e+01   4.2015961606e+01    0.3865287    0.3121808  -8.43  0.001926298    1.597    0.374
       170 -10.5159    131.2119     52.0301   1.3654740572e+01   4.5314517521e+01    0.2652795     0.158256 -60.06  0.001093733    1.973    0.493
       171 -11.8607    133.7870     46.6157   1.1269313490e+01   4.5510389349e+01    0.3496337    0.2940225  70.95   0.00102388    1.146    0.127
       172 -11.4080    133.0153     40.7350   9.3841270441e+00   4.6584638346e+01    0.4920966    0.3596616 -63.07  0.002428374    1.415    0.293
       173  -9.5318     94.4526     47.9311   2.1684162937e+01   5.5208037262e+01    0.2006188     0.124769 -62.91 0.0007991844    2.184    0.542
       174 -11.8417    125.9384     45.6881   1.2573749311e+01   4.7666525855e+01    0.4432156    0.3316245  77.37 0.0005857706    1.358    0.263
       175 -10.2320    121.6695     44.7153   1.3163507919e+01   4.8913212429e+01    0.3539768    0.2631079 -80.64  0.001487969    1.516    0.341
       176 -10.4104     35.1681     41.6398   4.5722027725e+01   6.8261752148e+01    0.4256555    0.2078696  22.62   0.00174576    2.371    0.578
       177 -11.0703     41.4516     45.2882   4.3560823834e+01   6.6547878278e+01    0.3640066    0.3039511 -61.31  0.001338662    1.315    0.240
       178 -11.4486     40.9255     39.9070   4.1492756850e+01   6.7775082095e+01    0.4228039    0.3012658  -6.32  0.001189872    1.746    0.427
       179 -10.5845    104.0473     42.3621   1.6626304188e+01   5.3772292910e+01    0.6795648    0.2690675  66.78  0.002130472    3.369    0.703
       180  -9.0791     99.4579     46.4862   1.9576971733e+01   5.4236877044e+01    0.2841292    0.1937677 -72.56  0.001101693    1.989    0.497
       181  -9.7632     97.4771     42.5677   1.8573714992e+01   5.5378221816e+01    0.2293956    0.1905745 -53.19 0.0004263858    1.261    0.207
       182  -9.8784     93.8188     42.4032   1.9610766452e+01   5.6304275229e+01    0.3287584    0.2616501  49.37   0.00099416    1.214    0.176
       183 -11.5041    247.8632     41.2316   3.5636473360e+02   2.0768100818e+01    0.3849751    0.2885205 -48.65  0.002272835    1.006    0.006
       184 -10.3206    111.6364     39.0250   1.3355858750e+01   5.2357906307e+01     0.382378    0.1471036  51.15  0.001013832    2.496    0.599
       185 -12.2524     92.0237     33.3519   1.6264009876e+01   5.8168858078e+01    0.6851951    0.3812052  40.06  0.002866723    2.017    0.504
       186 -10.5654    131.6390     33.4135   7.0530298205e+00   4.7961694020e+01    0.3762561    0.1967192 -50.84 0.0001135682    2.004    0.501
       187 -10.3311    112.2436     32.2467   1.0538369183e+01   5.3174524217e+01    0.4488819    0.2789712  43.29  0.002020987    1.766    0.434
       188  -9.5127    114.4800     28.4105   8.5225405024e+00   5.3104613316e+01    0.1957487     0.132305  74.46 0.0001298252    1.446    0.309
       189 -10.9454    247.7197     32.7011   3.5458144992e+02   2.1795417696e+01    0.1866436    0.1289044 -45.46 0.0004599643    1.083    0.077
       190 -10.6882    122.0268     33.0069   8.7410592634e+00   5.0523494121e+01    0.2403433     0.195408  68.16 0.0006416052    1.156    0.135
       191 -11.7617    104.1099     29.7346   1.1428073012e+01   5.5620992711e+01    0.4427004     0.309524  77.29  0.001294086    1.484    0.326
       192 -10.6066    181.5329    115.2474   2.1527147266e+01   2.2464626495e+01    0.4638063     0.273625 -38.42  0.002186019    1.558    0.358
       193 -11.1978     97.3861     22.1350   9.7929245279e+00   5.8335414388e+01    0.2820998    0.2438353 -22.50 0.0007865928    1.283    0.221
       194 -11.5620    149.7321     22.7658   6.2219927718e-01   4.4599699388e+01    0.4301574    0.2896774  30.01 0.0009696609    2.132    0.531
       195 -11.9010    159.0417     26.7486   7.1964245603e-01   4.1763932717e+01    0.3649409    0.2615543  -9.49  0.001668434    1.856    0.461
       196 -10.7233    153.9905     25.8199   1.0617667218e+00   4.3152514186e+01    0.3249027    0.2125189 -78.17 0.0009598284    1.549    0.354
       197 -10.6215    138.6182     28.9293   4.2919763144e+00   4.6726936452e+01    0.4504189    0.2476347  -7.52  0.001714742    3.121    0.680
       198  -9.5561     90.5493     27.1201   1.3890555428e+01   5.9425118321e+01    0.1928014    0.1433616 -33.51 0.0003505033    1.431    0.301
       199  -9.5339     80.4426     30.4015   1.8609756537e+01   6.1432908699e+01    0.2181277    0.1849816  49.50 0.0001249157    1.109    0.098
       200 -11.3642     86.0375     28.8182   1.6031949941e+01   6.0307767290e+01    0.4899868    0.2420461  52.74   0.00203427    1.852    0.460
       201  -9.6329    120.2663     28.3676   7.3264891501e+00   5.1596095708e+01    0.1937533    0.1300519  81.11 0.0003495881    1.515    0.340
       202 -10.5261    134.8159     26.4828   4.0416742646e+00   4.8021346695e+01    0.3147916    0.2691179 -17.45 0.0009393681    1.372    0.271
       203 -11.7966    134.7814     21.0604   2.1178128080e+00   4.8672535743e+01      0.41928    0.2810271  82.19 0.0007970202    1.423    0.297
       204 -10.1674    171.9734    116.5002   2.3638424924e+01   2.4136048276e+01    0.2390522     0.184768 -48.68  0.000321831    1.267    0.211
       205 -11.1357    124.5769     23.9172   4.8273070009e+00   5.1016567049e+01    0.5816039    0.2410938  64.30  0.001722828    2.165    0.538
       206  -9.4968    172.4667    112.5678   2.2595275958e+01   2.4771361150e+01    0.2135188    0.1745276   0.82 0.0001863811    1.477    0.323
       207  -9.7115     50.2406    117.1765   5.9352257973e+01   4.7015064021e+01     0.211741    0.1661951  62.10 0.0004987005    1.305    0.234
       208 -11.6408    126.6744    115.9993   3.3924463476e+01   3.3651313435e+01     0.389964    0.2267087  43.38 0.0006045785    1.730    0.422
       209 -10.5695    191.8846    103.7877   1.7009343291e+01   2.2430885242e+01    0.3041281    0.1692951 -45.66  0.001336794    1.668    0.400
       210 -10.0283    196.3475    113.1609   1.8468252200e+01   1.9973453649e+01    0.3974477    0.1762947 -49.80  0.001494811    2.514    0.602
       211 -11.0550    196.2959    107.7033   1.7214425115e+01   2.0906678804e+01     0.470761    0.2852656 -55.38  0.002235424    1.890    0.471
       212 -10.2399    199.5546    106.4713   1.6409490930e+01   2.0489234696e+01    0.2468805    0.1875273 -36.30  0.000539456    1.160    0.138
       213  -9.6461    210.0335    111.7862   1.6014516780e+01   1.7680641416e+01    0.1528697    0.1092569  51.73 0.0003389139    1.637    0.389
       214 -11.1066    209.6247    105.2907   1.4617126799e+01   1.8796400914e+01    0.4437478    0.2460437 -56.06  0.001832312    2.227    0.551
       215 -12.3066    160.7830    104.5514   2.2935310893e+01   2.8736714620e+01    0.5455949    0.2619698 -44.86 0.0002566276    1.991    0.498
       216  -9.4575    180.7354     21.0992   3.5675180974e+02   3.7116046153e+01    0.2621152   0.09410017 -57.85 0.0009644267    3.036    0.671
       217 -11.3211    161.7692     19.9680   3.5830879781e+02   4.1868794966e+01    0.3772522    0.2459848 -86.15 0.0009920991    1.478    0.323
       218 -10.2181     85.8421    107.1706   4.4099654472e+01   4.3976792145e+01    0.2189488    0.1928603 -14.75 0.0005747714    1.327    0.246
       219  -9.9171    200.6560     15.7595   3.5374557899e+02   3.3137908432e+01    0.1833217    0.1347953 -54.12 0.0002678554    1.105    0.095
       220 -10.5886     15.3774    106.6718   7.1767945293e+01   5.3437561001e+01    0.2563216    0.2192182 -56.59 0.0002732489    1.164    0.141
       221  -9.5454     14.3473     19.0982   4.9957989735e+01   7.5526400996e+01    0.1687157    0.1189825 -65.98 0.0006625443    1.741    0.426
       222  -9.7978    194.4725     18.4970   3.5489996341e+02   3.4222485281e+01    0.1321921    0.1049434 -61.36 0.0008098622    1.030    0.029
       223  -9.6730    105.2717     17.0670   5.7639299997e+00   5.6880518272e+01    0.1812346     0.167016 -54.58  0.001046713    1.137    0.121
       224 -10.0807     93.4814     16.7113   8.2784376395e+00   5.9979707326e+01    0.2529129    0.1399891  47.32 0.0007195852    1.771    0.435
       225 -10.3074    154.5243     15.4845   3.5769709749e+02   4.4185344717e+01     0.211867    0.1695689  29.82 0.0009682992    1.645    0.392
       226  -9.8360    160.2836     14.0213   3.5663323956e+02   4.2886104699e+01    0.1824291     0.159873 -63.30 0.0004186767    1.069    0.064
       227  -9.8889    184.9608    105.5259   1.8594982306e+01   2.3512477430e+01    0.1976672    0.1407136  50.94  0.000453867    1.545    0.353
       228  -9.3040    102.3098     14.6895   5.3466989192e+00   5.7913624798e+01    0.1464219    0.1012956 -67.50 0.0007025818    1.623    0.384
       229 -12.5205    145.9199    103.2670   2.5842046474e+01   3.2227428562e+01    0.6047591    0.3159191  53.07  0.002285751    2.043    0.511
       230 -13.5305    120.8904    100.5164   3.1410017699e+01   3.8342729966e+01    0.9186871    0.4689702 -43.22  0.003524448    1.978    0.494
       231 -11.9625    137.6386     81.9279   2.1768000266e+01   3.8373349302e+01    0.8299624    0.6250145  80.33  0.002901556    1.571    0.364
       232 -12.3706    121.2375     87.7271   2.7633225180e+01   4.1033994073e+01    0.6112647    0.3890955 -41.44  0.002625621    1.588    0.370
       233 -12.1101    127.3979     78.2043   2.3114606626e+01   4.1536118820e+01    0.9603598    0.5643085 -18.08  0.003293955    3.149    0.682
       234 -11.6212    141.5107     96.3567   2.4997992917e+01   3.4612455435e+01    0.4990634    0.3238939  55.50  0.001177757    1.618    0.382
       235 -13.3927    128.9015     89.2116   2.6053849800e+01   3.8957519125e+01     1.288342    0.7408929  29.32  0.004659607    2.694    0.629
       236 -12.4531    135.2609     96.2890   2.6481353288e+01   3.6038918615e+01    0.5878024    0.4192407 -43.61  0.001664371    1.378    0.274
       237 -13.5037    128.7560     95.8047   2.7987622125e+01   3.7610257572e+01    0.9709557    0.6122304 -64.97  0.003888817    2.068    0.516
       238 -11.4676    147.0543     78.5693   1.8683303427e+01   3.6776007351e+01    0.4373955     0.289409 -47.27  0.001240896    1.463    0.317
       239 -10.8085    215.5952    100.7145   1.2743352830e+01   1.8426521002e+01    0.4473018     0.224243 -21.45  0.001852931    2.765    0.638
       240 -12.0171    169.6133     96.8084   1.9196037073e+01   2.8282269914e+01    0.6879496    0.4495471 -22.10  0.002303375    1.897    0.473
       241 -10.0609    165.4888     96.4625   1.9896680557e+01   2.9243206446e+01    0.1964435    0.1413123  39.47 0.0008320981    1.575    0.365
       242 -13.8052      6.8052     68.4741   7.0672915096e+01   6.4281068714e+01     1.221689    0.9017549 -83.46  0.003248093    1.307    0.235
       243 -11.9472    148.2773     84.5354   2.0151838689e+01   3.5373425782e+01    0.4609622     0.363255 -77.66 0.0009364317    1.458    0.314
       244 -11.3218    180.8615     98.7331   1.7642774077e+01   2.5546543387e+01    0.4343117    0.2440147 -27.74  0.001371958    2.004    0.501
       245 -12.1819    184.1710     95.3630   1.6236490388e+01   2.5442920437e+01    0.5950844    0.3799434  64.67  0.002164442    1.870    0.465
       246 -12.2339    151.1661     97.0105   2.2993217582e+01   3.2310683792e+01    0.5753015    0.3901119 -49.13  0.002664265    1.446    0.308
       247 -12.5051     87.5194     98.3313   4.1190736976e+01   4.5858509058e+01    0.6979221    0.4935056   6.91  0.002838248    2.147    0.534
       248 -11.2889     82.1312     98.4831   4.3138260959e+01   4.6855401993e+01    0.4355402    0.3458569  24.17  0.002050434    1.404    0.288
       249 -10.9004    250.3270     97.8160   7.9341145112e+00   1.2999051511e+01     0.359295     0.152155 -46.86 0.0007626803    2.175    0.540
       250 -10.7158    250.5234     93.5311   7.0401343708e+00   1.3554964414e+01    0.2198026     0.165267 -41.33 9.550757e-05    1.076    0.071
       251 -12.5190    199.7405     96.3989   1.4016867046e+01   2.2113450861e+01    0.3584402    0.3055523  89.54  0.002120557    1.377    0.274
       252 -12.9477    102.7562     96.3838   3.5594438723e+01   4.3211765521e+01    0.8074207    0.5329917  27.21 0.0006032095    1.894    0.472
       253 -11.8130     95.1307     89.8799   3.6170003716e+01   4.6341296160e+01    0.6049306    0.4378621  60.67  0.001057399    1.534    0.348
