#   1 NUMBER                 Running object number                                     
#   2 MAG_AUTO               Kron-like elliptical aperture magnitude                    [mag]
#   3 X_IMAGE                Object position along x                                    [pixel]
#   4 Y_IMAGE                Object position along y                                    [pixel]
#   5 X_WORLD                Barycenter position along world x axis                     [deg]
#   6 Y_WORLD                Barycenter position along world y axis                     [deg]
#   7 A_WORLD                Profile RMS along major axis (world units)                 [deg]
#   8 B_WORLD                Profile RMS along minor axis (world units)                 [deg]
#   9 THETA_WORLD            Position angle (CCW/world-x)                               [deg]
#  10 FWHM_WORLD             FWHM assuming a gaussian core                              [deg]
#  11 ELONGATION             A_IMAGE/B_IMAGE                                           
#  12 ELLIPTICITY            1 - B_IMAGE/A_IMAGE                                       
         1 -12.1665     76.7080     24.3262   9.6758399122e+01   6.0414868512e+01    0.4729587    0.3912336 -35.19  0.001514566    1.346    0.257
         2 -10.9267     89.4775     23.4921   9.2309874587e+01   5.8187839494e+01    0.5501624    0.1436092 -36.77  0.001853951    3.779    0.735
         3 -11.2047     13.5227     20.6837   1.2099032551e+02   6.8882504104e+01    0.3027425    0.2745532  82.56  0.001146864    1.809    0.447
         4  -9.1197    115.8331     19.0012   8.3285393073e+01   5.3215540084e+01     0.416721    0.1849963 -42.83  0.001633757    2.862    0.651
         5 -11.1793     42.0406     18.2444   1.0721684760e+02   6.6474543123e+01      0.50889    0.3708151  14.69  0.003307054    1.364    0.267
         6 -11.1295    190.3246     15.0623   6.8642705908e+01   3.5250145655e+01    0.3863458    0.1668554 -24.54  0.001581497    2.411    0.585
         7 -10.5213     26.8710     15.7582   1.1279593194e+02   6.8553580515e+01    0.3024587    0.1813173 -23.51  0.001314902    1.452    0.311
         8  -9.9824     38.9936      2.0399   1.0078618737e+02   6.9138265906e+01    0.4506055    0.2042225  34.17  0.002407119    2.253    0.556
         9 -10.6120     39.2252     10.4814   1.0485999745e+02   6.7970718983e+01    0.2443672    0.2240302 -41.60 0.0008892906    1.612    0.380
        10 -11.0448     41.1063      6.6209   1.0217697875e+02   6.8264326656e+01    0.5528674    0.2373217  28.40  0.002718801    2.559    0.609
        11 -11.5908     34.8523     13.2203   1.0805968950e+02   6.8092712918e+01    0.4260808    0.2435547 -43.98    0.0015764    1.816    0.449
        12 -11.9229     30.2007      7.2280   1.0734065728e+02   6.9501131137e+01    0.4844361    0.3057489 -33.05  0.003105502    1.346    0.257
        13 -11.0692    212.5269     12.0517   6.5210692431e+01   3.0003765947e+01    0.2624815    0.2212398  82.46 0.0008937252    1.130    0.115
        14 -10.1207     68.3023     12.4267   9.4378852263e+01   6.3435452010e+01    0.2590205    0.1805572 -55.70  0.001327232    2.576    0.612
        15 -10.9435     55.1337      7.8640   9.7064246111e+01   6.6119669019e+01    0.4827228    0.2714067 -24.05 0.0009546979    1.585    0.369
        16 -11.2496     57.4128      4.3966   9.4497743650e+01   6.6186073738e+01    0.4587907    0.2363668  34.34  0.002454186    1.867    0.464
        17 -10.4020     53.3720      2.0172   9.4850411874e+01   6.7092751469e+01    0.3055513    0.1818841 -10.91   0.00174225    1.573    0.364
        18 -10.2987    184.4957     11.9774   6.8488372624e+01   3.7041462605e+01    0.1961848    0.1361894 -25.30 0.0004873776    1.519    0.342
        19 -10.0612    118.9801     11.7637   7.9711337277e+01   5.3275675064e+01    0.1935012    0.1612649  43.34 0.0003842571    1.104    0.095
        20  -9.9339    109.5167     11.4731   8.1812576954e+01   5.5438995284e+01    0.2534307    0.1291178 -20.95 0.0006074826    1.998    0.500
        21 -10.6452     87.6124     10.4945   8.7280806590e+01   6.0125885328e+01    0.5043228     0.200186 -13.60  0.001848509    3.478    0.712
        22 -10.7527     92.6684      9.1309   8.5229145247e+01   5.9261273990e+01    0.3308139    0.2056831  -8.69  0.001285228    1.631    0.387
        23  -9.5364     90.9868      3.0100   8.2993934199e+01   6.0215346070e+01    0.3717616    0.2694004  56.71  0.002140723    1.503    0.335
        24 -11.2228     22.3682      9.4015   1.1205797319e+02   6.9992679309e+01    0.3015666    0.1950134  -7.66  0.001491917    1.472    0.320
        25 -10.8246     13.4137      7.9538   1.1578659833e+02   7.1018667667e+01    0.3395546    0.2569252   7.45  0.001976827    1.385    0.278
        26 -11.5596      3.5503      8.4364   1.2101053216e+02   7.1665918969e+01    0.2921669    0.2350075 -60.31  0.001210843    1.681    0.405
        27 -11.9647    151.7001      6.6670   7.1567097753e+01   4.5855106249e+01     0.522555    0.3779199  -9.51  0.001308823    1.512    0.339
        28  -9.9428    210.3770      7.8508   6.4316997477e+01   3.0953026374e+01    0.1806999     0.128325  -5.34 0.0009475515    1.727    0.421
        29 -10.9430    133.0115      7.6815   7.5231401112e+01   5.0361380461e+01    0.2242886    0.1820537 -28.94 0.0005552244    1.335    0.251
        30 -11.8643    130.7122      3.5107   7.4118199453e+01   5.1285295369e+01    0.6036306    0.3307037  83.52  0.002511536    2.706    0.630
        31 -11.3761     80.2955      1.6219   8.5428132518e+01   6.2465442387e+01    0.3672128    0.1595713  44.17 0.0008917437    2.042    0.510
        32 -10.7386     70.7374      7.3484   9.1172120341e+01   6.3620692847e+01    0.2852012    0.1999772  25.97 0.0005258349    1.291    0.225
        33 -11.7688     69.0078      4.2840   9.0299404730e+01   6.4264816919e+01    0.6067644    0.3125753  27.09 0.0006936492    2.008    0.502
        34  -9.5955    107.3819      4.9989   7.9665459457e+01   5.6542975670e+01    0.1809871    0.1533586  10.31 0.0005308843    1.098    0.090
        35 -10.0876      7.6979      5.0771   1.1740428470e+02   7.1922313707e+01    0.1779939    0.1446045  -0.51 0.0007959096    1.319    0.242
        36 -10.2188     10.4689      1.6959   1.1437802763e+02   7.2229569851e+01    0.2079629    0.1339087   2.90  0.001082615    1.534    0.348
        37  -9.3802    235.6457      4.6863   6.1167967217e+01   2.5215843335e+01    0.1293207   0.09168754  39.85 0.0005125416    1.736    0.424
        38  -9.7453    160.5624      4.2324   6.9385761282e+01   4.3842127146e+01    0.1824462    0.1312488   4.52 0.0007225176    1.596    0.373
        39 -10.1027    120.9791      4.0996   7.6276433783e+01   5.3536237225e+01    0.2049201    0.1786253  31.38 0.0004913366    1.015    0.014
        40  -9.8328    199.5244      2.9910   6.4135424719e+01   3.4105349554e+01    0.1896559    0.1314516 -24.89 0.0004023432    1.537    0.349
        41 -10.7182     19.1746      2.5345   1.1033574408e+02   7.1327730678e+01    0.3422141    0.1776184  15.13  0.002003059    2.138    0.532
        42  -9.8219     77.1323      7.1502   8.8980695024e+01   6.2490358713e+01    0.3120648    0.1803306   7.21   0.00107675    1.970    0.492
        43  -9.7842      2.0042      2.5467   1.1926876660e+02   7.2725931399e+01    0.1375478   0.09468391   6.56 0.0007275025    1.529    0.346
        44  -9.1294    204.6636      1.2553   6.3131212757e+01   3.2986640761e+01    0.1360626    0.0912492 -68.71    0.0002948    1.571    0.363
        45 -10.6598      3.7835    113.7998   1.4400893956e+02   5.0196058042e+01    0.2820002    0.1374716   4.82  0.001471386    3.533    0.717
        46 -10.7477      1.6299    248.6862   1.5301061164e+02   2.4432887142e+01    0.3190067    0.1126904 -82.11  0.002064259    2.488    0.598
        47 -12.9463      8.4900    246.1928   1.5193546937e+02   2.4189305893e+01    0.4321224    0.4083379 -49.29  0.004115264    1.949    0.487
        48 -12.5711      9.6105    231.8829   1.5115485175e+02   2.6418719686e+01    0.3612564     0.300768 -68.27  0.002969732    1.680    0.405
        49 -11.9868      8.8035    227.8454   1.5109422837e+02   2.7174724541e+01    0.3078968    0.2223308  48.96  0.001633257    1.420    0.296
        50 -10.8165     13.0065    109.1487   1.4105315893e+02   5.0612371221e+01    0.2251962    0.1390915 -70.48  0.001411042    1.258    0.205
        51 -10.9620      6.0923    108.5369   1.4281227662e+02   5.1200890464e+01     0.251612   0.09959888 -58.07  0.001327799    1.963    0.491
        52  -9.7659     66.6347    101.8211   1.2465407414e+02   4.7002931536e+01    0.1931276    0.1165808 -66.34 0.0005354015    1.692    0.409
        53 -12.1882     18.6310     94.6838   1.3741199134e+02   5.3412641513e+01    0.6290677     0.399355 -86.95  0.003278965    1.637    0.389
        54 -11.3916     27.1555     90.7034   1.3419159833e+02   5.3642458188e+01    0.5392475    0.2807996  55.05   0.00267581    2.737    0.635
        55 -10.3822     58.0168    107.5224   1.2830605930e+02   4.6795178126e+01    0.2353535    0.1631546 -32.14  0.001003825    1.717    0.418
        56  -9.2093    129.5034     97.5032   1.0613173908e+02   3.7227449390e+01    0.1493801    0.1446604 -23.14 0.0008106694    1.007    0.007
        57 -10.6354     25.1115     84.7830   1.3372822946e+02   5.5110088357e+01    0.2539871     0.164006 -65.90 0.0004665159    1.286    0.222
        58  -9.7010      3.4227     95.2262   1.4187741899e+02   5.4266584079e+01    0.1617465   0.08870727 -81.79 0.0006959158    1.623    0.384
        59 -11.2451     84.3827     93.8504   1.1758693248e+02   4.6233743569e+01     0.291825    0.2335555   9.62  0.001584829    1.506    0.336
        60 -11.4805     11.3058     88.0194   1.3853432005e+02   5.5371082874e+01     0.560587    0.1980385 -66.09  0.002018062    2.117    0.528
        61  -9.7754     13.5344     82.4511   1.3693422848e+02   5.6444668967e+01    0.1516966     0.117754  18.27 4.941502e-05    1.643    0.391
        62 -10.7911     16.0546     89.4815   1.3733927863e+02   5.4739305643e+01    0.2259163    0.1686934   9.79  0.001111135    1.750    0.429
        63 -10.5703     76.4358     89.2627   1.1877865355e+02   4.8423934857e+01    0.2467591    0.2261902 -38.98 0.0005724691    1.037    0.036
        64 -10.4439     43.2731     89.3383   1.2897797824e+02   5.2482789618e+01    0.3178203       0.1762  47.12  0.001255898    2.264    0.558
        65 -10.2329      1.6659     89.5730   1.4162183899e+02   5.5592276679e+01    0.2151017    0.1132734 -70.35 0.0006053415    1.438    0.305
        66 -10.7628    104.0673     87.8081   1.1028518672e+02   4.4191564395e+01    0.2134787    0.1956122 -76.50 0.0004906764    1.246    0.197
        67  -9.5858     64.5270     88.5023   1.2221760159e+02   5.0225675941e+01    0.1341261     0.117684 -50.42 0.0001239744    1.014    0.014
        68  -9.8512    124.1154     86.8752   1.0453344679e+02   4.0474500472e+01    0.2195342    0.2055174 -73.06 0.0004976531    1.203    0.169
        69 -11.1524     54.6392     84.1982   1.2426260992e+02   5.2380946263e+01    0.2915371    0.2293466 -69.37 0.0007873442    1.309    0.236
        70  -9.3304     78.1679     83.3344   1.1669124912e+02   4.9442103527e+01    0.1735721    0.1261262  46.34  0.000250861    1.583    0.368
        71 -11.6714     64.0994     81.5186   1.2059833134e+02   5.1796809900e+01    0.3792121    0.3400649 -64.35   0.00186734    1.164    0.141
        72 -11.0374      3.9897     81.0639   1.3967805969e+02   5.7310380980e+01    0.3830646    0.1821019 -76.92   0.00206751    1.913    0.477
        73 -10.1289     89.4605     80.6881   1.1252110636e+02   4.8216828250e+01    0.3104478    0.1601319 -51.97  0.001114128    1.940    0.485
        74  -9.7923    250.3840     80.8053   7.8175268940e+01   1.2446761053e+01     0.195749    0.1235525 -20.00 0.0005860419    1.627    0.385
        75 -10.3705     65.5050     75.5740   1.1856028483e+02   5.2877627236e+01    0.3764814    0.2421553 -17.24  0.001034233    2.106    0.525
        76  -8.7615    124.4796     79.4761   1.0224297341e+02   4.1843719519e+01    0.1481956    0.1432501 -30.87 0.0002881858    1.061    0.058
        77  -8.9113     85.2495     79.6722   1.1350470661e+02   4.9115173284e+01    0.1327655     0.107664 -74.02 0.0001485283    1.545    0.353
        78  -9.4077     24.1940     78.8249   1.3286224310e+02   5.6483370344e+01     0.175862    0.1155018 -44.29  0.001073819    1.360    0.265
        79  -9.7142    176.8614     77.2695   8.9402121143e+01   3.0163896673e+01    0.2455169    0.1999009  76.28  0.001190066    1.453    0.312
        80 -10.3597     56.0147     75.7125   1.2169134557e+02   5.4049642534e+01     0.277164    0.2185499 -40.63  0.001133924    1.115    0.103
        81 -10.5594     37.4838     75.5066   1.2777356922e+02   5.6071163111e+01    0.3151162    0.1745202 -56.14  0.001253811    1.470    0.320
        82 -10.1851     32.9831     73.3213   1.2877335019e+02   5.6951198917e+01    0.3138078    0.1729055  52.89  0.001549603    2.764    0.638
        83 -10.3233     36.3003     71.3851   1.2719483337e+02   5.7066193102e+01    0.3259598     0.153925 -41.25  0.001183964    1.967    0.492
        84 -10.5624     15.5150     75.9881   1.3513499911e+02   5.7717808618e+01    0.1639246    0.1505964 -43.66 0.0009782469    1.201    0.167
        85 -10.4781    224.1510     74.2398   8.0269488205e+01   1.9254415521e+01    0.2258843    0.2142385  -6.86 0.0003995227    1.055    0.052
        86  -9.0671     74.9859     75.7258   1.1556653811e+02   5.1515455377e+01    0.1514809    0.1213752  29.67 0.0002328824    1.374    0.272
        87 -11.0215      3.5846     73.8624   1.3863787766e+02   5.8881010113e+01    0.2993093    0.1996857  19.41  0.001308481    1.935    0.483
        88 -10.0962    136.8823     74.0364   9.7393259345e+01   4.0165838447e+01    0.2283539    0.2107168  -2.72 0.0004576856    1.066    0.062
        89  -9.4983     92.4665     72.4435   1.0916405832e+02   4.9382400916e+01    0.2188396    0.1890685  44.99 0.0008569615    1.292    0.226
        90  -9.5278    216.8341     72.2377   8.0868800059e+01   2.1272182124e+01    0.1991141     0.167379  15.77 0.0005371771    1.319    0.242
        91  -9.8170    152.7935     71.9879   9.2975603612e+01   3.6857052419e+01    0.2066652    0.1925463 -25.48   0.00109454    1.063    0.059
        92 -10.1638    105.9089     71.5350   1.0490960271e+02   4.7106381238e+01    0.2359932    0.1927257 -34.61 0.0004309167    1.155    0.134
        93 -10.1522     80.8563     72.0291   1.1262740727e+02   5.1382909157e+01     0.224849    0.1610462 -72.51  0.001081717    2.040    0.510
        94 -10.1885     46.0006     69.5379   1.2342053961e+02   5.6492075029e+01    0.2750692     0.169918  11.17  0.001452172    2.132    0.531
        95 -10.3381     10.9580     69.1905   1.3534425131e+02   5.9464873123e+01    0.2808024    0.1446636 -75.13   0.00151001    1.948    0.487
        96  -8.9049     57.3141     67.6618   1.1905240698e+02   5.5582312168e+01    0.1252277    0.1019596 -87.42 0.0007047072    1.696    0.410
        97 -11.1777     16.9436     64.5267   1.3231028651e+02   6.0072588189e+01    0.3242859    0.2591939 -52.66  0.001033334    1.032    0.031
        98 -10.6860     35.0405     64.9248   1.2602314001e+02   5.8549641570e+01    0.2531054    0.2392699  -6.13  0.001353417    1.227    0.185
        99 -11.3427     39.6369     62.6650   1.2379868177e+02   5.8582502626e+01     0.677169    0.2116752 -45.61  0.002780613    2.613    0.617
       100  -9.6485    126.9930     61.6987   9.5948043721e+01   4.4550260634e+01    0.2466918    0.2007508  69.44 0.0003074838    1.520    0.342
       101 -10.3379    133.3339     64.3993   9.5221040018e+01   4.2671994075e+01    0.3097182    0.2457723 -23.17  0.001555742    1.261    0.207
       102 -11.1922      8.1370     62.2389   1.3492667749e+02   6.1101261402e+01    0.4789523    0.1501274 -46.38  0.002255132    2.475    0.596
       103 -10.5426     53.7377     62.0794   1.1865710841e+02   5.7161344859e+01    0.2932247    0.2155521   4.75 0.0007507445    1.596    0.373
       104 -10.5783     54.4962     58.4696   1.1729784221e+02   5.7795614114e+01     0.251544    0.2091293 -63.77  0.000936927    1.403    0.287
       105  -9.8492     72.2989     62.3911   1.1241924628e+02   5.4613760130e+01    0.1720651    0.1283974  44.26 0.0008636878    1.580    0.367
       106 -10.4590     62.8401     61.9347   1.1546584522e+02   5.6036211683e+01    0.2105353    0.1571573 -26.38 0.0006657635    1.290    0.225
       107  -9.7667     67.7167     60.4065   1.1332511109e+02   5.5667340671e+01    0.1766508    0.1253291  16.82 0.0009496841    1.620    0.383
       108 -10.2737      2.3266     60.1465   1.3656141155e+02   6.1848557408e+01    0.1985061    0.1290441  57.56  0.001235827    2.192    0.544
       109  -8.9347    178.2889     59.2876   8.3807085685e+01   3.2683098773e+01    0.1512818    0.1138474  22.18            0    1.537    0.349
       110 -10.8951      1.8861     54.6406   1.3559855273e+02   6.3013564400e+01    0.6706691     0.156297 -39.59  0.002549369    4.385    0.772
       111 -11.9135     17.7130     45.1952   1.2719761511e+02   6.3986208203e+01    0.8382449     0.441559  -3.54  0.002719989    2.617    0.618
       112 -12.6007     20.4723     57.3535   1.2936065125e+02   6.1324635175e+01    0.3955642    0.2598547  26.11  0.001172174    1.863    0.463
       113 -10.8863     19.4486     52.0670   1.2839328423e+02   6.2482371364e+01    0.2924882    0.1764164 -45.23 0.0008366815    1.293    0.227
       114 -10.3846     60.3451     57.6601   1.1498678259e+02   5.7213773495e+01    0.2284457    0.2126724 -58.00 0.0008688904    1.267    0.211
       115  -9.3725     71.5437     57.4617   1.1107417315e+02   5.5682935664e+01    0.1363759    0.1169287 -24.87 0.0002950858    1.026    0.025
       116 -10.1842    101.0138     61.9969   1.0324858782e+02   4.9835411114e+01    0.2152729    0.1786523 -72.81  0.000699085    1.651    0.394
       117 -11.8000    114.2375     54.3752   9.6868473129e+01   4.8540398171e+01    0.3420472    0.2984862   4.04 0.0006966387    1.119    0.106
       118 -10.4724    104.2538     55.9763   1.0025162438e+02   5.0291767885e+01    0.2061403    0.1917391 -42.35 0.0003172686    1.187    0.158
       119 -10.3234    106.7681     53.8017   9.8768207563e+01   5.0169109354e+01    0.3853281     0.241509 -60.67  0.001585406    2.622    0.619
       120 -10.5803      7.4779     56.0186   1.3383717952e+02   6.2435508203e+01    0.1782718    0.1684865   9.74 0.0009167707    1.357    0.263
       121 -11.5229     86.4661     53.6136   1.0485702189e+02   5.3998452123e+01    0.5329961    0.3151653  46.08  0.002557016    1.910    0.476
       122  -9.1511     76.9618     54.7738   1.0835493919e+02   5.5359174839e+01    0.1568459    0.1110754  32.63            0    1.511    0.338
       123 -11.8083     66.7653     52.4454   1.1102589761e+02   5.7333121483e+01     0.499958    0.2340157  30.97  0.002186248    2.452    0.592
       124  -8.7686    176.2997     52.3001   8.2059149066e+01   3.4215644444e+01    0.1531198    0.1123046  24.02 0.0001884171    1.581    0.367
       125  -9.2339    211.9971     48.9794   7.5298367305e+01   2.5754951438e+01     0.167586     0.160703  75.04 -0.005334738    1.056    0.053
       126  -9.5140    146.6916     48.6569   8.6867155961e+01   4.2080991431e+01    0.2358458    0.1673732 -67.01  0.001039558    2.009    0.502
       127  -8.9481     59.6429     49.2534   1.1245162217e+02   5.8919902331e+01    0.1149359    0.1036919  79.21 0.0001996699    1.609    0.379
       128 -10.2818     38.4009     48.5958   1.2013293369e+02   6.1539520628e+01    0.2176284    0.1598661 -28.11  0.001362626    1.225    0.184
       129 -10.5089     34.3340     53.6966   1.2321525140e+02   6.0923132340e+01    0.2881341    0.1520288 -40.51  0.001119769    1.603    0.376
       130 -10.2537     31.4629     46.5232   1.2216549973e+02   6.2610623716e+01    0.3448485    0.1993853 -71.20  0.001502118    2.756    0.637
       131 -10.7908     68.5839     46.7899   1.0841068124e+02   5.8106976930e+01    0.2366079    0.1952815   7.26 0.0002099384    1.217    0.179
       132 -10.5605     70.5424     43.0013   1.0634119837e+02   5.8479862976e+01    0.3064801    0.2013709 -35.89  0.001126649    1.362    0.266
       133 -10.3768     77.7150     45.9081   1.0496183133e+02   5.6835391861e+01    0.2875571    0.1951443  35.21  0.001539261    1.554    0.357
       134  -8.9968     55.2462     45.6643   1.1280783282e+02   6.0164655714e+01    0.1172155   0.09676715 -61.78 0.0002661597    1.555    0.357
       135  -8.9896     91.3039     44.6947   1.0011326484e+02   5.4677806497e+01    0.1284312     0.111409 -68.21 0.0004582922    1.600    0.375
       136 -10.5608     26.1589     43.5562   1.2334387444e+02   6.3653431674e+01    0.2433656    0.1939081 -70.83  0.001104389    1.568    0.362
       137  -9.8183    182.9155     41.8098   7.7710517107e+01   3.3995922332e+01    0.2027668    0.1701186 -75.66 0.0006833595    1.341    0.254
       138 -10.2307      3.9180     41.3569   1.3170981409e+02   6.5599742656e+01    0.3727587    0.1106133 -33.35  0.001484305    4.133    0.758
       139 -11.1680    139.8399     40.7069   8.5688856178e+01   4.4874397707e+01     0.244791    0.2327299 -45.28 0.0003755897    1.160    0.138
       140 -10.3755     35.8668     40.5371   1.1848288600e+02   6.3336890795e+01    0.3292498    0.1832544 -36.46  0.001528118    1.515    0.340
       141  -9.7442    134.2913     39.7903   8.6634520064e+01   4.6318555651e+01    0.1987865      0.19581  51.64   0.00114486    1.124    0.110
       142  -9.5750     43.4276     40.5386   1.1549546303e+02   6.2533633167e+01    0.1272567   0.09981646 -28.55 7.093201e-06    1.045    0.043
       143  -9.9392     22.0297     38.5013   1.2343692278e+02   6.4964977840e+01     0.208529    0.1487799 -64.58 0.0007514431    1.611    0.379
       144 -10.3299     12.8983     37.7822   1.2701204495e+02   6.5767544563e+01    0.2721845   0.09975027 -55.56  0.001342474    2.104    0.525
       145 -11.4813    121.3427     36.1781   8.8460970244e+01   4.9801763341e+01    0.4782953    0.4256494 -70.45  0.002659404    1.434    0.303
       146 -10.9937     26.7110     34.8701   1.2028477784e+02   6.5255762150e+01    0.3256652    0.1637292 -34.98  0.001109782    1.720    0.419
       147 -10.9261      2.1676     34.7970   1.3068041769e+02   6.6975541685e+01    0.3898744    0.1296586 -50.72  0.001753325    1.983    0.496
       148 -10.5511      2.0657     28.6874   1.2895124739e+02   6.8148054757e+01     0.234039    0.1304462 -47.66  0.001511105    1.284    0.221
       149  -9.0797    163.5539     37.4486   7.9747419671e+01   3.9471188329e+01    0.1487627    0.1352516  30.50 7.204556e-05    1.081    0.075
       150  -9.8954     91.5016     34.5921   9.6188711842e+01   5.6234779359e+01    0.2977927     0.126684 -32.82  0.001233307    2.243    0.554
       151 -10.0931     88.5184     32.5624   9.6312557422e+01   5.7097579394e+01    0.3073807    0.1572294 -42.11   0.00137678    2.134    0.531
       152 -11.8838     50.5622     33.9396   1.1026229132e+02   6.2855354607e+01    0.3086869    0.2193807  30.24 0.0004893052    1.559    0.359
       153  -9.5197    166.8099     33.2781   7.7813083669e+01   3.9179346392e+01    0.3324791   0.08178598 -33.76  0.001018624    3.626    0.724
       154 -10.6845    145.0418     33.0639   8.1917131639e+01   4.4638904841e+01     0.228787     0.213022  23.27 0.0004166635    1.019    0.019
       155 -10.6836    141.0648     30.8923   8.1993359386e+01   4.5882344571e+01    0.3460486    0.2307374  45.53  0.000989907    1.412    0.292
       156 -11.1545    134.5773     34.0185   8.4520600988e+01   4.7036189456e+01    0.2451676    0.1845431  39.55 0.0004997769    1.266    0.210
       157 -11.1914     19.7626     31.9744   1.2224405322e+02   6.6371449548e+01     0.443495    0.2304443  -6.70  0.001993175    2.636    0.621
       158 -10.3168     70.0999     35.1144   1.0347083181e+02   5.9874258469e+01    0.3285832    0.1587029 -28.90   0.00130534    2.062    0.515
       159 -10.8325     43.4573     29.6411   1.1140492321e+02   6.4460680842e+01    0.4530893    0.1857204 -41.10  0.001708105    2.052    0.513
       160 -10.5705     46.9169     27.0265   1.0895015287e+02   6.4475728706e+01    0.2325252    0.1773078 -36.44  0.000322421    1.245    0.197
       161  -9.8469     38.2140     30.8429   1.1402252502e+02   6.4848625167e+01    0.2200788    0.1325439  -5.59 0.0006863985    2.026    0.506
       162  -9.4728    187.3245     30.1499   7.3513398792e+01   3.4339705641e+01    0.2113257    0.1780895  50.96   0.00114768    1.161    0.138
       163 -10.6204    151.4212     29.6293   7.9457557987e+01   4.3494340169e+01    0.2746024    0.2318801  34.57 0.0007241338    1.144    0.126
       164 -10.4229    103.9648     29.6211   9.0565129862e+01   5.4465416836e+01    0.3948721    0.2308706  19.10  0.001729558    2.175    0.540
       165  -9.9290    101.9647     26.2333   8.9778828643e+01   5.5332196052e+01    0.2015628    0.1957196 -49.49  0.001238564    1.290    0.225
       166  -8.9733    162.0000     29.0204   7.7286844768e+01   4.0915512301e+01    0.2267293   0.08253738 -25.61 0.0007898921    2.856    0.650
       167 -10.0439     69.8974     28.6413   1.0092091867e+02   6.0924338473e+01    0.2202982    0.1571525 -18.47 0.0004648194    1.268    0.211
       168  -9.9055      7.1479     28.1263   1.2650739037e+02   6.7964225142e+01    0.1717711    0.1464307   5.41  0.001088645    1.406    0.289
       169  -9.8697    132.3440     26.3802   8.2261143754e+01   4.8531026714e+01    0.2697772    0.1916717 -63.43 0.0007180928    1.994    0.499
       170 -12.7239      5.0811    240.6336   1.5220476632e+02   2.5399096660e+01    0.4249669    0.3233019  41.96  0.003761332    1.635    0.388
       171  -9.7542    153.5867     25.7798   7.7740401007e+01   4.3412502229e+01    0.2334922    0.1652906  66.74  0.000709464    1.442    0.307
       172 -10.1176    113.9451     25.2976   8.6212470514e+01   5.2886412872e+01    0.2368857    0.1913203 -17.32 0.0006942926    1.219    0.179
       173  -9.3805     87.7313     26.3307   9.4027610426e+01   5.8136786090e+01    0.1900837    0.1417022   1.92 0.0002076777    1.314    0.239
       174  -9.3165    229.6013    248.1988   1.1572408363e+02  -6.2950411143e+00    0.1384416   0.09300982  -6.47 0.0008655594    1.573    0.364
       175 -10.2748     58.8636     24.3970   1.0317109016e+02   6.3266770329e+01    0.2802157    0.1851225 -26.15  0.001238098    1.318    0.242
       176 -10.4608     52.1520     23.2488   1.0527463724e+02   6.4392011480e+01    0.3751043    0.1533552 -31.77  0.001280652    2.285    0.562
       177 -10.9583     33.5989    247.5325   1.4828279558e+02   2.1448153635e+01    0.2338131   0.08919634  35.32  0.001316692    2.954    0.662
       178 -10.6336     13.4993     16.2132   1.1925900635e+02   6.9655630477e+01    0.3148657     0.166135  27.10  0.001916047    2.238    0.553
       179  -9.6139    217.2466    244.8385   1.1727872056e+02  -4.1113821374e+00    0.2535033    0.0671107  45.02 0.0009941527    3.628    0.724
       180 -10.4261     30.9925     19.8167   1.1267787538e+02   6.7478445880e+01    0.2313949    0.1392289 -40.35 0.0006477879    1.412    0.292
       181  -9.8364     22.7411     21.2175   1.1695568248e+02   6.8038699125e+01    0.1557517   0.09887849 -26.96 0.0001814089    1.309    0.236
       182  -9.3353    174.9550     20.7882   7.2519527018e+01   3.8560183643e+01    0.1913283     0.108188  63.61 0.0003927167    1.663    0.399
       183 -11.7921      4.2006    232.6807   1.5200692340e+02   2.6784885997e+01    0.2646948     0.177884  80.37   0.00110956    1.117    0.105
       184  -9.4196      2.7802     20.3663   1.2592735750e+02   6.9643842175e+01    0.1395919   0.08807091 -12.05 0.0005501063    1.636    0.389
       185 -10.0026    236.7919     18.0200   6.4302342556e+01   2.3561323429e+01    0.1726228   0.09935559 -29.27 0.0003729597    1.694    0.410
       186  -9.6467    202.4864    240.0312   1.1908234572e+02  -1.3038413229e+00    0.1458426    0.1123117 -25.30  0.000775845    1.536    0.349
       187 -11.3264    107.5506     16.5353   8.4363010308e+01   5.5325477888e+01    0.3661464    0.2333551  62.00  0.001241044    1.792    0.442
       188  -9.3147     60.4501    241.0000   1.4366107964e+02   1.9442085319e+01     0.222536   0.04852789  39.13 0.0009346646    3.934    0.746
       189 -11.1376     20.1103     16.8322   1.1638329538e+02   6.9009510102e+01     0.188192     0.150011  -5.27 0.0003300364    1.225    0.184
       190 -10.7145     90.4874     15.6691   8.8689991071e+01   5.8969627944e+01    0.3238252    0.1926865  21.48  0.001584518    1.827    0.453
       191 -12.1391     26.3139    236.0147   1.4878769878e+02   2.4087300911e+01    0.2677815      0.19351  77.17  0.001599316    1.091    0.083
       192  -9.7887    249.1494    234.1611   1.1035717777e+02  -7.6988885198e+00    0.1735271    0.1163759  18.17 0.0005461753    1.162    0.140
       193  -9.2671     80.0006    231.5163   1.3963325658e+02   1.8531855191e+01    0.1601525   0.06577105  57.39 0.0008069628    2.348    0.574
       194  -8.9659    155.5691    235.4990   1.2668918639e+02   6.7247889079e+00    0.1176959   0.09491006  41.93 5.787853e-05    1.010    0.010
       195  -9.4694    140.6731    227.3468   1.2833969820e+02   1.0297432517e+01    0.1219139   0.08260848  67.11 0.0007049949    1.750    0.429
       196 -10.0176    162.8049     15.5885   7.2754409351e+01   4.2199751519e+01    0.1985291    0.1320101  79.86 0.0004846386    1.667    0.400
       197  -9.0044      1.2385     15.3271   1.2487513781e+02   7.0628811493e+01    0.1140607   0.05677668 -36.25 0.0002278921    1.527    0.345
       198 -10.0571    156.7934     14.1635   7.3263140939e+01   4.3863244904e+01    0.2044441    0.1534342  32.58   0.00106945    1.356    0.262
       199  -9.6997    144.1739     14.3792   7.5547441991e+01   4.6991063311e+01    0.1897993    0.1306035  73.20 0.0004585304    1.576    0.365
       200  -9.9776    246.9483     12.5754   6.2090872804e+01   2.1825203375e+01    0.2610809    0.1328649  53.20 0.0007118949    2.169    0.539
       201  -9.4947    109.7124    226.6520   1.3389295805e+02   1.5173031776e+01    0.1027587   0.09034962   2.32 0.0007023144    1.658    0.397
       202  -9.8556    174.0331     13.2619   7.0311055549e+01   3.9578410196e+01    0.1983479    0.1747755  68.90 0.0004575695    1.077    0.071
       203  -9.0758    210.6578    235.6932   1.1703909752e+02  -2.0682121657e+00     0.122206    0.0750852  17.35  0.000349421    1.688    0.408
       204  -9.9404     25.5239    224.9805   1.4830664615e+02   2.6040825983e+01      0.14519   0.08168236 -82.63 0.0007633244    1.570    0.363
       205  -9.7851     66.3052    110.3504   1.2653452001e+02   4.5130814812e+01    0.1374236    0.0942803 -33.85 0.0007041685    1.704    0.413
       206 -10.8679      2.3072    219.8163   1.5173862495e+02   2.9141181407e+01     0.217767   0.08687104  85.61  0.001061069    2.191    0.544
       207 -10.6671      7.5033    217.4646   1.5080754767e+02   2.9087252778e+01    0.2381391    0.1417476 -87.84  0.001738943    1.361    0.265
       208  -9.7004    246.5018    216.5160   1.0784689761e+02  -5.4220595856e+00    0.1219061   0.09126715  14.39 0.0008101392    1.041    0.039
       209  -9.7497    209.4647    212.0187   1.1348035618e+02   1.0709475534e+00    0.1688818    0.1185894 -26.56  0.001019176    1.565    0.361
       210 -10.0750      4.1320    212.2384   1.5109634965e+02   3.0313211869e+01    0.2025373    0.1107998  33.70   0.00100144    2.161    0.537
       211  -9.6343    246.8383    206.9285   1.0610419605e+02  -4.3762740298e+00    0.1893138    0.1331679   5.27  0.001191724    1.263    0.208
       212  -9.8029      2.3736    206.1586   1.5108710665e+02   3.1558897935e+01    0.1429969   0.06903572  85.09 0.0005648992    1.679    0.404
       213  -9.5308    197.0461    204.0086   1.1438548359e+02   4.2938565225e+00    0.1841639    0.1550325  68.48 0.0007847001    1.653    0.395
       214  -9.2336      9.3368     10.3284   1.1886805655e+02   7.0952206875e+01    0.1207749   0.06258985 -25.57 0.0005871147    1.728    0.421
       215 -10.4999      9.5286    203.4066   1.4974796427e+02   3.1434361137e+01    0.1848004    0.1338802  75.72 0.0007830708    1.022    0.021
       216  -9.0570    181.5291    199.5023   1.1653910795e+02   7.6945473151e+00    0.1299902    0.1128346  34.57 3.908616e-05    1.047    0.045
       217  -9.5164     23.0336    197.4839   1.4703475993e+02   3.1282126927e+01    0.1437527   0.09246178  44.67 0.0004835621    1.538    0.350
       218  -8.8944      6.5361    191.5616   1.4959860449e+02   3.3914010847e+01    0.1057852    0.0744991  77.36 0.0003681938    1.054    0.051
       219 -10.2432     15.4630    185.4479   1.4760348397e+02   3.4309992176e+01    0.2072955   0.08570565 -79.24  0.001165735    2.041    0.510
       220  -8.9692    250.3416    183.3152   1.0109385924e+02  -2.0541654204e+00     0.135337   0.08354644  10.51 0.0007047949    1.707    0.414
       221 -10.5568      4.5488    167.3618   1.4845227451e+02   3.8824949437e+01    0.2346717    0.1377989  67.15  0.001279346    1.491    0.329
       222  -8.8141     41.6863    158.3221   1.3994253713e+02   3.7318852971e+01    0.1246515   0.07629201  72.51 0.0007040068    1.657    0.397
       223  -9.1280    247.4461    155.5371   9.5898810425e+01   2.1703366422e+00    0.1348838    0.1133664   0.35 9.713615e-05    1.012    0.012
       224  -9.3379    243.0000    154.9545   9.6520316081e+01   3.0629219824e+00    0.2118735   0.07093092 -32.57 0.0005210163    2.852    0.649
       225  -9.9266      8.7014    148.6906   1.4619245077e+02   4.2358305966e+01    0.1057943   0.07090075 -55.42 0.0002743899    1.597    0.374
       226 -10.2501     22.0015    143.2586   1.4274451090e+02   4.2443958081e+01    0.2129039    0.1372252 -78.05 0.0009478598    1.254    0.203
       227 -10.6972     12.7976    130.6287   1.4358199660e+02   4.5918818758e+01    0.3582543    0.1721992  63.87  0.001396913    2.428    0.588
       228 -10.0239     29.0821    128.7485   1.3940958258e+02   4.5004172933e+01    0.2444936    0.1409138 -85.46 0.0009979097    1.671    0.402
       229 -10.0617     42.8437    126.0224   1.3556354616e+02   4.4297202701e+01     0.182271    0.1682644  69.48  0.000282503    1.181    0.153
       230  -9.4797     21.1481    126.1727   1.4106066199e+02   4.6246537121e+01    0.1560325    0.1156475  79.40 0.0004201166    1.295    0.228
       231 -11.5134     23.7095    121.5028   1.3984160344e+02   4.7070140983e+01    0.4535902    0.2211716  89.73 0.0007987475    2.422    0.587
       232  -9.2400      3.3225    118.6810   1.4464273558e+02   4.9164336576e+01    0.1147355   0.07018411  73.44 0.0007044244    1.670    0.401
       233  -9.7246     96.6411    113.9985   1.1898406863e+02   3.9846609948e+01    0.2026152    0.1723792 -59.46  0.000625992    1.127    0.113
