#   1 NUMBER                 Running object number                                     
#   2 MAG_AUTO               Kron-like elliptical aperture magnitude                    [mag]
#   3 X_IMAGE                Object position along x                                    [pixel]
#   4 Y_IMAGE                Object position along y                                    [pixel]
#   5 X_WORLD                Barycenter position along world x axis                     [deg]
#   6 Y_WORLD                Barycenter position along world y axis                     [deg]
#   7 A_WORLD                Profile RMS along major axis (world units)                 [deg]
#   8 B_WORLD                Profile RMS along minor axis (world units)                 [deg]
#   9 THETA_WORLD            Position angle (CCW/world-x)                               [deg]
#  10 FWHM_WORLD             FWHM assuming a gaussian core                              [deg]
#  11 ELONGATION             A_IMAGE/B_IMAGE                                           
#  12 ELLIPTICITY            1 - B_IMAGE/A_IMAGE                                       
         1 -14.0974    169.8968     49.8622   6.8346415195e+01   3.6406907404e+01     1.842623     1.159435  23.40  0.005576824    2.216    0.549
         2 -14.2977    183.9769     35.2292   6.1414666151e+01   3.4790519084e+01     1.036958    0.9698504  -7.97  0.003633746    1.146    0.127
         3 -13.6338    188.3470     29.0696   5.8914147937e+01   3.4428314918e+01    0.6209439    0.5796344 -88.50  0.001417949    1.039    0.038
         4 -14.3385    205.5077      6.0759   5.0272477116e+01   3.2559515361e+01     1.416854     1.063143   5.58  0.006630197    1.717    0.418
         5 -13.3037    189.8358     14.8409   5.4501460659e+01   3.5650978823e+01    0.6211753    0.4067127 -55.41  0.002170981    1.614    0.380
         6 -12.1457     51.6348      5.0578   8.3081880507e+01   6.8087488104e+01    0.2590905    0.2210707 -21.45 0.0004801757    1.276    0.217
         7 -13.4453    138.5383    198.5938   1.1067489187e+02   1.5191090083e+01    0.6822236    0.2985543  41.14  0.003086919    2.001    0.500
         8 -15.7223     64.2306    205.9311   1.2646568430e+02   2.5035857929e+01      9.06875     1.356132 -59.66   0.03101076    5.734    0.826
         9 -18.2359     48.1186    243.0477   1.3207926737e+02   2.0392627340e+01     6.996791     5.034167  47.81   0.04449345    1.310    0.236
        10 -11.8642    192.8152    194.0473   9.9164744755e+01   6.3327888771e+00    0.8006376    0.4313903 -61.48  0.002875493    4.841    0.793
        11 -10.6623    208.0618    196.4997   9.6738882713e+01   3.2835161958e+00    0.1980845    0.1123227  40.02  0.001023594    1.563    0.360
        12 -12.1879     99.3289    191.7489   1.1784392715e+02   2.2871188070e+01    0.3535906    0.3061253   4.77  0.001556453    1.639    0.390
        13 -11.2368     99.7044    187.0244   1.1715207692e+02   2.3747063933e+01     0.225877    0.1781729 -46.68  0.001356453    1.545    0.353
        14 -19.0716     26.6145    103.4515   1.2355390571e+02   5.1431250850e+01     15.79732    0.9720676 -67.72   0.02869263   13.681    0.927
        15 -10.0461     52.1623    208.8753   1.2901348913e+02   2.5963283524e+01    0.1595625    0.1123187  69.54  0.001095425    1.143    0.125
        16 -11.0869     88.3867    203.2725   1.2144773900e+02   2.2269644581e+01    0.4076172    0.2174529  58.98  0.001332469    1.818    0.450
        17 -11.0204     93.8233    181.3144   1.1766241283e+02   2.5800167179e+01    0.2118255    0.1381783  58.84 0.0009893952    1.463    0.317
        18 -12.4337    145.3143    178.7857   1.0610897925e+02   1.7613856844e+01    0.3674567    0.2760562  41.64  0.002010999    1.214    0.177
        19 -10.3065    207.5907    178.2000   9.3424114199e+01   6.0729579302e+00    0.1789097    0.1217979 -19.16 0.0006190561    1.603    0.376
        20  -9.7982    167.9159    176.1960   1.0089165297e+02   1.3871928104e+01    0.2030966    0.1787987  72.17 0.0005695208    1.330    0.248
        21 -11.9266     71.6947    174.2307   1.2161959825e+02   3.0450809424e+01    0.5854576    0.1835527  52.58  0.002108817    3.705    0.730
        22 -10.3257    202.4865    170.4947   9.2878349796e+01   8.2339996524e+00    0.1376648    0.1230043  17.75 -1.216499e-05    1.012    0.012
        23 -11.9687    194.8275    168.1428   9.3894900493e+01   1.0085711356e+01    0.3593951    0.3271606  50.64  0.000999021    1.222    0.181
        24 -10.8095    191.0020    161.0700   9.3212821112e+01   1.2026579413e+01    0.3288563    0.2220726 -53.24  0.001185159    1.858    0.462
        25 -11.2245    189.2531    155.3533   9.2367218463e+01   1.3365770057e+01     0.372637    0.3338118 -32.79  0.001352418    1.170    0.145
        26 -10.9887     68.8623    218.0628   1.2665003134e+02   2.2182491190e+01     0.254093    0.1534642  59.87  0.001604548    1.381    0.276
        27 -10.0426    162.2778    168.0717   1.0054798929e+02   1.6422616152e+01    0.2684328    0.1802454  68.72   0.00106726    2.138    0.532
        28 -10.1247      6.3026    161.1904   1.3461243139e+02   4.0182679525e+01    0.1503734    0.1338709  57.08 0.0004400634    1.331    0.249
        29 -10.3854     93.8121    205.3701   1.2059787259e+02   2.1087079701e+01    0.2403461     0.192077   7.92 0.0009223173    1.980    0.495
        30 -11.7748    133.7795    145.2415   1.0241971663e+02   2.6480822655e+01     1.157814    0.2803798 -54.37  0.002780946    6.365    0.843
        31 -11.2801    113.1410    150.7368   1.0841820783e+02   2.9112983615e+01    0.4482194    0.1867845  58.49  0.001362119    4.334    0.769
        32 -10.4036    151.7936    150.3892   9.9323920606e+01   2.1882740770e+01    0.2027014    0.1326687  34.21 0.0001095362    1.589    0.371
        33 -10.2286    174.8745    149.1215   9.4007756820e+01   1.7427050572e+01    0.2194178    0.2022095  78.34 0.0005865592    1.257    0.204
        34 -11.5447    144.3472    146.7116   1.0025565637e+02   2.4107187862e+01    0.6334189    0.3259839 -71.66  0.001562606    7.013    0.857
        35 -12.4244    109.3442    139.9318   1.0730195019e+02   3.2142917200e+01    0.6099625    0.3815129 -30.49  0.002627318    2.356    0.575
        36 -12.4238     98.7388    139.2218   1.0983626458e+02   3.4108714197e+01    0.2671096    0.2590219  42.10 0.0003739349    1.135    0.119
        37 -11.8309    101.9814    145.0447   1.1010014164e+02   3.2270814793e+01    0.3210881    0.2584636 -81.39  0.001762083    1.288    0.224
        38 -11.7315    105.9761    130.5138   1.0626392448e+02   3.4830525618e+01    0.4192342    0.3093494 -62.07  0.002127056    1.357    0.263
        39 -11.5072    104.2454    126.0694   1.0578323692e+02   3.6131071247e+01    0.2997604    0.2644974 -20.07  0.001084134    1.342    0.255
        40 -11.0855    116.4796    129.9133   1.0344057499e+02   3.3067945169e+01    0.3094536    0.2534463 -30.99 0.0006526709    1.396    0.284
        41 -11.2564    135.5228    127.5119   9.8144589258e+01   2.9883261567e+01    0.4305481    0.1456335 -51.04   0.00136516    3.250    0.692
        42 -10.5275    120.6011    124.2318   1.0112908770e+02   3.3538312446e+01    0.2106736    0.1363379 -40.26  0.000874126    1.643    0.391
        43 -10.2631    111.2047    119.0231   1.0238608857e+02   3.6457777660e+01     0.236308     0.205361  45.77 0.0003259667    1.174    0.148
        44 -10.6701    167.9710    112.8685   8.6952061346e+01   2.5850038172e+01    0.3822963    0.2800826  84.57  0.001256758    2.031    0.508
        45 -10.7759    160.3472    127.1849   9.2211453547e+01   2.4731115193e+01    0.3895558    0.2565507 -63.62  0.001382255    2.060    0.515
        46 -10.5306    205.4610    110.1575   7.8644996329e+01   1.7794518644e+01    0.3212196    0.2087722  40.79 0.0009545524    1.590    0.371
        47 -12.6920    171.4274     70.6870   7.4434235596e+01   3.2735546205e+01    0.5788492    0.3839144 -79.81  0.002274389    2.425    0.588
        48 -11.6282     95.4505    200.5686   1.1971973230e+02   2.1751930138e+01    0.3970072    0.2531676 -88.35  0.002211052    1.830    0.453
        49 -10.7952    169.0366    236.1761   1.1009553973e+02   4.2386394832e+00    0.1710962    0.1563153  27.41  0.000400053    1.170    0.145
        50  -9.7636    220.6107    229.0632   9.9941571167e+01  -2.9841876594e+00    0.2686667   0.09498128 -46.94 0.0009408484    6.443    0.845
        51 -11.4443     71.6614    229.3073   1.2707568774e+02   1.9827155425e+01    0.1964352    0.1428738  59.52 0.0005060741    1.057    0.054
        52 -12.1129    156.2206    199.8966   1.0730941476e+02   1.1902148513e+01    0.4311275    0.2929614  82.52  0.002078291    2.554    0.609
