#   1 NUMBER                 Running object number                                     
#   2 MAG_AUTO               Kron-like elliptical aperture magnitude                    [mag]
#   3 X_IMAGE                Object position along x                                    [pixel]
#   4 Y_IMAGE                Object position along y                                    [pixel]
#   5 X_WORLD                Barycenter position along world x axis                     [deg]
#   6 Y_WORLD                Barycenter position along world y axis                     [deg]
#   7 A_WORLD                Profile RMS along major axis (world units)                 [deg]
#   8 B_WORLD                Profile RMS along minor axis (world units)                 [deg]
#   9 THETA_WORLD            Position angle (CCW/world-x)                               [deg]
#  10 FWHM_WORLD             FWHM assuming a gaussian core                              [deg]
#  11 ELONGATION             A_IMAGE/B_IMAGE                                           
#  12 ELLIPTICITY            1 - B_IMAGE/A_IMAGE                                       
         1 -12.4558      1.7591     79.9333   1.0197002620e+02   6.0589981878e+01     2.006718    0.2562351 -79.42  0.004420897    8.035    0.876
         2 -12.9355    215.4533     50.9130   3.1778460067e+01   2.6135165369e+01     1.055217    0.9995254  13.77  0.006618441    1.223    0.182
         3 -13.3326    233.9467     37.5450   2.6772950461e+01   2.3986539243e+01     1.233873    0.9084129  32.21  0.007545903    1.796    0.443
         4 -10.9434      2.0061     12.6623   8.5068426597e+01   7.7232762825e+01    0.4499702     0.157431 -61.22  0.001904825    2.521    0.603
         5 -11.3692      3.1940      3.9865   7.8573234671e+01   7.8949746515e+01    0.6291862    0.3232772 -46.22   0.00331931    1.637    0.389
         6 -11.0489    102.3876    238.1846   8.9944748721e+01   1.4974181837e+01    0.2127612    0.1837254  85.08  0.001651787    1.480    0.324
         7 -10.1477    134.7667    250.0157   8.4954209270e+01   9.5897761034e+00     0.204261    0.1061892  39.59  0.001133673    1.661    0.398
         8 -11.6523     49.5138    169.1654   9.5345889454e+01   3.4109188473e+01    0.2885126    0.2665163 -23.04 0.0005924079    1.330    0.248
         9 -14.9479     15.7892    242.5403   1.0723762396e+02   2.3081761225e+01     7.421678     4.862001  24.91   0.04006848    1.508    0.337
        10 -10.3182     81.1751    212.2533   9.1917257888e+01   2.1728568666e+01    0.2787498    0.1952105  87.11  0.001155217    1.772    0.436
        11 -12.7942      7.3086    200.0644   1.0762512568e+02   3.1512004821e+01    0.4163793    0.3050597  23.81 0.0007560301    1.461    0.316
        12 -10.4030     52.0794    202.3420   9.7575658097e+01   2.6879963527e+01    0.4119537       0.1185  53.93  0.001473074    4.258    0.765
        13 -15.6050     15.5836    193.7383   1.0549278079e+02   3.2112830822e+01     6.332169     1.839082 -86.72   0.02027911    3.750    0.733
        14  -8.9505    192.5311    194.0127   6.6907521700e+01   9.8611632922e+00    0.1460414    0.1027074 -57.81 0.0008094533    2.674    0.626
        15  -9.2502    110.7185    167.2523   7.9444521037e+01   2.6363753371e+01     0.209704    0.1855342  62.76 0.0005271918    1.224    0.183
        16 -10.2483     83.3744    164.0318   8.5820126741e+01   3.1012416527e+01    0.4166266     0.123617  47.18  0.001345295    3.914    0.744
        17 -10.8327     62.3948    159.8985   9.0864726774e+01   3.4691166311e+01    0.2600894    0.2507432  31.35 0.0004549026    1.137    0.121
        18 -12.2605     55.6237    126.7798   8.8222015724e+01   4.3476104561e+01     2.390542    0.7438844 -76.47  0.005300907    7.997    0.875
        19 -11.7200     75.9642    139.2162   8.4044309255e+01   3.7688890840e+01    0.3743317    0.2985922 -64.81 0.0003920438    1.252    0.201
        20 -12.2469     71.5853    153.7581   8.7528349314e+01   3.4911332529e+01    0.8126459     0.513667  50.97  0.001577522    1.567    0.362
        21 -12.8164     68.3585    143.9856   8.7014002504e+01   3.7620122301e+01     1.078984    0.5934426  58.29  0.003010226    2.135    0.532
        22 -10.2311     88.6688    141.5105   8.0819395186e+01   3.5266592987e+01    0.2901867    0.2734374  23.69 0.0008718267    1.107    0.097
        23  -9.1654     92.9202    138.0966   7.9011221501e+01   3.5381144431e+01     0.316018    0.2094681 -16.60 0.0009894782    2.419    0.587
        24 -11.9264    127.8120    230.0314   8.4130410687e+01   1.3161456710e+01    0.4648459    0.3389408  54.42  0.002214989    1.666    0.400
        25 -13.1062     47.7147    155.5472   9.4428388283e+01   3.7429763982e+01    0.5728916    0.4124183 -43.38  0.001935898    1.663    0.399
        26 -10.2414    105.2014    130.6027   7.4134630690e+01   3.5035149919e+01    0.4175034    0.3200439  35.23   0.00158733    1.311    0.237
        27 -10.8879    242.2850    129.9054   4.7007472010e+01   1.1243870624e+01    0.2386326    0.1682046  56.05  0.001486015    2.068    0.516
        28  -9.5188     89.9897    126.2401   7.7523317522e+01   3.8585642775e+01    0.2963922    0.2410486  11.34 0.0009727552    1.461    0.316
        29  -9.1134    112.3050    124.8168   7.0958707869e+01   3.5056604038e+01    0.3143051    0.1736684  17.26  0.001075975    3.419    0.708
        30  -9.1351    141.3028    222.6449   8.0634461304e+01   1.2562171311e+01    0.1083561   0.08239361  54.86 0.0007039289    1.710    0.415
        31  -8.1033    127.5483    119.5542   6.5788041548e+01   3.3338533096e+01    0.1426246    0.1407352 -42.59 0.0001128108    1.047    0.044
        32  -9.3057    102.7112    118.9657   7.2270778448e+01   3.8079338708e+01    0.2213205    0.2055416  39.13 0.0003556872    1.090    0.082
        33 -11.5656    244.9986    110.5349   4.2588097130e+01   1.3269686354e+01    0.3463138    0.1560619 -29.45  0.001774495    1.759    0.431
        34 -10.9733     43.7517    106.6545   8.8890542268e+01   5.0045629368e+01    0.6354929     0.310919  64.95  0.002178629    3.058    0.673
        35  -9.2351    204.6687    110.7804   4.8187569111e+01   2.0049663809e+01    0.3044118    0.1586882  33.85  0.001390296    2.369    0.578
        36  -8.7479    163.6733    102.3527   5.3301217889e+01   2.9393709837e+01    0.1475976    0.1119459 -68.03 0.0007047345    1.766    0.434
        37 -10.5922    248.9639    247.9700   6.6035598185e+01  -2.3873594043e+00    0.2033826    0.1391425 -22.92  0.001733043    1.634    0.388
        38  -9.2417     41.6596     92.1152   8.6886682706e+01   5.4054873416e+01    0.2252036    0.1908495  53.78 0.0004344777    1.236    0.191
        39  -8.5881     77.2336     87.4365   7.2241296354e+01   4.9975497034e+01    0.1942974    0.1416602  52.23 0.0004163769    1.492    0.330
        40 -10.3471    166.1222     85.8716   4.8360948652e+01   3.1700411931e+01    0.2293761    0.1939399 -56.02 0.0007664383    1.262    0.208
        41  -8.4596     45.5271     84.5261   8.3609004368e+01   5.5534084358e+01    0.1448263    0.1325352 -81.00 0.0001684735    1.064    0.060
        42  -9.2271    184.2703     77.5632   4.2942787034e+01   2.9097000776e+01    0.1869119    0.1304217  42.12 0.0009444718    1.609    0.378
        43 -13.5233     10.4803    206.6311   1.0715103998e+02   2.9966704232e+01     1.256096    0.8117964   9.69  0.003280113    2.003    0.501
        44 -10.0509     13.3579     60.2265   9.3039622323e+01   6.5029122001e+01    0.2431235    0.2078903 -87.41 0.0005134526    1.161    0.139
        45 -12.7581     41.7362    175.0208   9.7904453894e+01   3.3645931429e+01     1.409793    0.8820755 -13.43 0.0005186794    2.758    0.637
        46  -9.0902    226.3248    246.6577   6.9159704879e+01  -6.9676522498e-02   0.08312906   0.07120188  20.45 0.0005616748    1.733    0.423
        47 -10.4082     11.7169     53.1092   9.2296644119e+01   6.6957649922e+01    0.2455059    0.1914962 -56.26 0.0008990329    1.111    0.100
        48  -8.7720     84.9923     50.5358   5.6673359913e+01   5.6483407926e+01    0.2456031       0.1901 -38.48 0.0005869835    1.248    0.199
        49  -8.0738     94.7288     46.6739   5.1922398136e+01   5.5018645832e+01    0.1488195    0.1168947   5.30 0.0002230685    1.578    0.366
        50 -10.2092     52.1930     90.3266   8.2320927486e+01   5.3177899191e+01    0.3850212    0.3181023  76.67  0.002045336    1.313    0.239
        51 -10.8482      2.3454     23.0097   8.9460287976e+01   7.4884043147e+01    0.3276685    0.1629011 -57.94  0.001446743    1.636    0.389
        52  -8.8556    111.9841     19.9963   3.5937165670e+01   5.4681806098e+01    0.2346725    0.1601511 -59.11 0.0004955752    1.659    0.397
        53  -9.3493    125.0000    244.9846   8.6254341359e+01   1.1380820003e+01    0.1454438   0.06257507 -53.46 0.0008101109    2.996    0.666
