#   1 NUMBER                 Running object number                                     
#   2 MAG_AUTO               Kron-like elliptical aperture magnitude                    [mag]
#   3 X_IMAGE                Object position along x                                    [pixel]
#   4 Y_IMAGE                Object position along y                                    [pixel]
#   5 X_WORLD                Barycenter position along world x axis                     [deg]
#   6 Y_WORLD                Barycenter position along world y axis                     [deg]
#   7 A_WORLD                Profile RMS along major axis (world units)                 [deg]
#   8 B_WORLD                Profile RMS along minor axis (world units)                 [deg]
#   9 THETA_WORLD            Position angle (CCW/world-x)                               [deg]
#  10 FWHM_WORLD             FWHM assuming a gaussian core                              [deg]
#  11 ELONGATION             A_IMAGE/B_IMAGE                                           
#  12 ELLIPTICITY            1 - B_IMAGE/A_IMAGE                                       
         1 -14.6114     68.2370    144.3131   1.1188441434e+02   3.7258130784e+01     5.258377      2.61638  68.65  0.004470451    3.313    0.698
         2 -14.5655    197.4816     33.4613   5.1549850654e+01   3.1351029547e+01     2.486364      1.59387  24.77  0.008376246    2.132    0.531
         3 -14.5175    209.0350     20.2052   4.6328295266e+01   2.9973291625e+01      1.62114     1.162613  10.26  0.008132849    1.861    0.463
         4  -9.2370     61.6662      8.3141   7.2830476475e+01   6.5711575948e+01    0.1118645   0.09891359 -47.90 0.0007046044    1.685    0.407
         5 -11.1125     31.4941      2.5420   8.2498000513e+01   7.0778912336e+01    0.2856236    0.1005854  31.13  0.001323763    3.082    0.675
         6 -11.0175    182.4442    234.2073   1.0157642128e+02   1.4069081988e+00    0.3043194    0.1433938  48.51  0.001525573    2.012    0.503
         7 -16.4067     79.9335    245.6189   1.2094074124e+02   1.5407100844e+01     9.214425     2.107509  39.97   0.02752934    3.814    0.738
         8  -9.4642    108.0100    203.7147   1.1150180849e+02   1.8693251072e+01    0.1737484    0.1434797  56.89 0.0003341208    1.054    0.051
         9  -9.5075     95.8787    200.9940   1.1357894550e+02   2.1090628865e+01    0.1870951    0.1563084  69.25 0.0003843015    1.023    0.022
        10 -10.5171    204.0420    199.4788   9.1928320380e+01   2.6148829960e+00    0.2050676    0.1145275  38.98 0.0008113923    1.583    0.368
        11  -9.4287     97.2160    193.4776   1.1236648136e+02   2.2365858103e+01    0.2690617    0.2100531  -5.05  0.001471495    2.261    0.558
        12  -9.2801     82.4988    194.5115   1.1549372035e+02   2.4342575584e+01    0.1258414    0.1036392  72.97 0.0008104483    1.026    0.025
        13  -9.0708    180.3137    192.6337   9.5253696101e+01   8.0116917650e+00     0.131771    0.1068916  81.14 0.0007038565    1.767    0.434
        14 -16.1156      6.0596    247.2029   1.3256397831e+02   2.3650718522e+01     1.557356     1.123893 -79.56   0.01358558    1.539    0.350
        15 -15.4647      2.7735    224.7730   1.3212878675e+02   2.7778543492e+01     3.147598    0.1884709 -71.72  0.007100932    6.794    0.853
        16  -9.5743    151.3643    183.2125   9.9464173747e+01   1.5080939400e+01    0.1868391     0.129451 -62.25 0.0004880867    1.751    0.429
        17 -12.1165     70.7075    179.9818   1.1621537289e+02   2.8991027406e+01    0.4110166    0.2680708 -40.35  0.002179501    2.283    0.562
        18 -11.9912     74.9183    174.7260   1.1465903190e+02   2.9538787639e+01     0.282892    0.2316246 -50.51 0.0009111083    1.453    0.312
        19 -10.9845    208.1154    179.8434   8.7408202992e+01   4.8579883848e+00    0.6428605    0.3077312  30.31  0.002657417    2.359    0.576
        20  -9.9031     99.5753    180.6866   1.1012745216e+02   2.4605764830e+01    0.2215764     0.189658  50.37 0.0005608701    1.156    0.135
        21 -10.0060    144.4537    178.8538   1.0015547755e+02   1.7197329461e+01    0.2441533    0.1614083  38.59  0.001222241    1.453    0.312
        22  -9.6776    167.2066    174.8964   9.4608815507e+01   1.3603089419e+01    0.4094029    0.2625267 -78.15  0.001576905    3.330    0.700
        23 -12.6431     89.6776    157.8270   1.0887753438e+02   3.1096502788e+01      1.29489    0.6603972 -64.11  0.001478866    1.946    0.486
        24 -10.0542    174.0355    248.1879   1.0498574084e+02   9.1684151714e-01    0.2095555    0.1791584 -71.78  0.001508894    1.675    0.403
        25 -13.6615     71.3231    160.7764   1.1359114891e+02   3.3097946886e+01     0.582911    0.4500745 -38.22  0.001534099    1.707    0.414
        26 -10.7187     47.4739    172.4720   1.2029705276e+02   3.3509689224e+01    0.2799276    0.1931711 -63.61 0.0008564484    1.421    0.296
        27  -8.8730    202.6804    172.3200   8.6924681242e+01   7.1073100696e+00    0.1316332    0.1144643  89.76 0.0006611173    1.666    0.400
        28 -10.5893    137.3208    170.9332   1.0027865831e+02   2.0090672406e+01    0.1922296    0.1871467 -73.73 0.0007856442    1.076    0.071
        29 -15.2759      9.6044    206.5581   1.3013662385e+02   3.0484346930e+01     1.089826    0.6492715  53.04  0.004091723    1.450    0.310
        30  -9.6274    177.4892    169.9921   9.1501431490e+01   1.2474612193e+01    0.1943657    0.1262924 -66.78 0.0008104201    2.552    0.608
        31  -9.7507    231.3065    169.6544   8.1019972738e+01   2.0829645572e+00    0.1255434    0.1103182 -65.32 0.0007042774    1.696    0.410
        32 -10.2890    146.0741    168.3518   9.7877149066e+01   1.8952288841e+01    0.2376715    0.1977906 -35.37 0.0005179537    1.323    0.244
        33 -10.8487    195.3157    169.0844   8.7701172197e+01   9.0941130001e+00    0.3324605    0.3168944  -5.00 0.0007558257    1.101    0.092
        34 -10.2779    190.1400    160.6735   8.6961183659e+01   1.1599343465e+01    0.3045966    0.1909546 -42.92  0.001142593    1.687    0.407
        35 -10.6899    189.4820    154.8852   8.5832648458e+01   1.2772541057e+01    0.4374033    0.3512781  80.17  0.002159793    1.777    0.437
        36 -11.0751    133.8101    144.0549   9.5768603585e+01   2.6387196333e+01     1.108652    0.2506995 -52.05  0.002768866    5.419    0.815
        37 -10.6166    174.3859    148.3625   8.7537430463e+01   1.7154154525e+01     0.358407    0.2903782 -55.67  0.001259455    1.395    0.283
        38 -10.8999     41.5462    147.6566   1.1879943153e+02   3.9679006697e+01    0.2598117    0.1759432  70.03 0.0009233548    1.467    0.318
        39 -10.5940     87.8885    146.4988   1.0740745250e+02   3.3934033763e+01    0.3082386    0.2162227  77.65 0.0008299443    1.656    0.396
        40 -12.3115     90.8863    142.2313   1.0590164099e+02   3.4444836896e+01    0.2800473    0.2523004 -50.47 0.0003842922    1.177    0.151
        41 -12.3371     83.4512    164.7757   1.1138872865e+02   3.0489981326e+01     0.579437    0.3742541  69.22 0.0004954918    1.701    0.412
        42 -10.9878    103.4403    141.8241   1.0269778216e+02   3.2476983189e+01    0.5715817    0.3390391 -31.45  0.002338926    2.593    0.614
        43 -14.2785     46.2531    208.5334   1.2382761032e+02   2.6274067434e+01     1.607681     1.024712 -35.13  0.008342651    3.729    0.732
        44 -12.2824     45.2178    129.5686   1.1543575851e+02   4.3456753980e+01    0.4332692    0.3147112  84.69  0.002561329    1.373    0.271
        45 -12.3091     42.8518    126.3679   1.1557076143e+02   4.4453129024e+01    0.4213085    0.3307702  37.26  0.001954549    1.497    0.332
        46 -10.1485    112.2192    131.5182   9.8356072540e+01   3.3264905079e+01     0.303098    0.2455883   9.06 0.0007356316    1.616    0.381
        47 -10.1693    105.9739    130.6931   9.9773987714e+01   3.4572973049e+01    0.3095086    0.2745812 -68.11  0.001226978    1.084    0.078
        48 -10.7482    160.7904    128.1881   8.5788873324e+01   2.4096199564e+01    0.5380096    0.2695422 -45.71  0.002078276    2.026    0.506
        49 -11.0214    135.6160    128.8985   9.1912650873e+01   2.9307189927e+01    0.4666975    0.1983861 -50.32  0.001669006    2.424    0.587
        50 -10.5774    135.0000    120.0318   8.9902983554e+01   3.1358006344e+01    0.3865557    0.1922548 -51.67   0.00115023    2.113    0.527
        51 -11.2677    118.5927    126.4341   9.5588274566e+01   3.3221109508e+01    0.8328962    0.3996318 -41.44  0.003209902    2.220    0.550
        52 -11.1705     99.4665    128.1573   1.0091728097e+02   3.6280755274e+01    0.3216445    0.2430865 -35.13 0.0007573194    1.502    0.334
        53 -10.3654    125.6173    127.2556   9.4001952695e+01   3.1676201320e+01     0.307259    0.2394352  89.71 0.0007688416    1.635    0.389
        54 -12.2325     32.6669    119.5088   1.1724877147e+02   4.7049315295e+01    0.4296239     0.254173 -38.82   0.00228993    2.089    0.521
        55 -15.1256     55.8741    198.2896   1.2115010885e+02   2.7128404546e+01     2.482318     1.472744 -81.08   0.01502342    1.556    0.357
        56 -10.0812     71.5815    230.0854   1.2108232873e+02   1.9140826937e+01    0.2336724    0.1384314  52.68 0.0006432121    1.353    0.261
        57  -9.7957    108.2728    120.0369   9.6779481420e+01   3.6590855072e+01    0.2199692    0.2053561  47.46 0.0004057952    1.126    0.112
        58 -12.5608     44.4276    114.4250   1.1321852968e+02   4.7081693837e+01    0.5345461    0.3373164 -67.89  0.002952164    1.340    0.254
        59 -11.3722     45.7717    109.5584   1.1197649647e+02   4.8079552160e+01    0.3120649    0.2501187  65.76   0.00141046    1.402    0.287
        60 -11.2673     41.8327    109.1380   1.1303016332e+02   4.8585023024e+01    0.2999979    0.1883366 -61.94  0.001133501    1.300    0.231
        61 -10.3000    167.9430    112.8458   8.0235617237e+01   2.5572755766e+01    0.3903508    0.3065056 -77.27  0.001321776    1.710    0.415
        62  -9.2861    107.8548    113.8519   9.5407190138e+01   3.8070940831e+01    0.1906696    0.1677423 -87.78            0    1.253    0.202
        63 -10.3403    135.2540    112.1793   8.7824746949e+01   3.2999422815e+01    0.4465649    0.1877508 -48.66  0.001554726    2.428    0.588
        64 -10.5363    134.5016    102.8943   8.5508626155e+01   3.5139834487e+01    0.4087272     0.205345 -37.13 0.0009317503    2.055    0.513
        65 -11.5078    118.9019    110.0933   9.1503970283e+01   3.6807716319e+01    0.6169783    0.4631369  60.54  0.002942327    1.542    0.352
        66 -10.2808    205.3353    110.3066   7.1871095003e+01   1.7347713509e+01    0.3417974    0.2688759  32.72  0.001080175    1.336    0.251
        67 -11.6482     34.0320    108.5455   1.1515796474e+02   4.9474215716e+01    0.5018678    0.2324805 -80.41  0.002168385    2.570    0.611
        68 -11.1196     34.1661    100.7545   1.1377000787e+02   5.1271077300e+01    0.3151742    0.2206567 -77.87 0.0009578455    1.338    0.253
        69  -8.8337     95.1215    105.1577   9.6768469373e+01   4.2303106202e+01    0.1854461    0.1636651 -89.71  0.001001177    1.266    0.210
        70 -11.3277    240.5970     99.5145   6.3097552432e+01   1.1222040458e+01     0.472401    0.2230541 -52.43  0.001699687    2.996    0.666
        71  -8.8510     87.6304    100.2395   9.7680625827e+01   4.4668251136e+01    0.1394973    0.1099017  73.77 0.0002947774    1.611    0.379
        72  -9.5164    121.5360     98.5360   8.7681702719e+01   3.8799630492e+01    0.1527695    0.1459663 -39.81  0.000164666    1.013    0.013
        73 -11.6218     55.0118     95.0117   1.0626153093e+02   5.0433959614e+01    0.5024389    0.3087454  51.30  0.002535333    2.050    0.512
        74  -9.9564    157.0129     79.7512   7.3227837492e+01   3.4548778945e+01    0.2180517    0.2105961  31.73 0.0005074795    1.046    0.044
        75  -9.5520     59.8575     67.8328   9.7520456556e+01   5.5876154977e+01    0.1734339    0.1552267 -70.89 0.0003449408    1.319    0.242
        76 -10.9888     13.5357     59.9392   1.1223690333e+02   6.1990977104e+01    0.2445761    0.1657827 -57.58 0.0004321401    1.135    0.119
        77 -11.3301    153.3148     56.2973   6.6551575777e+01   3.9499228142e+01    0.4516589    0.3153836 -76.58  0.001022796    2.157    0.536
        78 -13.1314    188.2449     40.1266   5.4892691655e+01   3.2878371947e+01    0.9491064    0.6683505  36.87  0.002140687    1.584    0.369
        79 -13.6831     20.2727    192.8669   1.2742260664e+02   3.2136083487e+01    0.7403933    0.4296241  60.07  0.002514055    1.457    0.313
        80 -13.6567     34.9877    209.0964   1.2589204231e+02   2.7439671972e+01     1.048381      0.56257  47.30  0.004161249    1.647    0.393
        81 -11.4557     22.1980     34.4200   1.0121425015e+02   6.6543593321e+01    0.2531251    0.2264799 -42.44  0.001587871    1.274    0.215
        82 -11.3607    155.8537     50.4555   6.4065323939e+01   3.9766482655e+01    0.4011761    0.3057487 -81.46 0.0009131384    1.730    0.422
        83  -8.3808     94.6856     46.3058   7.8293359510e+01   5.4356883595e+01    0.1337837    0.1143733 -68.48 0.0007025389    1.623    0.384
        84 -10.3702    189.8128     15.1068   4.7160718268e+01   3.5432896593e+01    0.2159651    0.1838826 -63.74 0.0006116399    1.185    0.156
        85  -9.7688    164.2107    205.7930   1.0066191779e+02   8.7687508905e+00    0.1891981    0.1741158 -63.56 0.0003495318    1.291    0.225
        86  -9.4643     45.6613     11.2964   8.0713948001e+01   6.7775660756e+01    0.1049899    0.0964866 -43.51 0.0005405507    1.656    0.396
        87 -12.2024    194.3835    195.6266   9.3057872487e+01   4.9406859080e+00     1.091884    0.6163001 -58.21  0.004600861    3.249    0.692
        88 -16.2982     19.8087    170.6895   1.2587003298e+02   3.6751111012e+01     13.49509     2.662552 -78.31   0.02531806    6.477    0.846
