#   1 NUMBER                 Running object number                                     
#   2 MAG_AUTO               Kron-like elliptical aperture magnitude                    [mag]
#   3 X_IMAGE                Object position along x                                    [pixel]
#   4 Y_IMAGE                Object position along y                                    [pixel]
#   5 X_WORLD                Barycenter position along world x axis                     [deg]
#   6 Y_WORLD                Barycenter position along world y axis                     [deg]
#   7 A_WORLD                Profile RMS along major axis (world units)                 [deg]
#   8 B_WORLD                Profile RMS along minor axis (world units)                 [deg]
#   9 THETA_WORLD            Position angle (CCW/world-x)                               [deg]
#  10 FWHM_WORLD             FWHM assuming a gaussian core                              [deg]
#  11 ELONGATION             A_IMAGE/B_IMAGE                                           
#  12 ELLIPTICITY            1 - B_IMAGE/A_IMAGE                                       
         1 -13.2741     65.2852     52.2522   6.9068659489e+01   5.9622626236e+01     1.433635    0.7464325 -32.02  0.006191772    2.054    0.513
         2 -14.9004      6.3972     71.2614   1.0225490355e+02   6.2092611024e+01     1.064995    0.7581362 -53.36  0.004201913    1.152    0.132
         3 -13.8339    188.3817     25.2326   3.1359608878e+01   3.5053610579e+01     1.665461     0.574339 -57.07  0.005629166    4.179    0.761
         4 -14.2089    187.9122     12.4301   2.8117900642e+01   3.6493109598e+01     1.481355     0.583439 -48.58  0.006671209    2.412    0.585
         5 -13.1185    132.0666     33.0303   4.1890095005e+01   4.7763253914e+01    0.5911198    0.5382234  14.35  0.001669069    1.203    0.169
         6 -13.8858    121.9122     36.9061   4.5366221394e+01   4.9760416221e+01     1.014334    0.5469719  37.91  0.003546355    2.088    0.521
         7 -14.6616    147.2600     29.5083   3.8019018996e+01   4.4434761956e+01     1.516739     0.963048  55.02  0.007708839    1.476    0.322
         8 -12.5112     45.7776     33.6722   6.9991350747e+01   6.6110284115e+01     0.747238    0.5188622  36.98  0.004022321    1.485    0.326
         9 -13.2199      7.9684      2.7848   7.6548186948e+01   7.5848730278e+01    0.6652512     0.402184  39.06  0.002686887    2.249    0.555
        10 -13.7668      3.1218     10.2767   8.4500318227e+01   7.5078227656e+01    0.8222226    0.5707998 -38.49  0.005433471    1.284    0.221
        11 -16.0579     12.7193     21.4242   8.3199865144e+01   7.2316365205e+01     2.093534     1.110822 -28.45  0.009406179    1.729    0.422
        12 -14.2870     25.1219     13.9124   7.1370067128e+01   7.2185471079e+01    0.8729069    0.3551899  31.79  0.004123666    2.351    0.575
        13 -14.5799    217.6897     12.4615   2.5709954715e+01   2.9949609131e+01     1.166588     1.000878 -12.82  0.005995139    1.505    0.336
        14 -11.9137     63.2651     25.3589   5.8270657912e+01   6.4325647275e+01     0.589397    0.3680635   3.87  0.002830242    2.033    0.508
        15 -12.9843    120.6008     25.8925   4.1701751214e+01   5.1404206220e+01    0.7647626    0.4830072  36.42  0.003648331    1.705    0.413
        16 -11.9653     46.8861     20.5884   6.3112233526e+01   6.7948459949e+01    0.4027304    0.2925729  -1.80  0.002338265    1.342    0.255
        17 -15.1866     98.9955     11.5175   4.0888718998e+01   5.8071833514e+01     1.653838    0.8270164  62.09  0.007049295    1.790    0.441
        18 -12.4144     69.8645     16.0305   5.1298168860e+01   6.4154554607e+01    0.3647505    0.3315559  89.48  0.002110442    1.482    0.325
        19 -11.8131     59.0999     16.1508   5.5428275888e+01   6.6306500536e+01    0.3631234    0.2767123  42.02  0.002157353    1.237    0.192
        20 -11.7891     46.5725     13.0395   5.9266990475e+01   6.9000555692e+01    0.3091875    0.2628635  42.03  0.001580618    1.344    0.256
        21 -12.3300    167.3091     10.7587   2.9725399487e+01   4.1486078569e+01    0.4350276    0.2554147 -30.30   0.00231498    1.787    0.440
        22 -13.9162     41.5529      4.5038   5.6824170918e+01   7.0880059774e+01    0.7184965    0.5264621  16.23  0.003561709    1.181    0.153
        23 -12.4416    152.8058      8.9747   3.0874198349e+01   4.5155979670e+01    0.3028575    0.2595721  57.09  0.001265435    1.171    0.146
        24 -13.0116     85.5970     14.4940   4.5606323869e+01   6.0891683317e+01    0.5683458    0.3890728 -29.84  0.002266962    1.610    0.379
        25 -10.7006    133.2751      8.7422   3.3441355880e+01   4.9973649982e+01    0.1788876    0.1331291  48.97 0.0003950453    1.298    0.230
        26 -11.0721    144.9910      8.1355   3.1603428385e+01   4.7142440180e+01    0.1928178    0.1675564  78.64 0.0003512792    1.016    0.016
        27 -10.6527     59.6433      7.5610   5.0754681903e+01   6.7146721241e+01    0.2438356    0.1033459  47.61  0.001116014    1.996    0.499
        28 -11.9256    120.1984      3.6213   3.3692772099e+01   5.3608977613e+01    0.4749923    0.2154668  81.09  0.001973996    2.533    0.605
        29 -11.1910    117.0614      1.5052   3.3431836867e+01   5.4537458436e+01    0.2953765    0.1803174  70.30  0.001184221    1.445    0.308
        30 -13.2263     55.3743     27.2692   6.2511604557e+01   6.5519772288e+01    0.6943387    0.4303536  36.43  0.003651921    1.495    0.331
        31 -11.2580    232.6021      1.7817   2.2479270071e+01   2.7964347656e+01    0.2041279    0.1388679  88.54  0.001051433    1.368    0.269
        32 -11.4933    169.7133      1.8209   2.7004779032e+01   4.1705919375e+01    0.3825988    0.1159306  65.83  0.001569826    2.695    0.629
        33 -11.4856     61.0458      1.6148   4.7073940411e+01   6.7419040029e+01    0.3915757     0.146441  58.03  0.001645498    2.600    0.615
        34 -14.6259    166.3560     28.6932   3.4944104967e+01   3.9866303554e+01     1.169871     1.004565 -81.95   0.00518739    1.105    0.095
        35 -11.1938     81.8695      1.4552   4.0680780324e+01   6.2898478027e+01    0.4115891   0.09871778  60.07  0.001456889    3.259    0.693
        36 -11.2557    103.2490    150.3275   8.3333285847e+01   3.0835760443e+01    0.3255076    0.2356874 -21.19  0.001482734    1.721    0.419
        37 -12.9036    107.2104    247.4008   9.6663481528e+01   9.8797594585e+00    0.6447118    0.5016792  75.67  0.004133421    1.660    0.397
        38 -13.7226     98.0178    239.0964   9.7753588751e+01   1.2549986262e+01     0.878693     0.469798  33.35  0.004699265    1.548    0.354
        39 -14.0562     91.5961    231.3598   9.8343994669e+01   1.4831446982e+01    0.6172933    0.5668217 -40.02  0.004201456    1.283    0.221
        40 -12.2082     51.7014    248.8830   1.0843698145e+02   1.6365839797e+01     0.359049    0.3099484 -83.36   0.00266782    1.310    0.237
        41 -12.4113     59.7942    246.4126   1.0659082234e+02   1.5910212787e+01    0.3300835     0.277942  -3.59  0.002277054    1.568    0.362
        42 -12.5832      2.8426    248.8346   1.1802710668e+02   2.1177916970e+01    0.4281952    0.2630621  69.31  0.002662256    1.344    0.256
        43 -13.5119      9.3781    245.7604   1.1667939486e+02   2.1173158133e+01    0.7307634    0.3328912  55.70  0.003520654    1.729    0.422
        44 -11.9012     60.3256    147.3353   9.5561725131e+01   3.7992004802e+01    0.4373133    0.3195695   5.83  0.002163513    1.673    0.402
        45 -11.9849     12.6778    149.7715   1.1026340113e+02   4.2081220115e+01    0.5010836    0.2014821  88.13  0.001977379    2.834    0.647
        46 -12.0225     45.1445    134.1051   9.8274233499e+01   4.3165007325e+01     0.453487     0.322868 -70.33  0.002333377    1.335    0.251
        47 -11.8822    246.4533    135.3017   4.9425723868e+01   7.8355778119e+00    0.1941135    0.1636193  89.03  0.001213952    1.849    0.459
        48 -12.0898    135.6796    132.4999   7.0512548187e+01   2.8932409325e+01    0.5052618    0.1482907  42.69  0.001502856    3.421    0.708
        49 -13.0620     84.3244    115.1796   8.1395233561e+01   4.2549494817e+01     1.375842    0.8552511  50.86  0.005871482    1.880    0.468
        50 -14.4148    106.0213    105.7579   7.2033303543e+01   4.0803313733e+01     2.499379     1.202615 -37.15  0.009100315    2.333    0.571
        51 -13.3292    108.7047    124.2209   7.5980119837e+01   3.6045162511e+01     1.019965    0.6970184  25.56  0.004527689    1.610    0.379
        52 -13.1168    111.1817    117.3125   7.3531393782e+01   3.7169423489e+01    0.7304349    0.4169833  28.20  0.002674499    2.038    0.509
        53 -12.6163     28.6367    122.1105   1.0199585003e+02   4.7866275877e+01     0.453015    0.3375482 -60.69  0.002344721    1.199    0.166
        54 -11.7103    181.5854    121.2218   5.7233675687e+01   2.1878963446e+01    0.2658469    0.1854979  58.64  0.001168248    1.731    0.422
        55 -11.9440      4.1491    119.8213   1.1007943504e+02   5.0156467826e+01     0.520797      0.21823  14.23  0.002115375    2.795    0.642
        56 -12.7225     49.3903     96.7713   8.9499620740e+01   5.2160377276e+01     1.081421    0.8114689  24.17  0.005643885    1.410    0.291
        57 -12.1918     42.5834     91.0421   9.0838330185e+01   5.4361272361e+01    0.5184509    0.4014789  34.97  0.002119489    1.407    0.289
        58 -14.7135     15.8424    108.2500   1.0454419334e+02   5.2392303667e+01     1.950831     1.191425 -82.84   0.00986218    1.631    0.387
        59 -13.3945      2.2532     97.3437   1.0817599190e+02   5.5903321023e+01    0.8397344    0.2968729 -78.03  0.003273872    2.675    0.626
        60 -14.5409     22.8601     95.0846   9.9690126646e+01   5.5215376051e+01      1.66455     1.031923   1.78  0.008347459    1.908    0.476
        61 -11.8499    121.4693    112.3797   6.9290402754e+01   3.6225019611e+01    0.3240704    0.2757361  76.61  0.001176545    1.454    0.312
        62 -10.9626     44.8203    111.8249   9.4474903801e+01   4.8914118431e+01    0.5552478    0.2149841 -31.02  0.001400293    6.282    0.841
        63 -11.7230     62.9888    111.0206   8.7743627431e+01   4.6848142611e+01    0.4644829    0.3025273  52.08  0.002097054    1.837    0.456
        64 -11.2137     42.0453    107.3579   9.4616524877e+01   5.0350871487e+01    0.3009181    0.1356381  23.88  0.001222434    2.398    0.583
        65 -13.1262     29.5743     89.4626   9.5823445287e+01   5.6055964168e+01     1.031803    0.5614916  64.14  0.004044136    3.211    0.689
        66 -12.3758    136.0876    103.1278   6.2857798849e+01   3.5100679890e+01    0.5553716    0.3192558  48.72  0.001390845    1.791    0.442
        67 -13.3398    120.8940    101.9722   6.6618600418e+01   3.8599478219e+01    0.6631512    0.3718662  34.98  0.002648975    1.929    0.482
        68 -11.6538    163.7302     98.3764   5.5110873931e+01   2.9924485150e+01    0.2880112    0.2655786 -59.75 0.0005055622    1.138    0.122
        69 -12.0785     60.7852     97.7896   8.5381855680e+01   5.0417023827e+01    0.4266059    0.3186568  62.82  0.002055776    1.743    0.426
        70 -12.6453    136.2145     95.1043   6.0577763309e+01   3.6688200003e+01    0.5252498    0.3625576  47.19  0.002406375    1.458    0.314
        71 -10.9317    124.9968     91.9922   6.2620162516e+01   3.9788137426e+01    0.2429589    0.1952097 -88.08  0.001064146    1.685    0.406
        72 -13.4660     95.5660    110.5508   7.6578693386e+01   4.1686454520e+01    0.9789733    0.8981193  84.53  0.004255909    1.256    0.204
        73 -12.6712    188.1610     84.4629   4.6830386706e+01   2.6939048148e+01    0.6241279    0.2690623  45.66   0.00241614    2.608    0.617
        74 -12.4604    237.5007     80.7020   3.9019613511e+01   1.7499305981e+01    0.3228624    0.2166771 -80.89  0.001761516    2.018    0.505
        75 -13.7140    164.3077     71.6176   4.7620790473e+01   3.4443805120e+01     1.181263     0.937478  82.04  0.006099317    1.431    0.301
        76 -13.3995    161.3289     80.6577   5.0753220764e+01   3.3631556262e+01     1.782731    0.9135387  24.53    0.0048344    5.622    0.822
        77 -14.0566    169.5433     76.9984   4.8140621034e+01   3.2350910966e+01     1.405048    0.4507721  54.24  0.004762588    3.100    0.677
        78 -11.9796     47.2308     81.7877   8.6548756692e+01   5.6037002024e+01    0.5283368    0.4267826  -1.70  0.002886841    1.295    0.228
        79 -11.9690     41.9792     77.6521   8.7647739806e+01   5.7634357422e+01     1.079034    0.3381027 -63.46   0.00317664    4.473    0.776
        80 -12.9650     28.4191    246.0844   1.1297206354e+02   1.9323476072e+01    0.4332558    0.2856088  56.44  0.002949364    1.224    0.183
        81 -13.1255     91.7027     57.9949   6.1475176382e+01   5.3474953036e+01    0.5409907    0.5182655   9.22  0.001889796    1.052    0.049
        82 -13.3721     87.0605     65.3660   6.5702815116e+01   5.3070344923e+01    0.9979085    0.6344266  11.19  0.004082475    2.334    0.572
        83 -13.5397     54.0870     68.1020   7.9512948900e+01   5.8218897891e+01     1.834574    0.7417592  31.98  0.007171992    2.527    0.604
        84 -14.0458     61.1190     75.8463   7.9061876693e+01   5.5483360268e+01    0.7137866    0.5138291 -26.36  0.001293305    1.439    0.305
        85 -13.0745     71.0608     75.3220   7.4965262883e+01   5.4001333814e+01    0.6119045    0.4363412  -1.79  0.002090928    1.729    0.422
        86 -12.3902     77.1552     73.3142   7.1999491507e+01   5.3362442363e+01    0.5873484    0.3681891 -24.10  0.001680531    1.936    0.483
        87 -13.0101    213.3649     78.7781   4.1612802351e+01   2.2481579019e+01    0.7973048    0.4794802 -89.15  0.003549871    2.685    0.628
        88 -12.6206    135.5876     79.7522   5.6224247122e+01   3.9757535218e+01     0.710286    0.3798108  51.22    0.0022744    1.869    0.465
        89 -12.2166    113.7263     80.3267   6.2235755756e+01   4.4575947169e+01    0.3966761    0.3669978  -9.56 0.0005593337    1.089    0.082
        90 -13.2730    171.5865    242.8399   8.2686613818e+01   2.0003565790e+00    0.5653356    0.3368026  18.70  0.003236878    1.488    0.328
        91 -14.1432      4.9453     63.5230   1.0136106652e+02   6.3987768617e+01    0.7487965    0.5834876  -4.64  0.003883422    1.366    0.268
        92 -11.5440     26.9815     75.4054   9.3707488500e+01   5.9688656286e+01    0.4373449    0.2813952  80.16     0.001988    2.513    0.602
        93 -12.5430    218.2546     74.1426   3.9879396025e+01   2.2171593317e+01    0.3201342    0.2224023 -62.10  0.001754089    1.538    0.350
        94 -13.5039    199.3568     69.9937   4.1422485991e+01   2.6747595060e+01    0.7056873    0.4225713  48.22  0.002745593    1.861    0.463
        95 -12.7782    134.2068     65.6757   5.2194100893e+01   4.2540584685e+01    0.6786485    0.5810823  45.15  0.002417742    1.145    0.127
        96 -12.3522     31.4446     63.0043   8.8220889146e+01   6.2126213906e+01    0.6086307    0.3545116 -67.92  0.002836082    2.112    0.526
        97 -11.9730     24.8925     59.1762   9.0282736123e+01   6.3607319262e+01    0.5106143    0.2636861 -47.88  0.001940686    1.641    0.391
        98 -11.3104     99.5519     65.0212   6.1448519871e+01   5.0547427572e+01    0.3205878    0.2389705  88.27  0.001414359    2.178    0.541
        99 -11.9651    199.6413     61.9302   3.9364117514e+01   2.7856965451e+01    0.3513678    0.2230969 -47.45  0.001286953    1.471    0.320
       100 -12.8442     79.1826     60.5577   6.6795792712e+01   5.5522481729e+01    0.6130702    0.5072191 -53.08  0.003256289    1.403    0.287
       101 -13.1051     82.4189     54.5726   6.3392058017e+01   5.5982401192e+01    0.7086174    0.5744494  17.81  0.003111231    1.235    0.190
       102 -13.5069    177.7701     57.3736   4.1334861068e+01   3.3460617917e+01    0.8745041    0.5434994 -46.21  0.003126464    1.570    0.363
       103 -14.6079    119.7133     54.4961   5.2051301390e+01   4.7774935775e+01     1.094496    0.6842146  44.63  0.005049982    1.549    0.354
       104 -11.1043     38.8761     60.3665   8.3831427828e+01   6.1887232272e+01    0.2894608    0.2299386  73.35  0.001530231    1.939    0.484
       105 -11.3730     17.6230     55.7104   9.2965972929e+01   6.4982690505e+01    0.3568421    0.1859356 -57.28  0.001772528    1.705    0.413
       106 -11.5523    247.6940     54.3798   3.2342827257e+01   1.9171444624e+01    0.4033285    0.1204081 -48.82  0.001631929    3.108    0.678
       107 -11.5433    249.0250     48.9807   3.1105034502e+01   1.9605305334e+01    0.2416171    0.1806328  30.95  0.001503821    2.040    0.510
       108 -13.9794    100.7357     49.7182   5.5567332650e+01   5.2896842109e+01    0.8704955    0.7846633 -67.50  0.003560947    1.331    0.249
       109 -12.9819     54.6797     82.3409   8.3624575756e+01   5.4937559662e+01    0.5970431    0.3925363 -48.09  0.001962427    1.413    0.293
       110 -11.8539     36.9390     52.7000   8.2134844387e+01   6.3737678326e+01     0.553509    0.2824549 -19.18  0.002195254    2.875    0.652
       111 -12.0027    135.4624     50.2696   4.6942182913e+01   4.4639544767e+01     0.562018     0.312354  36.60  0.001949073    2.168    0.539
       112 -10.9431      5.6470     50.9398   9.8007324943e+01   6.6819217584e+01    0.2221088    0.1507192 -23.62  0.001184228    1.370    0.270
       113 -10.6088     23.3867     50.3262   8.8264593383e+01   6.5669472792e+01    0.2029299    0.1225795 -27.07 0.0006096849    1.603    0.376
       114 -13.0960    157.4741     43.9425   4.0767350631e+01   4.0153089114e+01     0.879649    0.5370461  40.87  0.004110501    1.880    0.468
       115 -12.8339      3.8888     43.4351   9.6922534626e+01   6.8555106324e+01    0.5446591    0.3780976 -17.81  0.003212872    1.350    0.259
       116 -12.3727     11.7727     43.6784   9.2469149244e+01   6.8020424931e+01     0.500906     0.256475 -34.24  0.001958483    1.738    0.425
       117 -14.2771    211.9087     41.2761   3.2862311526e+01   2.7938461556e+01     1.906687    0.6667069  76.60  0.006941566    3.989    0.749
       118 -11.6744    147.3951    239.2180   8.7145981077e+01   5.8324807846e+00    0.1494634    0.1235882 -62.22 0.0009485743    1.685    0.407
       119 -12.7176     24.2265    216.9682   1.1222240664e+02   2.5503521407e+01    0.6830008    0.2803074  47.63  0.003450956    2.017    0.504
       120 -12.3364    109.6260     42.1190   5.0246795191e+01   5.1991697938e+01    0.5563741    0.2074072  52.41  0.001223043    2.427    0.588
       121 -12.2786     14.1167    222.1134   1.1468763196e+02   2.5366884954e+01    0.3850834    0.2760692  77.70  0.001558544    1.228    0.186
       122 -13.7071     26.0583    226.8089   1.1240427438e+02   2.3300785368e+01    0.7552825    0.3694822 -56.16  0.004043591    2.447    0.591
       123 -13.0643    113.6655     38.0633   4.7721942388e+01   5.1592249852e+01    0.4463808    0.3224989  66.23   0.00227086    1.436    0.304
       124 -13.4678     20.2754    224.0473   1.1348114494e+02   2.4410926864e+01    0.5372413    0.4237728 -68.48  0.002647948    1.422    0.297
       125 -13.3206    138.2380     21.8210   3.7019778796e+01   4.7502326526e+01    0.9273078    0.3121996  63.52  0.002275845    2.570    0.611
       126 -12.4133     75.8560     37.3000   5.8817412132e+01   6.0130802723e+01    0.4167771    0.2362898  45.35  0.001112182    1.667    0.400
       127 -11.6332     70.7377     36.5634   6.0416834003e+01   6.1260779568e+01    0.2917135    0.2679257 -38.58   0.00090282    1.280    0.219
       128 -12.5876    242.2151     36.2137   2.9001532479e+01   2.2421339601e+01     0.473238    0.2531004  73.70  0.001933895    2.023    0.506
       129 -11.0777    104.4866     36.9768   4.9676180547e+01   5.3901103902e+01     0.211343    0.1399061 -29.57  0.001037008    1.605    0.377
       130 -11.5209     35.2294     35.0001   7.5987831892e+01   6.7381756291e+01    0.4034148    0.2521506 -13.98  0.001547511    1.753    0.430
       131 -13.8704     64.9807    223.5247   1.0356706536e+02   1.9736066672e+01     1.032079    0.6231808  45.08  0.005799432    1.424    0.298
       132 -12.2393     43.5240     29.3185   6.9083391236e+01   6.7173153128e+01    0.4817922    0.2098162  32.72  0.001932259    2.254    0.556
       133 -12.6311     59.3960    212.8125   1.0386479123e+02   2.2633215566e+01    0.4046606    0.2588915 -43.14  0.001478279    1.992    0.498
       134 -13.7310     64.2228    214.5781   1.0289884607e+02   2.1680481030e+01    0.6090733    0.3999271  56.73  0.003419126    1.468    0.319
       135 -12.0583     94.4744    218.1864   9.6197317269e+01   1.7022721341e+01    0.2570404    0.1661829  33.03  0.001123157    1.359    0.264
       136 -11.1146    156.6798    214.6698   8.1549532827e+01   8.6437443239e+00    0.1379491   0.09376225  -3.37 0.0007048473    1.691    0.409
       137 -10.4670    136.5317    211.4682   8.5533159833e+01   1.2250158774e+01    0.1352478    0.1180071  20.17     0.000166    1.003    0.003
       138 -11.4847     72.4003    207.2045   1.0018744774e+02   2.2236830651e+01    0.2825676    0.2300366  74.12  0.001699508    1.266    0.210
       139 -11.9302     41.0271    206.5249   1.0765004985e+02   2.6058050208e+01    0.2454064    0.1568666  75.86  0.001367438    1.587    0.370
       140 -10.6988     98.5316     27.3179   4.7475083857e+01   5.6513189397e+01    0.2483548    0.1173158  56.23  0.001062281    1.935    0.483
       141 -11.4499     30.5823     25.7151   7.4263925019e+01   6.9599751201e+01    0.3934006    0.2028135  17.41   0.00172177    2.165    0.538
       142 -11.4190     36.2354     23.4062   6.9987829178e+01   6.9200520956e+01    0.3276758     0.223553 -24.25  0.001890199    1.369    0.269
       143 -11.9417     57.4191    203.2386   1.0341588182e+02   2.4945515510e+01    0.4646457    0.2547349 -89.32  0.002203282    2.231    0.552
       144 -11.2249     51.5055     20.5635   6.0941404478e+01   6.7152442821e+01    0.2844193    0.1643015  38.09  0.001110091    1.583    0.368
       145 -12.3360    223.5087     20.8183   2.7136242750e+01   2.7868050135e+01    0.3164455    0.2413436  60.73  0.001482042    1.501    0.334
       146 -13.6762     15.2475    197.2773   1.1307128794e+02   3.0585803956e+01    0.9759897    0.4425222 -67.04  0.004971894    2.107    0.525
       147 -12.5379     22.4791    166.6953   1.0899366156e+02   3.7127184191e+01     0.269093    0.2357599  81.61 0.0003024512    1.011    0.011
       148 -13.4856     29.8327    169.4415   1.0723813672e+02   3.5797143664e+01    0.8587548    0.5197147 -38.07  0.003448988    2.105    0.525
       149 -13.4565    216.5158     28.4188   2.9420119792e+01   2.8483630989e+01    0.5200909    0.2991708 -55.44  0.002356329    1.583    0.368
       150 -15.6307      8.9665    179.3950   1.1348155078e+02   3.5186639911e+01     2.227491     1.237496 -75.46   0.01214979    1.620    0.383
       151 -13.0448     22.2448    181.1259   1.1024686039e+02   3.3684962568e+01    0.5749645    0.3563012 -70.98   0.00220251    1.514    0.339
       152 -12.9518     40.5021    195.4983   1.0684797174e+02   2.8576699200e+01    0.4199664    0.2135233  81.16   0.00191776    2.355    0.575
       153 -10.3896    123.4791     11.4742   3.5964961534e+01   5.2146853246e+01    0.1339527    0.1179646  62.11  0.000203912    1.011    0.011
       154 -12.5281     36.8376    195.2484   1.0773024175e+02   2.9014320089e+01    0.3359388    0.2274347  85.79  0.001912766    1.455    0.313
       155 -12.0011    164.3940    196.2131   7.6761203918e+01   1.0761999492e+01    0.1844586    0.1312125 -52.77 0.0009587542    1.729    0.422
       156 -12.2057    200.8556    191.7318   6.8405757628e+01   5.8792567163e+00     0.301527    0.2270035  -7.48   0.00132666    1.207    0.172
       157 -11.9246    155.8471    185.1493   7.6666184354e+01   1.4232238909e+01    0.2111464    0.1994312  42.02  0.001246664    1.229    0.186
       158 -11.4320     49.0733    182.1470   1.0336109171e+02   3.0748399329e+01    0.3322684    0.1909531 -65.84  0.001657897    1.700    0.412
       159 -12.3510    198.4105    181.6260   6.6965509876e+01   7.9341215987e+00    0.2738781    0.2473773  -0.69   0.00171862    1.139    0.122
       160 -12.2101    124.1345    167.1321   8.0966856845e+01   2.3385460913e+01     0.618238    0.3818626 -71.79  0.002489781    2.534    0.605
       161 -11.1450    177.4929    167.4884   6.8423018543e+01   1.3917699440e+01    0.1427812    0.1278287  -4.23 4.785938e-05    1.010    0.009
       162 -11.8878     24.9837    158.7023   1.0755262666e+02   3.8879231396e+01    0.3687086    0.2796043  20.16  0.002135333    1.484    0.326
       163 -11.7793     76.6956    156.8956   9.2218572648e+01   3.3389641222e+01    0.4056864    0.2853924  25.14  0.001264645    1.490    0.329
       164 -12.8207     73.2862    153.7822   9.2703243666e+01   3.4642598370e+01    0.6918114    0.4959002  24.35  0.002799586    1.474    0.321
       165 -12.2278      7.2805    146.5662   1.1156264349e+02   4.3249812746e+01    0.7147273    0.3231312 -60.37  0.003406415    1.956    0.489
