#   1 NUMBER                 Running object number                                     
#   2 MAG_AUTO               Kron-like elliptical aperture magnitude                    [mag]
#   3 X_IMAGE                Object position along x                                    [pixel]
#   4 Y_IMAGE                Object position along y                                    [pixel]
#   5 X_WORLD                Barycenter position along world x axis                     [deg]
#   6 Y_WORLD                Barycenter position along world y axis                     [deg]
#   7 A_WORLD                Profile RMS along major axis (world units)                 [deg]
#   8 B_WORLD                Profile RMS along minor axis (world units)                 [deg]
#   9 THETA_WORLD            Position angle (CCW/world-x)                               [deg]
#  10 FWHM_WORLD             FWHM assuming a gaussian core                              [deg]
#  11 ELONGATION             A_IMAGE/B_IMAGE                                           
#  12 ELLIPTICITY            1 - B_IMAGE/A_IMAGE                                       
         1 -14.5134     68.2804    144.7388   8.6248992414e+01   3.7480763838e+01     4.296792     2.053451  86.54   0.00804973    4.083    0.755
         2 -13.8504    234.0591     27.9573   2.0863682507e+01   2.2489459205e+01     1.825763     1.269292  23.20  0.002634461    2.042    0.510
         3 -13.9234    206.8785     48.5847   3.0055858645e+01   2.6760305200e+01      1.71641     1.423015  21.64  0.003919552    1.410    0.291
         4 -13.5608    215.5739     43.3296   2.7298382289e+01   2.5219993168e+01      1.41925    0.9796628 -33.49   0.00357726    1.447    0.309
         5 -11.5804      2.3885     21.4720   8.1567331360e+01   6.9504724128e+01    0.3868558    0.1332018 -62.04   0.00185469    2.866    0.651
         6 -11.9907      9.2947     13.2181   7.5477262086e+01   7.0552543039e+01    0.2712744    0.2362404  60.25  0.002080385    1.934    0.483
         7 -11.6037      2.2572     10.3205   7.7805930488e+01   7.1463986607e+01    0.3585231     0.152903 -43.28  0.002186006    1.634    0.388
         8 -11.0139      2.4429      3.3601   7.4969162722e+01   7.2604335422e+01     0.369801    0.1611072 -45.76  0.002280234    1.660    0.398
         9 -11.5079     12.7173      5.1438   7.0494670665e+01   7.1631845587e+01    0.1685269    0.1379543  23.35  0.001150594    1.607    0.378
        10  -8.9062    224.0157    207.0275   6.4262407261e+01  -1.9049034433e+00    0.1495069    0.1211621  25.82            0    1.010    0.010
        11 -11.2488    139.5209    249.3597   8.5157719850e+01   7.0056056826e+00    0.2885873    0.2380226  68.51  0.002172753    1.224    0.183
        12 -11.6080    128.2587    247.4244   8.6846688382e+01   9.0698901409e+00    0.3064283    0.1111641  46.24 0.0008705534    2.050    0.512
        13 -11.8072    115.8238    249.1658   8.9089971190e+01   1.0746502237e+01    0.3596409    0.1801744  39.29  0.002063171    1.906    0.475
        14 -13.1810     58.1150    169.6158   9.1657522294e+01   3.3442043768e+01     1.086161    0.7278346 -19.38  0.004957675    4.162    0.760
        15 -14.5523      5.5755    182.9716   1.0289390532e+02   3.6238938501e+01     7.322695    0.7477044 -77.57   0.01964046    9.871    0.899
        16 -14.9604      9.0390    207.5205   1.0363819362e+02   3.1350515739e+01     1.559552     0.745377 -75.11   0.01060497    1.816    0.449
        17 -16.3706     31.8498    183.3958   9.8142055021e+01   3.3648998946e+01     9.643868     3.430845  69.46   0.04022011    3.808    0.737
        18  -9.3898    157.9568    192.9613   7.4310123426e+01   1.2559294464e+01    0.1974128    0.1719523  60.34 0.0004562481    1.099    0.090
        19  -8.7072    195.6159    190.4886   6.6549845830e+01   5.6968971332e+00    0.1329999    0.1160498  31.82 7.317718e-05    1.029    0.029
        20  -9.4615     99.2902    181.1098   8.4491462248e+01   2.5192222326e+01    0.2010974    0.1623243  46.61 0.0005037181    1.264    0.209
        21 -12.9990    238.5764    172.0830   5.5082141851e+01   8.1707391894e-02      1.16497    0.7485643  34.04  0.004559299    1.420    0.296
        22 -11.0150    203.9083    200.1079   6.6694899993e+01   2.6972840788e+00      0.26084     0.160229  37.71  0.001391448    1.385    0.278
        23 -10.8001    111.0870    172.9140   8.0835060854e+01   2.4891545450e+01    0.3484986    0.1628546  52.38  0.001545502    2.053    0.513
        24 -13.6692     58.2820    153.6938   8.9751149058e+01   3.6807184817e+01    0.6378831    0.3803903 -62.33  0.001902217    1.557    0.358
        25 -10.1538     72.5327    204.4318   9.2395738155e+01   2.4629499973e+01    0.2675947    0.1666099 -89.61  0.001043667    1.538    0.350
        26 -10.5744    110.7444    167.7659   8.0115798828e+01   2.6001728904e+01    0.2499568    0.1998537 -88.90 0.0003605776    1.246    0.197
        27  -9.1273    191.9552    166.7630   6.2749719731e+01   1.0256753860e+01    0.2019791    0.1758447  38.38 0.0009146716    1.037    0.035
        28  -9.3839    174.7093    149.3498   6.2676118138e+01   1.7034833307e+01    0.2291005     0.176906  85.14 0.0008242659    1.749    0.428
        29 -10.1842    133.8209    145.2584   7.0895819595e+01   2.6417654906e+01    0.7689024    0.1751453 -55.01  0.001717548    7.416    0.865
        30 -13.5450     24.4314    196.6430   1.0042884738e+02   3.1853919737e+01    0.5891873    0.3710967  63.72  0.000985217    1.258    0.205
        31 -10.8128     44.9022    141.3739   9.1259431352e+01   4.1046827973e+01    0.2464048    0.1452371 -86.67  0.001008945    1.618    0.382
        32 -12.3189     82.8038    137.9621   8.1705343867e+01   3.6935382034e+01    0.2649539    0.2335737 -71.46 0.0003681342    1.092    0.084
        33 -11.0477    106.5713    130.3934   7.4431092315e+01   3.4748662560e+01    0.3768398    0.3333207   0.53   0.00116249    1.474    0.322
        34 -11.5806    243.1000    128.7141   4.4841053857e+01   5.5514428862e+00    0.4204611    0.2560212 -56.30  0.001783864    2.483    0.597
        35 -10.8644     96.4301    138.6190   7.8502072770e+01   3.4657377494e+01    0.5523064      0.38705 -17.02  0.002485014    2.701    0.630
        36 -12.0361     71.6179    158.6084   8.7415882524e+01   3.4008410018e+01     0.368548    0.2779546 -67.61 0.0004491319    1.264    0.209
        37  -9.0836    115.0196    123.9978   7.0972209486e+01   3.4617360849e+01    0.2249876    0.1828352  -4.80  0.001122415    1.731    0.422
        38  -9.8753    105.0960    118.4565   7.2292223237e+01   3.7650596986e+01    0.2124955    0.1841609 -48.54 0.0003684656    1.167    0.143
        39 -10.5743    231.2478    114.0950   4.3383038455e+01   1.0438220936e+01    0.3017966    0.2780971  -0.82 0.0008275182    1.049    0.047
        40  -9.0587     32.6845    115.3147   9.0810681841e+01   4.8019926654e+01    0.1217945   0.07947175  76.62 0.0004250164    1.644    0.392
        41 -11.2015    245.1720    112.1640   4.0597341418e+01   7.6490078253e+00    0.3850674    0.1888142  65.21  0.001425855    3.064    0.674
        42 -10.1541    205.2918    110.5810   4.7233349772e+01   1.7089474695e+01    0.3707632    0.2547395  36.06  0.001151137    1.540    0.351
        43  -9.4692     95.1289    110.8165   7.3231736437e+01   4.1064779324e+01    0.3663353    0.1730123  50.21  0.001492764    2.394    0.582
        44 -11.1470    191.7775    192.6930   6.7674333726e+01   6.1014347132e+00    0.6991062    0.3846288 -66.59  0.002256929    5.784    0.827
        45  -9.8759     67.5485    104.3003   7.9434206818e+01   4.6639711908e+01    0.2339687    0.2111088 -51.33 0.0005645241    1.118    0.105
        46  -9.8591     19.7944    102.5223   9.2432238916e+01   5.1901586520e+01    0.3211519    0.1467483  53.78  0.001622722    2.789    0.641
        47 -10.5667    241.1968    102.3694   3.8859011142e+01   1.0047444533e+01    0.1998115    0.1409159  66.96 0.0009518248    1.695    0.410
        48 -11.2215     53.5291     92.0497   8.0948343521e+01   5.1082594023e+01     0.479725    0.2177479 -65.81  0.001769836    2.181    0.541
        49 -10.0001    241.6749     91.3369   3.6053866941e+01   1.1648531030e+01    0.1516896    0.1094412 -63.15 0.0007051355    1.720    0.419
        50 -10.0456     42.4385     89.0267   8.3655495771e+01   5.2921528196e+01    0.2061692    0.1610586  60.00 0.0006341678    1.512    0.339
        51  -8.3753    217.2749     87.6917   3.9090743056e+01   1.8054874744e+01    0.1516163    0.1161956 -64.40 0.0001849082    1.550    0.355
        52  -9.4476    234.2946     86.6672   3.6022814575e+01   1.4097327031e+01     0.152013    0.1107421 -61.89 0.0003853445    1.639    0.390
        53 -10.1037    162.5421     85.1721   4.9262432943e+01   3.2227439745e+01    0.2953536    0.2332178  -0.01 0.0009622008    1.575    0.365
        54  -9.2548    184.6544     77.4450   4.2314760247e+01   2.8034683835e+01    0.2538657    0.1929458  -2.58 0.0006207323    1.649    0.394
        55 -10.6302     59.7741     75.3370   7.5111917715e+01   5.3979037381e+01    0.2535365    0.1617665 -55.03 0.0007119531    1.377    0.274
        56 -12.8422     79.5551    152.3944   8.4753222073e+01   3.4234239381e+01    0.8752078     0.558051 -43.36  0.002378347    2.035    0.509
        57  -8.8398     52.2833     73.6512   7.7111660184e+01   5.5217256577e+01    0.1234712   0.09486371 -87.46 0.0007017066    1.650    0.394
        58 -10.6574    124.2636    203.5755   8.2479913813e+01   1.6785174510e+01    0.3768717    0.2188923 -76.51  0.001886167    2.341    0.573
        59 -13.7574     55.7315    234.9332   9.7751277733e+01   2.1421298599e+01    0.9461946    0.4549146 -89.94  0.005213851    2.125    0.529
        60 -13.0646     15.8456    248.9797   1.0451845411e+02   2.3667875127e+01    0.2335584    0.1435677  77.49  0.001003801    1.155    0.134
        61 -12.7629    224.1448     36.0060   2.4157112687e+01   2.3982502429e+01    0.7148031    0.5034965  43.74  0.001129183    1.585    0.369
        62 -11.1057      2.1030     60.4026   9.1071033477e+01   6.1946729218e+01    0.4900872   0.03162225 -66.34  0.001330539    7.395    0.865
        63 -11.3287     13.4480     60.3609   8.7162312418e+01   6.1340796866e+01    0.2719624     0.180048 -66.99 0.0004374596    1.278    0.217
        64 -11.0573      2.0008     51.2497   8.9330023629e+01   6.3812277146e+01    0.2836827   0.09279613 -59.99  0.001464675    2.043    0.510
        65  -9.2745     26.8209     51.8562   8.0341769091e+01   6.2144633675e+01    0.1682581    0.1257391 -43.39 0.0002733303    1.085    0.079
        66  -9.9589    187.9516     31.4964   2.8002286801e+01   3.4094958081e+01    0.2315881    0.1412149  65.21 0.0007967211    1.559    0.359
        67 -11.6632      8.4655     26.0531   8.0299464786e+01   6.8341623204e+01    0.2825138    0.1960594  44.89  0.001924126    2.196    0.545
        68 -10.1724    198.1131     23.8848   2.4230945581e+01   3.2314687209e+01     0.319735    0.2398427  -1.25  0.001088766    1.657    0.397
        69  -9.2835    169.0966    236.1426   7.8500376516e+01   3.9209071360e+00    0.1690365    0.1355185  33.76 0.0003995684    1.200    0.167
        70 -11.6405     29.7897    219.6296   1.0095453007e+02   2.7087338899e+01    0.6893717    0.2501606  62.83  0.003791824    2.382    0.580
        71  -9.3943    189.5007     15.0833   2.2821439466e+01   3.5611457198e+01    0.2069828    0.1445016 -25.46 0.0008302962    1.552    0.356
        72  -9.9703     25.3884    213.7910   1.0132661195e+02   2.8595473627e+01    0.2052974    0.1559395  64.84  0.001138754    1.215    0.177
        73 -15.9502      9.8253    243.0571   1.0512577267e+02   2.5218572940e+01     4.943116     1.570719  32.80   0.02122745    6.583    0.848
