#   1 NUMBER                 Running object number                                     
#   2 MAG_AUTO               Kron-like elliptical aperture magnitude                    [mag]
#   3 X_IMAGE                Object position along x                                    [pixel]
#   4 Y_IMAGE                Object position along y                                    [pixel]
#   5 X_WORLD                Barycenter position along world x axis                     [deg]
#   6 Y_WORLD                Barycenter position along world y axis                     [deg]
#   7 A_WORLD                Profile RMS along major axis (world units)                 [deg]
#   8 B_WORLD                Profile RMS along minor axis (world units)                 [deg]
#   9 THETA_WORLD            Position angle (CCW/world-x)                               [deg]
#  10 FWHM_WORLD             FWHM assuming a gaussian core                              [deg]
#  11 ELONGATION             A_IMAGE/B_IMAGE                                           
#  12 ELLIPTICITY            1 - B_IMAGE/A_IMAGE                                       
         1 -14.3268      4.9900     47.6844   1.0262042878e+02   6.7525034697e+01     3.157152    0.5084046 -43.27   0.01033539    4.247    0.765
         2 -14.1021    233.5123     28.1305   3.4215896047e+01   2.5358544325e+01    0.9193248    0.8355959  73.92  0.001704702    1.338    0.253
         3 -13.1604     34.1460     20.5436   7.5037961053e+01   6.9686688293e+01    0.8733191    0.3888361 -35.74  0.004174342    2.237    0.553
         4 -12.3157     41.2457     20.9223   7.1523858391e+01   6.8546036509e+01    0.3989526    0.2769607  -8.12  0.002290102    1.472    0.321
         5 -13.6976      3.2310     36.7790   1.0038689751e+02   6.9922954261e+01     1.218631     0.575429 -38.41  0.005613666    1.754    0.430
         6 -12.6602    107.0451     16.1225   4.6986305981e+01   5.5467931236e+01    0.9090335     0.601584 -20.01  0.004890291    1.740    0.425
         7 -12.2757    120.5031      9.1982   4.1887556094e+01   5.2892288921e+01    0.3423386    0.3317972  80.26  0.002288822    1.114    0.102
         8 -12.7748    113.4028      3.0430   4.0920198850e+01   5.5118546037e+01     1.327369    0.3016469  66.84  0.004496217    3.589    0.721
         9 -11.2830     51.1742     19.9758   6.6358033263e+01   6.6994787854e+01    0.3522456    0.2646308 -11.03  0.002102675    1.328    0.247
        10 -12.5579    218.0164      5.2971   3.0521195714e+01   3.0898023529e+01    0.5469089    0.2910301 -66.55  0.003182971    1.682    0.405
        11 -13.1251    206.3058      8.3091   3.1981710827e+01   3.3030299376e+01    0.5471568    0.2817711 -88.56  0.002966629    1.895    0.472
        12 -12.0409      3.2836      4.9757   8.6681678671e+01   7.5728227911e+01    0.6078863    0.2177563 -37.45  0.002948756    2.470    0.595
        13 -12.0201    184.7920      6.9184   3.3368861513e+01   3.7868560009e+01    0.4589976    0.2948518 -19.63  0.002638163    1.951    0.488
        14 -11.8976    243.0477      4.8677   2.8976387707e+01   2.6070364806e+01    0.6878324    0.3019974 -75.14  0.003764439    2.287    0.563
        15 -12.4798    128.5240      4.9814   3.9181857958e+01   5.1317513088e+01    0.6912783    0.4387155  89.79  0.003688201    1.631    0.387
        16 -12.4319    177.0731      5.0826   3.3591218058e+01   3.9791801244e+01    0.5055871    0.3099563 -71.18   0.00286065    1.561    0.360
        17 -12.4879    190.2197     16.1119   3.5136203148e+01   3.5731164198e+01    0.4570376    0.2870863  86.02  0.002621183    1.489    0.328
        18 -11.5227    191.7878      2.4418   3.1718235909e+01   3.6733614802e+01    0.3221559    0.1971139 -85.38  0.001464141    1.473    0.321
        19 -10.5593     63.7392    163.8159   1.0226858148e+02   3.3117519533e+01    0.2332198    0.2186882  48.95 0.0003906951    1.056    0.053
        20  -9.9686     61.4176    250.2270   1.1202113381e+02   1.4193053417e+01    0.1517345    0.1049023  80.15 0.0007344214    1.606    0.377
        21 -11.1428     46.2442    250.1817   1.1519828728e+02   1.5906640281e+01    0.3440548    0.1325167  34.44  0.001590431    2.031    0.508
        22 -13.1513     27.2483    243.7031   1.1874312262e+02   1.9134295843e+01     1.104624    0.7074648  66.83  0.006215604    1.396    0.284
        23 -11.6653     42.8288    180.6807   1.1025458276e+02   3.1413604916e+01    0.3777872    0.2481448 -52.89   0.00057463    1.610    0.379
        24 -14.7859      5.7532    126.0397   1.1564073937e+02   4.8451263659e+01     5.627943    0.9988526 -78.61   0.01365718    6.852    0.854
        25 -13.4689     12.8262    239.3457   1.2148201439e+02   2.1368906141e+01     1.725766    0.5911323 -86.50  0.007978937    3.137    0.681
        26 -14.6298      3.9005    235.5870   1.2313387980e+02   2.2907525082e+01     7.013296    0.3414526 -78.31   0.01650552   12.316    0.919
        27 -14.0072     17.3411    219.8726   1.1955161705e+02   2.4954522245e+01     1.630774    0.6801709  78.07  0.007499817    2.662    0.624
        28 -14.7559     29.4881    189.6100   1.1459789591e+02   3.0634888211e+01     2.422424     1.553107  79.46    0.0130991    1.543    0.352
        29 -14.8605     14.8386    201.7255   1.1906941645e+02   2.9174300984e+01     1.212935    0.7060773  61.97   0.00517169    1.555    0.357
        30 -12.8963     48.7864    160.3248   1.0617672230e+02   3.5834069016e+01     0.539005    0.3129216 -35.85  0.001528544    2.212    0.548
        31  -9.7284    133.3074    160.2737   8.2326054774e+01   2.2895135117e+01    0.1934143    0.1739462  85.43 0.0006179175    1.344    0.256
        32 -11.5206     72.6212    157.1247   9.8618198976e+01   3.3602187427e+01    0.5097836    0.3974231 -16.85  0.002539114    1.576    0.365
        33 -10.9900     30.8737    151.5052   1.1045639595e+02   3.9966398679e+01    0.3393794    0.1766994  48.81  0.001367333    2.006    0.501
        34 -12.0463     67.9932    143.4612   9.7699049515e+01   3.7724405876e+01    0.7270868    0.4111511  58.06   0.00284964    2.298    0.565
        35 -12.9818     31.0232    142.2033   1.0927383870e+02   4.2353678938e+01    0.8593081     0.547725  43.82  0.003122346    1.619    0.382
        36 -11.5869     76.6036    141.8940   9.4716456940e+01   3.6882090166e+01    0.2873828    0.2577715 -52.25 0.0003595731    1.098    0.090
        37  -9.8777     89.0148    143.9944   9.1320469712e+01   3.4423348074e+01    0.2329719    0.2285837 -36.48 0.0007154144    1.019    0.019
        38 -10.4918     90.0168    128.2328   8.7687812018e+01   3.8165877023e+01    0.2816961    0.2483441  -9.17 0.0005168403    1.234    0.189
        39 -10.3454    105.4469    131.1746   8.3664125095e+01   3.4729180159e+01    0.3146192     0.286348 -31.54 0.0008714527    1.108    0.097
        40  -9.3036    102.8330    119.8389   8.1757644869e+01   3.7909261508e+01    0.1979003    0.1793658  76.57  0.000247262    1.248    0.198
        41 -11.9223     79.3418    118.1451   8.8837992743e+01   4.2429965571e+01    0.4841964    0.3361701 -45.45  0.002250221    1.414    0.293
        42 -10.3126     64.6693    117.5220   9.3701936954e+01   4.4818814532e+01        0.285    0.2443027 -65.05  0.001498748    1.167    0.143
        43 -11.3621     15.3935    108.2731   1.1003373088e+02   5.2397344401e+01    0.4437412    0.2026898  39.02  0.001949774    2.413    0.586
        44 -12.3990     17.7866    103.2283   1.0834692833e+02   5.3516313475e+01    0.7098384    0.3680336   6.55  0.003182484    2.337    0.572
        45 -11.4565     79.9306    104.9961   8.5417698896e+01   4.5536591629e+01    0.4418353    0.3014537 -61.14  0.002004556    1.586    0.369
        46 -11.0022     41.8405    104.9022   9.9355007100e+01   5.0908630465e+01    0.4851404    0.3508213 -52.49  0.001917274    1.261    0.207
        47 -10.8228     40.9812     99.7683   9.8598951978e+01   5.2295312400e+01    0.4141658    0.3097739  -6.22  0.001762103    1.514    0.340
        48 -11.5690     70.2288    106.7922   8.9265364011e+01   4.6669368175e+01    0.3546558    0.2781153  56.33  0.001745594    1.479    0.324
        49 -11.8653     55.2825     97.9336   9.2610922690e+01   5.1001919045e+01    0.5249209    0.4277445 -42.31  0.002789098    1.158    0.137
        50 -12.0428     64.4799     95.2947   8.8441054257e+01   5.0328558898e+01    0.5041495    0.3099454 -54.27  0.002280654    1.587    0.370
        51 -11.7467     41.7527     91.4091   9.6387313566e+01   5.4277446617e+01    0.7346025    0.4553254 -73.04  0.003253176    1.897    0.473
        52 -11.7118     23.7214     90.1351   1.0358601414e+02   5.6351821276e+01    0.8294405    0.4580684 -43.74  0.003980695    1.657    0.397
        53 -10.4913     11.5444     90.8627   1.0881247143e+02   5.7040205601e+01     0.425653    0.2587376 -21.12  0.002166762    1.830    0.454
        54 -12.7343     75.2878     82.7195   8.0833015581e+01   5.1464147409e+01    0.9385482    0.9351773   5.04  0.005398596    1.103    0.093
        55 -12.3759     58.2078     83.6718   8.7680904289e+01   5.3985506438e+01    0.5645832    0.4262445 -17.93  0.002850353    1.447    0.309
        56 -11.2748     45.1373     82.7592   9.2794445359e+01   5.5954556505e+01    0.5162224    0.2961741  17.61  0.002143047    1.953    0.488
        57 -13.0229     21.4137     73.5930   1.0095524659e+02   6.0539097961e+01     1.092887    0.9114233 -39.59  0.005737898    1.043    0.041
        58 -12.3742     17.9620     61.3648   9.9497288782e+01   6.3630765540e+01    0.6163455     0.483479  30.37  0.003691833    1.451    0.311
        59 -12.3041      3.3677     69.7136   1.0860143921e+02   6.2614402047e+01     1.177462    0.4723091 -75.77  0.004083836    2.718    0.632
        60 -12.1034     62.5159     73.9989   8.3039607580e+01   5.5493728785e+01    0.8329103    0.4856857   9.75  0.003319554    2.551    0.608
        61 -11.0665    242.1544    247.8424   7.5508247852e+01  -7.6429132988e+00    0.1624085    0.0986136  -4.36  0.001093797    1.348    0.258
        62 -11.8931     87.7013     42.5702   6.2425066603e+01   5.6578172102e+01    0.8274841    0.5540778  -6.81  0.003908696    1.968    0.492
        63 -11.9544     30.8937     40.7513   8.5878795167e+01   6.6667753831e+01    0.6781162    0.3783146  24.94  0.002977804    1.772    0.436
        64 -12.0958    159.5262    245.4260   9.0564543295e+01   2.4411082056e+00    0.3777777    0.2683351  20.35  0.001757529    1.163    0.140
        65 -10.7659     44.8171     27.0851   7.2751669600e+01   6.7060494621e+01    0.2634965    0.1523048  14.76  0.001243603    2.125    0.529
        66 -10.0029    132.3149    247.3142   9.6510305128e+01   5.7359183257e+00    0.1244599   0.08723724  -1.82 0.0004840003    1.642    0.391
        67 -12.8532     73.6658    220.1001   1.0658466667e+02   1.8702182771e+01    0.8735744    0.4972443  37.10  0.003655253    1.515    0.340
        68 -11.6860     61.4609    227.1678   1.1010796993e+02   1.8726926760e+01    0.6039294    0.3115672  53.50  0.002022269    1.887    0.470
        69 -12.8987     63.5360    217.6216   1.0873604306e+02   2.0490266132e+01     1.129779    0.6648409  87.32  0.005635403    2.103    0.525
        70 -11.8839     84.2472    229.9897   1.0515657603e+02   1.5313684232e+01     0.380608     0.292695  72.90   0.00134182    1.459    0.315
        71 -14.6493     96.0630    224.9000   1.0186111523e+02   1.4766962271e+01     2.233245    0.8286995  36.02  0.009435093    2.232    0.552
        72 -11.5492    114.7288    218.7334   9.6726968288e+01   1.3393411131e+01    0.3877938     0.327819  62.01  0.001977572    1.350    0.259
        73 -13.0930      9.3020    207.3374   1.2067564374e+02   2.8392932237e+01    0.3334774    0.2629562 -48.70  0.001111974    1.577    0.366
        74 -10.9193     83.1615    209.1477   1.0307012481e+02   1.9808274720e+01    0.3433971    0.3009798 -36.12  0.001647889    1.307    0.235
        75 -10.5008     87.4475    204.7550   1.0146703237e+02   2.0184612479e+01    0.3758644    0.2413659  26.26  0.001388292    1.526    0.345
        76 -10.7735     69.8446    207.6363   1.0617647303e+02   2.1886934802e+01     0.409624    0.2234466  34.95  0.001458074    1.635    0.388
        77 -11.8084     54.6097    199.6279   1.0913326605e+02   2.5572170568e+01    0.5144513    0.3619728  32.65  0.002051465    1.356    0.263
        78 -11.3375     50.9344    196.3283   1.0973215396e+02   2.6766031606e+01    0.3880056    0.3168152 -37.47  0.001295566    1.476    0.323
        79  -9.5757     88.7742    196.5604   1.0005433231e+02   2.1825604283e+01    0.2068845    0.1152754  42.58 0.0009458739    1.678    0.404
        80 -11.6383     50.7476    173.9760   1.0732718714e+02   3.2174525182e+01     0.268927    0.2470272 -39.24 0.0004097614    1.215    0.177
