#   1 NUMBER                 Running object number                                     
#   2 MAG_AUTO               Kron-like elliptical aperture magnitude                    [mag]
#   3 X_IMAGE                Object position along x                                    [pixel]
#   4 Y_IMAGE                Object position along y                                    [pixel]
#   5 X_WORLD                Barycenter position along world x axis                     [deg]
#   6 Y_WORLD                Barycenter position along world y axis                     [deg]
#   7 A_WORLD                Profile RMS along major axis (world units)                 [deg]
#   8 B_WORLD                Profile RMS along minor axis (world units)                 [deg]
#   9 THETA_WORLD            Position angle (CCW/world-x)                               [deg]
#  10 FWHM_WORLD             FWHM assuming a gaussian core                              [deg]
#  11 ELONGATION             A_IMAGE/B_IMAGE                                           
#  12 ELLIPTICITY            1 - B_IMAGE/A_IMAGE                                       
         1 -11.5516     83.7567     50.1112   5.6089355838e+01   5.7022356347e+01      1.40931    0.6372686 -26.94  0.004536006    3.359    0.702
         2 -11.7319    154.9124     36.0604   3.3675679534e+01   4.1512424047e+01     1.342903    0.8304886 -87.35   0.00596269    1.995    0.499
         3 -10.2760      1.8244     21.2425   9.0390694677e+01   7.5671027965e+01     0.417386     0.146124 -60.50  0.001795646    2.257    0.557
         4 -10.9089     15.9440      4.4064   6.7131031523e+01   7.7839968917e+01    0.7550798     0.566743  63.49  0.004085593    2.269    0.559
         5 -11.5006     16.1668     24.8068   7.9998301604e+01   7.3730281729e+01     1.011034    0.5669127  29.50  0.002755336    1.893    0.472
         6  -9.8791     23.5675      6.6947   6.2497015121e+01   7.6339876296e+01    0.4415494    0.3056269 -27.01  0.001134589    1.372    0.271
         7 -11.2210     30.5670     29.4465   7.2029449059e+01   7.1000109942e+01    0.8315307     0.351179 -54.10  0.001918328    2.428    0.588
         8 -10.9436      7.3593     21.5231   8.5665767493e+01   7.5242433400e+01    0.5233747    0.3157088 -45.92  0.002184181    1.416    0.294
         9 -12.0307     34.9200      5.1418   5.3236506560e+01   7.4619662626e+01      1.03225    0.7440425   1.50  0.005652856    1.500    0.333
        10  -9.8724     39.6797      9.0873   5.3388126346e+01   7.3150134933e+01    0.2677832    0.1780975 -27.26 0.0003433538    1.473    0.321
        11 -12.4726     15.5327     13.9801   7.4444349680e+01   7.6083821922e+01    0.7749839    0.3225966  23.52 0.0009755733    2.722    0.633
        12 -10.5812     24.6072     13.2402   6.6550683457e+01   7.5038534760e+01    0.3138799    0.2265986 -26.80 0.0005524044    1.319    0.242
        13 -10.2712      8.2321      8.7748   7.7806985196e+01   7.7910313751e+01    0.2930879    0.2008332 -29.01 0.0003803777    1.348    0.258
        14 -12.0172      4.0656      4.0937   7.8927800101e+01   7.9242868045e+01    0.5336553    0.4644338  17.30  0.003570517    1.261    0.207
        15 -11.7406     54.3914     34.9020   6.1286058459e+01   6.5977797123e+01    0.7431709    0.2968912 -48.29  0.002714077    2.722    0.633
        16 -10.7983     34.8261     27.2092   6.8088106904e+01   7.0837555593e+01    0.4884434    0.3711126 -33.76  0.001197579    1.237    0.192
        17 -10.6173    179.0591     21.3369   2.6019249646e+01   3.7179928870e+01     0.507636    0.2402046 -46.18   0.00226204    1.942    0.485
        18 -11.2699    193.0344     17.5720   2.3688858420e+01   3.4249348281e+01    0.3422479    0.2938651  34.82  0.001616649    1.400    0.286
        19 -11.4462    132.0766     29.6877   3.5068359982e+01   4.8185976655e+01      0.40898    0.3036161 -32.32            0    1.331    0.249
        20 -10.8106     28.9748     18.7498   6.6996518806e+01   7.3367885697e+01    0.6330216    0.5025843 -11.89  0.003650717    1.260    0.206
        21  -8.8510     71.2755      7.2320   3.8455986470e+01   6.6382249627e+01    0.3825719    0.2512638 -71.76    0.0017359    2.219    0.549
        22 -11.5667     66.3185     22.5414   4.9262281257e+01   6.5609572794e+01    0.5570273    0.4220148 -16.53 0.0001393865    1.385    0.278
        23 -10.1535     71.9691     26.0513   4.9001367062e+01   6.3805113167e+01    0.8288923    0.3643161  33.48  0.002729919    3.488    0.713
        24 -10.3137     75.0152     20.3130   4.4793248443e+01   6.3917252603e+01    0.4655149    0.2416004 -38.72  0.001352626    1.979    0.495
        25  -9.8253     76.0158     13.3621   4.0573491217e+01   6.4550214845e+01    0.3983271    0.2644173  -7.23  0.001259422    1.719    0.418
        26 -11.2822    100.5097     15.9106   3.5422356423e+01   5.8060222474e+01     1.205079    0.7999132 -62.88  0.005580572    1.827    0.453
        27  -9.1441     98.0489      7.4878   3.1836868443e+01   5.9546743578e+01    0.2720505    0.2329366  43.98 0.0008727057    1.141    0.123
        28 -10.3014     90.8654      9.7351   3.4547808945e+01   6.1202751449e+01    0.5731751    0.3616983  59.10  0.002765831    1.470    0.320
        29 -11.1953     89.0898      3.1939   3.1491883792e+01   6.2261925237e+01    0.5080498    0.3496419  79.60  0.001237412    1.507    0.337
        30 -11.3167    112.0888     15.1203   3.2689721419e+01   5.5102697326e+01    0.2786618    0.2586243 -11.38  0.001586121    1.133    0.118
        31  -9.9177     51.2577     22.6462   5.6095495665e+01   6.8776646467e+01    0.4445904     0.223003 -38.62  0.001203796    1.962    0.490
        32  -9.0589     63.2691     10.5930   4.3306556448e+01   6.7911791597e+01    0.2387822    0.1626869 -47.46 0.0009486651    1.719    0.418
        33 -11.8438     55.6623     19.3516   5.1976587273e+01   6.8403354409e+01    0.4445604    0.3124787 -17.09   0.00224611    1.526    0.345
        34 -11.2986     58.1269     12.7409   4.6737832778e+01   6.8808666315e+01    0.6338019    0.3310698  55.49  0.001793436    1.922    0.480
        35 -10.0516    245.5257     13.6099   1.9439739175e+01   2.3641451448e+01    0.3653116    0.1689094  81.96  0.001749094    2.531    0.605
        36 -11.8680    238.6108     19.3798   2.1133735429e+01   2.4411209490e+01      0.65811    0.4549742 -52.08  0.001846994    1.245    0.197
        37 -10.7471    226.8067     18.0832   2.1502008802e+01   2.6864894872e+01    0.3532361    0.2749158  14.55  0.001376392    1.679    0.404
        38 -10.1811    164.8367     22.0946   2.7731835996e+01   4.0607274509e+01     0.407508    0.2824749  30.38  0.002024331    1.808    0.447
        39  -9.7237    153.6295      3.4188   2.2567108292e+01   4.5208456747e+01    0.4920272    0.2530571  36.71  0.002085855    2.534    0.605
        40 -11.4401    151.6578     17.6943   2.7767753167e+01   4.4418301928e+01    0.6806132    0.4214802  44.24  0.003220464    1.814    0.449
        41 -10.4417    149.1796     12.0372   2.6052558880e+01   4.5608726871e+01     0.259635    0.2174096  66.85 0.0002348558    1.192    0.161
        42 -10.1320    156.5437     10.0433   2.4575177717e+01   4.3891129804e+01    0.3168817    0.1919809 -45.67 0.0008175484    1.555    0.357
        43 -10.3708    153.1841      9.7944   2.4829886195e+01   4.4777319490e+01    0.2761004    0.2444623 -76.17 0.0003010945    1.065    0.061
        44  -9.7233     88.0122     18.8637   4.0002185914e+01   6.0922167871e+01    0.6071382    0.2286817 -44.65  0.002071854    3.186    0.686
        45 -10.6571     81.0304     19.3830   4.2324728943e+01   6.2588920392e+01    0.3904709    0.2274815 -36.06  0.001771657    1.740    0.425
        46 -10.8142     40.0843     16.5586   5.8374639506e+01   7.1910542458e+01    0.5817153     0.318005  42.23  0.002048279    1.846    0.458
        47 -11.6768     45.9641      9.3852   5.0158408211e+01   7.1857779234e+01      0.34878    0.2777301  -3.31 0.0002777878    1.261    0.207
        48 -10.2819    189.1229      8.1015   2.1256378500e+01   3.6045978217e+01    0.4839508    0.3352361 -56.87  0.002506031    1.309    0.236
        49  -9.6560    176.2567     12.2433   2.3479662387e+01   3.8750834893e+01    0.2823695    0.2221108 -31.24  0.000305532    1.213    0.176
        50 -12.5453    187.1170     13.6822   2.3029336296e+01   3.6006802030e+01    0.3012013    0.2522896 -60.69 0.0003872607    1.085    0.079
        51 -12.1209    182.2045     12.1768   2.2970841893e+01   3.7317241401e+01     0.425517     0.363791 -17.41  0.001459964    1.242    0.195
        52  -9.3513    126.2754     14.9683   3.0203634107e+01   5.1356188954e+01    0.2484426    0.2022127 -35.67 0.0006816567    1.232    0.189
        53 -10.0984    136.2410      1.5204   2.3571417945e+01   4.9898316171e+01    0.6000899    0.2112403  74.68  0.002241801    2.654    0.623
        54 -10.3593    131.2058     13.1856   2.8755236966e+01   5.0223116844e+01    0.3516179    0.2588543  84.82 0.0009891258    1.361    0.265
        55 -11.9136    128.2842      4.7793   2.5777957614e+01   5.1748477990e+01    0.5442843    0.4290957 -89.21  0.002410569    1.238    0.192
        56  -9.8125    143.6967     12.2854   2.6779830321e+01   4.7015545567e+01    0.3986512    0.2381393 -10.22  0.001034199    1.935    0.483
        57 -11.7683    123.0935     11.1660   2.9124424462e+01   5.2569339460e+01     0.651074    0.3037056  51.46  0.001399148    2.096    0.523
        58 -11.3215    208.8420     10.2993   2.0593142547e+01   3.1378027242e+01    0.5719533    0.3734224  29.42  0.001058039    2.162    0.537
        59 -11.2480    216.1917      7.6561   1.9487096105e+01   3.0033100615e+01    0.3132954    0.2644982 -30.58 0.0003919161    1.149    0.130
        60 -10.6952    218.3030      2.9568   1.8186750136e+01   2.9997455053e+01    0.2723508    0.2258068 -36.31 0.0008170474    1.106    0.096
        61  -8.2932    108.0000     10.9929   3.1584209411e+01   5.6595513275e+01    0.2254502   0.08184285 -20.96 0.0007931477    2.878    0.653
        62 -10.1778    116.6592      8.6200   2.9035136497e+01   5.4515813313e+01    0.2910924    0.2152005 -74.01 0.0006612953    1.448    0.309
        63  -8.8344    111.0680      7.5611   2.9474022128e+01   5.6098283738e+01    0.2879017    0.1927513 -85.02 0.0009960951    1.645    0.392
        64 -10.9590    104.8432      7.3836   3.0480192041e+01   5.7765556157e+01    0.3951506    0.2404393  50.59 0.0003699948    1.573    0.364
        65 -10.2315    106.7074      2.9815   2.8082263647e+01   5.7643777108e+01    0.7483433    0.3248967 -87.35  0.002587961    3.290    0.696
        66  -9.7643    238.1377      6.9576   1.8245277941e+01   2.5644661384e+01    0.3144803    0.1549266 -52.04 0.0009475291    1.698    0.411
        67 -10.9086    167.6928      6.3290   2.2329606546e+01   4.1396330539e+01    0.4072868    0.3179356 -29.80 0.0008975552    1.249    0.200
        68  -9.2533    170.3421      2.7077   2.0966246767e+01   4.1041630785e+01    0.2398742    0.1489096 -33.41 0.0006949411    1.481    0.325
        69  -9.9745     78.0074      6.1483   3.5837949319e+01   6.4825817752e+01    0.3156001     0.275697 -73.42  0.001184624    1.297    0.229
        70  -8.6853    225.4610      6.5257   1.8730225951e+01   2.8202949445e+01    0.1261322   0.09338788 -48.12 0.0008069098    1.099    0.090
        71  -9.5940    204.8729      3.3974   1.8983037119e+01   3.2861288145e+01    0.3212559    0.1889319  52.36 0.0009447949    2.049    0.512
        72 -10.0643    199.8240      4.6232   1.9598142291e+01   3.3886060394e+01     0.467599    0.1839571 -59.33  0.001998628    2.569    0.611
        73 -10.2689    194.0938      2.0598   1.9218641177e+01   3.5411078811e+01     0.534152    0.1812527  78.99  0.002178519    3.003    0.667
        74  -9.9104    176.2293      3.6211   2.0823926364e+01   3.9518827039e+01    0.3668003     0.204479 -41.18 0.0007833589    1.583    0.368
        75  -8.7804    185.2669      4.5955   2.0495148865e+01   3.7261575937e+01    0.1632495    0.1162712  67.98 0.0002749415    1.473    0.321
        76 -10.0481     48.9604      3.0166   4.4051169339e+01   7.2016315602e+01    0.3337488    0.2601434 -72.20  0.001187305    1.836    0.455
        77 -10.1475    245.3441      1.6526   1.6734513092e+01   2.4733110083e+01    0.3933898    0.1525522  84.61  0.001987689    2.947    0.661
        78  -9.2135    229.9703      2.0511   1.7439072665e+01   2.7678896623e+01    0.1768122    0.1385996 -46.32 0.0003294279    1.013    0.012
        79  -9.1133    119.7741      1.8940   2.5673961712e+01   5.4246097185e+01    0.2618586    0.1941073 -77.60    0.0013649    1.382    0.277
        80  -8.7043    114.9359      1.0000   2.5939976624e+01   5.5605423645e+01    0.3152237   0.07554226  73.79 0.0009302843    3.928    0.745
        81  -8.4863     64.5269      1.7543   3.7146380060e+01   6.8557544947e+01    0.2195224     0.200575  72.32 0.0009107859    1.174    0.148
        82  -8.7631     61.2726      1.3111   3.7940442384e+01   6.9377348760e+01    0.1805177    0.1298395  74.35 0.0004214743    1.560    0.359
        83  -9.5802    120.9722    101.8647   6.2058573350e+01   3.8346091547e+01    0.2449431    0.2130595 -41.60 0.0003685569    1.139    0.122
        84 -10.9787    118.1552     97.9744   6.1743911365e+01   3.9749898090e+01    0.5721469     0.423863  10.00   0.00239763    1.818    0.450
        85  -9.1227    112.4993    101.4617   6.4293534143e+01   4.0182210609e+01    0.1499147    0.1486148 -12.28  1.56093e-06    1.006    0.006
        86  -9.8638     68.1268     99.3404   7.8170263432e+01   4.8866169926e+01    0.3091578    0.2319408  -0.44  0.001384955    1.775    0.437
        87 -10.4370    108.5320     96.3707   6.4020216705e+01   4.2097697353e+01    0.5193574    0.2593423  49.63  0.001991581    2.139    0.532
        88 -11.1236    112.0251     81.9169   5.8666011230e+01   4.4404430226e+01    0.7188298    0.3846293  40.64   0.00193519    1.979    0.495
        89 -12.0336    111.0229     65.8517   5.3559445915e+01   4.7801485062e+01    0.3586123    0.2996083  33.91 0.0003295832    1.268    0.211
        90 -10.1801    109.0816     60.2895   5.2092550080e+01   4.9293744080e+01    0.5541182    0.2550217 -36.16  0.001804445    2.181    0.542
        91  -8.9668    104.8081     57.9370   5.2437520461e+01   5.0734935551e+01    0.5065892    0.3224204 -22.78  0.002127579    1.894    0.472
        92 -10.2350    101.0076     89.4752   6.4281530887e+01   4.5152727622e+01    0.4069702    0.2979058 -28.83 0.0006005898    1.547    0.353
        93 -12.0869    103.4788     80.1436   6.0624837062e+01   4.6639018866e+01      1.50163    0.6129938 -42.21  0.004981843    2.436    0.590
        94  -9.4517     39.1441     98.8867   8.9231099202e+01   5.2912726105e+01    0.2269161    0.1841428  67.72 0.0006947661    1.278    0.218
        95  -9.4018     35.2848     95.1871   9.0115678730e+01   5.4301769156e+01    0.3032516    0.2170874  77.80 0.0009220394    1.530    0.346
        96  -9.9377     61.8121     96.6988   7.9881746523e+01   5.0502154970e+01    0.3964022    0.2530764 -68.09   0.00105321    1.642    0.391
        97 -10.3849     26.5305     97.0409   9.4052657491e+01   5.4670931122e+01    0.5016611    0.2155374  37.57 0.0004430983    2.299    0.565
        98  -8.2078     20.7158     92.2960   9.5768577208e+01   5.6419420966e+01    0.1459218    0.1250875 -56.79  0.000389677    1.136    0.120
        99  -9.8433     16.9556     97.3973   9.8058605704e+01   5.5360666967e+01    0.3597294    0.1838178 -78.94 0.0008793905    1.806    0.446
       100  -9.1440     51.1745     97.1775   8.4101799601e+01   5.1886484403e+01    0.2125765    0.1878189 -40.04 0.0004157152    1.184    0.155
       101  -9.5835    144.7761     95.9026   5.4492802881e+01   3.4415798765e+01    0.2317368    0.1984595  -9.75 0.0008086147    1.248    0.199
       102  -9.9654    137.3776     93.6670   5.5583530451e+01   3.6461066521e+01    0.2994914    0.2648408  -7.62  0.001065989    1.202    0.168
       103  -8.7658     81.3006     88.4442   7.0513668004e+01   4.9247488239e+01    0.1955203    0.1452259  50.30 0.0004091777    1.418    0.295
       104 -10.1045     87.3601     89.7034   6.8780539604e+01   4.7814968730e+01    0.6568376      0.26563 -52.41  0.001809183    2.525    0.604
       105  -9.4566     84.5548     86.5666   6.8820066376e+01   4.9075162566e+01    0.3238371    0.2189322  37.68  0.000549393    1.522    0.343
       106 -10.1603     42.7084     91.2618   8.6245474517e+01   5.4488071311e+01    0.5129514    0.2879413  41.59  0.002043172    1.842    0.457
       107  -9.4263     57.1721     89.3624   7.9880666170e+01   5.3040968994e+01    0.4993582    0.2250547  39.48  0.001948048    2.241    0.554
       108  -9.3952     52.5418     92.0330   8.2391391352e+01   5.3021070736e+01    0.3092268    0.2127581 -70.95 0.0009044817    1.482    0.325
       109  -9.9507     48.2968     89.0676   8.3426541681e+01   5.4351497773e+01    0.4565117    0.2529794  41.80  0.001418395    1.872    0.466
       110  -8.5390    130.2893     92.6659   5.7031903664e+01   3.8214317018e+01    0.1526368    0.1206945 -75.24 0.0007019456    1.630    0.387
       111  -8.5559     91.7266     92.2067   6.8046568815e+01   4.6397790529e+01    0.2078328    0.1789511  -0.80  0.001035126    1.355    0.262
       112 -12.5493     34.6962     89.3946   8.9250739882e+01   5.5883249616e+01    0.3721424    0.3465188  86.50  0.002176651    1.060    0.056
       113  -9.8589      9.5608     89.7178   1.0024080374e+02   5.7883707035e+01    0.3190922    0.1595772 -65.05 0.0007763812    1.719    0.418
       114 -10.3484     13.0720     88.1565   9.8504158221e+01   5.8073765491e+01    0.3037088    0.2256791 -38.98  0.001009725    1.440    0.306
       115 -10.1196    139.1136     87.5511   5.3394405349e+01   3.7228963685e+01    0.3670625    0.2314182 -45.90 0.0004552013    1.597    0.374
       116  -9.6574    110.3378     87.9286   6.1015693397e+01   4.3523448014e+01    0.2941859    0.2523628 -11.33 0.0004917022    1.318    0.241
       117 -10.0220    124.8084     85.8533   5.6406189929e+01   4.0770093242e+01    0.3801299    0.3413004 -58.26  0.001151878    1.166    0.143
       118 -10.1309    120.4079     87.2722   5.8001150097e+01   4.1465558423e+01     0.375367    0.3078175 -50.12  0.001727573    1.237    0.192
       119 -10.4977    120.8843     82.4008   5.6372338232e+01   4.2331409267e+01    0.3075835    0.2867585 -41.06 0.0003257241    1.056    0.053
       120  -8.9720     76.6984     87.3214   7.1841076809e+01   5.0350215322e+01     0.294802    0.2506349 -85.25 0.0007306415    1.334    0.250
       121 -10.8066     79.1844     81.3073   6.9133588195e+01   5.1308025947e+01    0.6636776    0.4345146  11.90 0.0007462041    2.386    0.581
       122 -10.6432    131.3012     86.1067   5.4838173183e+01   3.9262633589e+01    0.2593566    0.2469489  28.98 0.0002577261    1.070    0.066
       123  -9.1785     59.7039     84.3698   7.7545384264e+01   5.3909767513e+01    0.4520337    0.1849017 -61.20  0.001593706    2.582    0.613
       124 -10.8926     54.3608     80.7826   7.8767404728e+01   5.5608932433e+01    0.3484772    0.2770938  13.21 0.0002317478    1.447    0.309
       125  -8.6426     28.8081     84.8334   9.0936994987e+01   5.7676079074e+01    0.1834804    0.1526586  68.47 0.0003761998    1.258    0.205
       126  -9.3185    188.5105     82.4324   4.2459219254e+01   2.7132733429e+01    0.3528459    0.2147447  25.46  0.000952337    2.333    0.571
       127 -11.9644    101.6401     97.9047   6.6515189751e+01   4.3157053036e+01    0.3454036    0.3031569 -37.10 0.0002329999    1.151    0.131
       128  -8.1346     12.5167     83.4579   9.8105610800e+01   5.9351321497e+01    0.1376573    0.1197192 -64.83 0.0008080466    1.067    0.063
       129  -8.9344      2.0589     83.0371   1.0283237582e+02   6.0041675265e+01    0.1991507     0.175672 -85.08 0.0006259981    1.026    0.026
       130  -9.6931    147.0192     81.6068   4.9849847805e+01   3.6506613413e+01     0.243192    0.2012452 -48.00 0.0004933245    1.216    0.177
       131 -11.1269    164.6760     78.3173   4.5354564506e+01   3.3017922535e+01    0.7018989    0.4163167 -51.00  0.003072018    1.871    0.466
       132  -8.8418    142.8064     80.7608   5.0516835848e+01   3.7626237621e+01    0.2232619     0.201231  -6.79 0.0007227017    1.168    0.144
       133 -10.4731    156.6649     85.8510   4.9081120527e+01   3.3576027092e+01    0.4390498    0.3123316  13.63  0.001995627    1.891    0.471
       134  -9.0987    187.4150     76.8821   4.1133361941e+01   2.8185738827e+01    0.2707824    0.1307886 -23.53  0.001096114    2.223    0.550
       135 -10.0080    121.3961     77.3487   5.4629498255e+01   4.3201014706e+01    0.3571358    0.1903619 -32.87 0.0006168712    2.010    0.503
       136 -10.8058    120.1706     71.6294   5.3068066583e+01   4.4574165767e+01    0.4973113    0.3497297  73.19  0.002177961    1.835    0.455
       137  -8.2603     36.4355     77.4844   8.5854485562e+01   5.8791386503e+01    0.1431253    0.1318092 -64.62 0.0001629787    1.010    0.010
       138 -10.1334    161.2334     64.7198   4.1915248533e+01   3.5956741021e+01    0.2921411    0.2340833 -50.12 0.0005578555    1.245    0.197
       139 -10.9564    152.0339     73.6013   4.6378249009e+01   3.6712657835e+01    0.3902641    0.2608976 -31.18 0.0009375569    1.460    0.315
       140 -11.0001    159.0367     73.3890   4.4951697231e+01   3.5110742542e+01    0.4445687    0.2926311 -41.69   0.00165117    1.453    0.312
       141 -12.0759    154.2452     66.5360   4.3758366398e+01   3.7337406412e+01      0.82832    0.6318519  67.95  0.004148254    1.437    0.304
       142 -11.2371    146.9991     61.9656   4.3702388909e+01   3.9809010387e+01    0.4907975    0.3332415  37.11 0.0004956085    1.691    0.409
       143 -12.6209    150.7367     57.5211   4.1535456163e+01   3.9586048119e+01    0.3840952    0.3200932 -51.66 0.0002200184    1.198    0.166
       144  -8.2625     40.6894     78.3384   8.4115106562e+01   5.8070202225e+01    0.1501117    0.1078528  70.23 0.0007044834    1.688    0.408
       145  -9.8435     77.6097     71.2625   6.6441498258e+01   5.3900543171e+01    0.3817388     0.219301 -52.50  0.001378063    1.766    0.434
       146 -10.4130     76.2645     75.1163   6.8241667431e+01   5.3284025043e+01    0.6306255    0.2445846  42.11  0.002198232    2.628    0.620
       147  -9.9232     82.9701     73.5623   6.5251795235e+01   5.2334792044e+01    0.4052488    0.2702482  34.52  0.001534287    1.608    0.378
       148 -11.2816     46.4433     73.3657   8.0156386521e+01   5.8586958961e+01    0.5685753     0.397301  67.04   0.00134986    1.846    0.458
       149 -10.7250     51.1926     70.1499   7.7036355246e+01   5.8706902305e+01    0.3760137    0.2774119 -73.94 0.0005067341    1.522    0.343
       150  -9.8406     56.9525     72.1978   7.5125708996e+01   5.7327089793e+01    0.4711287    0.2694385 -31.72  0.001524253    2.300    0.565
       151  -9.5785     63.5166     70.7302   7.1857582776e+01   5.6597708648e+01    0.4831079    0.2571044  37.14  0.001818071    1.944    0.486
       152 -11.3688      8.2563     74.3133   9.8807762277e+01   6.2019288160e+01    0.3834546    0.3409458  70.91 0.0004322421    1.157    0.136
       153  -8.8981      3.6626     72.7199   1.0086383062e+02   6.2675436149e+01    0.2115551     0.141434 -27.18 0.0006215711    1.676    0.403
       154  -9.5946    143.1855     71.1713   4.7452809668e+01   3.9211715686e+01    0.2825147    0.2314609  89.78  0.000526224    1.460    0.315
       155 -11.4382    136.7112     73.3969   4.9594745487e+01   4.0359298168e+01    0.8750908    0.4060456 -33.41  0.003298928    2.181    0.541
       156  -9.7187    139.7198     69.0180   4.7511759439e+01   4.0405394704e+01    0.2313854    0.2055949   1.61 0.0009375581    1.234    0.190
       157  -9.9742     97.1770     95.8203   6.7318731093e+01   4.4509653206e+01    0.3513791    0.2752771 -30.23 0.0004290459    1.402    0.287
       158 -10.9000     88.9278     74.6478   6.3524603901e+01   5.0889532719e+01    0.4664836    0.2864172  31.77 0.0005926677    1.891    0.471
       159  -9.7086     96.8017     70.0259   5.9317821741e+01   5.0197692762e+01    0.5678194    0.2739458 -32.73  0.002021529    2.510    0.602
       160  -9.9372    128.1645     73.0885   5.1520619522e+01   4.2429273733e+01    0.3877216    0.2490973 -13.30   0.00154598    2.240    0.554
       161  -8.4071    183.2550     72.3129   4.0512213504e+01   2.9763433820e+01    0.1361714    0.1059946   5.39 0.0001725343    1.526    0.344
       162  -8.7176     24.2763     71.8424   9.0385719713e+01   6.1495339197e+01    0.2059048     0.144124 -43.90  0.001055123    1.403    0.287
       163 -10.4326     17.7084     70.7454   9.3457869686e+01   6.2328457164e+01    0.2687231    0.2109321 -53.01 0.0003530164    1.175    0.149
       164 -10.8096    165.4474     69.8728   4.2732374071e+01   3.4174740063e+01    0.3778577    0.3205956 -31.63  0.001062875    1.112    0.101
       165 -10.5113     30.4863     71.0694   8.7126744257e+01   6.1092076428e+01    0.3135973    0.2593537  55.20  0.001729109    1.323    0.244
       166  -8.5491     26.9506     65.5317   8.7522080290e+01   6.2870553862e+01    0.3796996    0.2224177  43.34  0.001775507    1.892    0.472
       167  -8.9716     27.4834     56.3801   8.4683694353e+01   6.5126305416e+01     0.222434    0.1784184  16.92 0.0006943855    1.358    0.264
       168 -11.2804     30.6368     53.2149   8.1913585965e+01   6.5560369028e+01    0.5982904    0.3804118 -75.23  0.001956996    1.832    0.454
       169  -9.4677     34.9960     51.2827   7.8808173447e+01   6.5499970279e+01    0.2063246    0.1892791 -42.63 0.0003506118    1.003    0.003
       170 -11.2727     34.5261     67.4375   8.4172906371e+01   6.1577827504e+01    0.3659858    0.3037885  55.20 0.0005774521    1.335    0.251
       171 -10.0162     33.9889     62.9812   8.3173815713e+01   6.2761364131e+01     0.474315     0.324562  -9.16  0.001912158    1.864    0.463
       172 -10.7764    181.0363     64.2351   3.8562945539e+01   3.1423243473e+01    0.5816897    0.3293006 -23.15  0.001823859    1.811    0.448
       173 -10.3640    176.9798     63.9824   3.9101965641e+01   3.2385564298e+01    0.2858745    0.2194145 -34.04 0.0003177266    1.196    0.164
       174  -9.9212     72.6529     67.4175   6.7010947096e+01   5.5711934587e+01    0.3467717    0.2893623   0.33   0.00131092    1.413    0.292
       175  -9.2452     10.5026     67.4358   9.6554985078e+01   6.3688486933e+01    0.3936405    0.1926368  67.04  0.001599515    2.710    0.631
       176  -8.7496     15.1227     66.6125   9.3970079090e+01   6.3596391232e+01    0.2915788    0.1706121 -32.44  0.001381014    1.903    0.475
       177 -10.1105     59.9412     66.1772   7.1844730452e+01   5.8273089116e+01    0.4852819    0.3385983  25.68  0.001438959    1.601    0.376
       178 -10.2107     61.0009     60.5485   6.9367305072e+01   5.9387062246e+01    0.4602609    0.2791114  53.40 0.0005788336    2.008    0.502
       179  -9.1626     42.0272     66.6709   8.0259969474e+01   6.0846681629e+01    0.2299395    0.2045913 -63.81 0.0007989376    1.089    0.082
       180 -10.8707     43.3606     61.0804   7.7826506697e+01   6.2037061724e+01    0.4816983    0.3874552 -48.32  0.001777504    1.160    0.138
       181  -8.2953    231.5404     66.4430   3.2932573488e+01   2.0647201832e+01    0.1258813    0.1045368 -28.78 8.899467e-05    1.028    0.027
       182  -9.9216    201.7066     49.7693   3.1851267139e+01   2.8721781647e+01    0.3644385    0.2404026  71.75  0.001902182    1.721    0.419
       183 -11.0688    199.5729     55.8235   3.3740996621e+01   2.8429144731e+01    0.5690873    0.3747792  16.11  0.002582756    2.183    0.542
       184  -9.4861    205.9908     52.9941   3.2244940531e+01   2.7402133439e+01    0.2538844    0.2051505   6.26  0.000638093    1.455    0.313
       185  -9.0627    194.5303     65.0840   3.6899937490e+01   2.8306834083e+01    0.4017443    0.1223214 -29.61  0.001016327    2.942    0.660
       186  -9.3213    191.1938     61.5203   3.6365038241e+01   2.9520574388e+01    0.4572933    0.1838403  54.46  0.001863405    2.613    0.617
       187  -9.3547     88.9694     65.1647   6.0178239931e+01   5.2896577778e+01     0.448926    0.2447979 -54.77  0.001740885    2.149    0.535
       188 -10.7860     61.9396     57.0684   6.7632096298e+01   5.9998838987e+01    0.5426894    0.2688871  35.38  0.001533192    2.167    0.539
       189 -10.2681    132.4371     61.4942   4.6622224440e+01   4.3440514650e+01    0.5255182    0.2519094 -51.48  0.001883287    2.568    0.611
       190  -9.7897      2.4795     64.0959   1.0028084867e+02   6.4981152119e+01    0.2198223    0.2118554 -88.71 0.0005933527    1.117    0.104
       191 -11.0430      7.3795     58.2440   9.6569728272e+01   6.6254486892e+01    0.9266091    0.3789732 -47.30  0.003957436    2.215    0.548
       192  -9.5487      1.9077     51.0982   9.8455129234e+01   6.8355735520e+01    0.3315824    0.1533499 -46.60   0.00125333    1.935    0.483
       193  -9.6995     18.6362     42.8451   8.5637827517e+01   6.9312679811e+01    0.2905652    0.2071283  54.22  0.001524625    1.736    0.424
       194 -11.8896     18.0775     48.8425   8.7909505002e+01   6.7892797990e+01    0.5775023    0.5028578 -36.39  0.001845511    1.100    0.091
       195  -9.7863     19.5983     55.6846   8.8948775299e+01   6.6050747468e+01    0.3014418    0.2418914 -32.90 0.0004551634    1.250    0.200
       196  -9.8411     26.6939     48.0334   8.2424782291e+01   6.7256222301e+01    0.4454966    0.2694249 -23.49   0.00203723    2.044    0.511
       197 -10.2413      6.9715     50.7017   9.5253629655e+01   6.8206891502e+01     0.356118    0.2516329  -4.99  0.001969262    1.597    0.374
       198  -9.9532      6.7732     46.4106   9.4385175687e+01   6.9301897012e+01    0.3165192    0.1743594 -45.79  0.000682164    1.631    0.387
       199  -9.2565    172.4530     62.9823   3.9513447006e+01   3.3576664840e+01    0.2220049    0.1332773 -30.61 0.0007710948    1.558    0.358
       200  -9.1686    100.0355     62.4695   5.5571786075e+01   5.0986688390e+01    0.2520989    0.2024514 -38.88 0.0007834871    1.231    0.188
       201 -11.3606     21.9172     61.0228   8.9048839009e+01   6.4493773863e+01    0.3296111    0.2356577 -25.68            0    1.542    0.352
       202  -8.5767    208.5188     62.0428   3.4341069805e+01   2.5733946967e+01    0.1999601    0.1133469 -32.33 0.0004338903    1.500    0.334
       203 -10.1299    167.6402     61.4564   3.9830058126e+01   3.4927635755e+01    0.2857198    0.2306343 -16.11  0.001135405    1.296    0.229
       204 -10.1974    218.8934     59.4230   3.2518985203e+01   2.3946067876e+01    0.3019965    0.2184159 -45.53 0.0005648006    1.262    0.208
       205 -10.1604    222.5710     55.5218   3.1165702925e+01   2.3684060472e+01    0.3080522    0.2314602 -79.07  0.001840096    1.594    0.373
       206  -9.0120    115.4637     60.9466   5.0587710339e+01   4.7653313338e+01    0.2350342    0.1494548 -35.49 0.0008150876    1.562    0.360
       207  -9.8644     79.0470     44.3994   5.5323265011e+01   5.9128299598e+01    0.3942556    0.2739268  54.54  0.001225083    1.519    0.342
       208 -10.0757     77.9958     55.7111   6.0513960821e+01   5.7159389985e+01    0.3671489    0.2406123 -33.59  0.001642743    1.600    0.375
       209  -9.6790     89.9876     33.6190   4.6658608388e+01   5.8403696899e+01    0.4897286    0.4172545 -88.74  0.002549284    1.373    0.271
       210  -8.9503    106.9664    246.3981   8.9347480915e+01   1.3223796794e+01    0.1636495    0.1406115  57.25  0.001055798    1.378    0.275
       211 -11.6166     84.7462     38.9934   5.0849590718e+01   5.8787171641e+01    0.3711996    0.2809031 -37.11 0.0002203404    1.319    0.242
       212 -11.8414     90.9015     43.8536   5.0986967730e+01   5.6521464147e+01    0.3460629    0.3227322  12.44 0.0003043535    1.102    0.092
       213 -10.8527     89.2756     38.2892   4.9035585101e+01   5.7837745999e+01    0.3440292    0.2663738 -86.13  0.001071922    1.702    0.413
       214 -11.4036    161.2026     56.5237   3.9370715218e+01   3.7185226548e+01    0.4751507    0.3947276 -85.24 0.0003584064    1.340    0.254
       215  -9.6543    162.0720     52.3037   3.7894595902e+01   3.7576560388e+01    0.2620609      0.21823  70.30 0.0003689799    1.264    0.209
       216 -10.6443     94.4787     56.8403   5.5185503075e+01   5.3334943717e+01     0.548502    0.3771296  49.45  0.002065237    1.469    0.319
       217 -10.6323    174.4048     53.8174   3.6477980708e+01   3.4408651789e+01    0.4427755    0.2991509 -28.29  0.001163138    1.404    0.288
       218 -10.0198    179.1177     53.1742   3.5617453244e+01   3.3389114782e+01    0.4363256    0.2672849 -27.49  0.002090115    1.546    0.353
       219  -8.7047    121.0098     58.2742   4.8195832511e+01   4.6779622263e+01    0.2080189    0.2048339 -82.20 0.0006611391    1.029    0.028
       220  -9.3599    213.7272     57.0213   3.2457186590e+01   2.5287531260e+01    0.2020822    0.1934042  82.51 0.0006146459    1.197    0.164
       221  -8.5537    239.0310     56.0032   2.9747889984e+01   2.0481661171e+01    0.1562765    0.1173765 -31.70 0.0009936329    1.074    0.069
       222 -12.0344    163.5907     42.6301   3.4570720252e+01   3.8509012257e+01    0.4596213    0.3425915 -84.95  0.002337533    1.507    0.336
       223 -10.3642     69.3534    217.1331   9.4680232725e+01   2.2309673250e+01    0.4729082    0.3008613  68.54  0.002848544    1.801    0.445
       224  -9.3585    146.9992     29.5367   3.2587922493e+01   4.4326703739e+01    0.2354468     0.181086 -42.10 0.0005188812    1.251    0.201
       225 -12.8384    137.4920     47.1355   4.0521141711e+01   4.4437479508e+01    0.7928403    0.5402893  72.59  0.001211364    1.609    0.378
       226 -12.4470    140.6784     38.2229   3.6729389234e+01   4.4867037050e+01    0.6509808    0.4613848 -83.44  0.000671763    1.665    0.399
       227 -11.4719    127.1407     34.9041   3.8009297062e+01   4.8803019244e+01    0.6422185    0.3159211 -46.41 4.556624e-05    2.159    0.537
       228 -10.4644    117.6759     51.8123   4.6636705800e+01   4.8686834016e+01    0.4734751    0.3648167  52.90   0.00126247    1.300    0.231
       229 -11.8517    122.4402     49.6760   4.4681634383e+01   4.7846074399e+01    0.4677444    0.3992434 -40.35  0.002424541    1.157    0.136
       230  -8.6208     51.1000     54.0921   7.1488515309e+01   6.2519085069e+01    0.1957317    0.1757186  86.88  0.001062261    1.307    0.235
       231  -9.7516     65.0182     51.5331   6.4056427621e+01   6.0619820926e+01    0.2946948    0.2498156 -48.82 0.0004375617    1.178    0.151
       232  -9.2187     62.7471     48.3577   6.3699694114e+01   6.1714578560e+01    0.3737606    0.1809324 -42.33  0.001052428    2.018    0.505
       233 -10.6216    147.9051     50.1261   3.9596701549e+01   4.1383288654e+01    0.4387438    0.3117297  86.66  0.001648609    1.688    0.408
       234 -10.5822    184.8346     55.0048   3.5372893500e+01   3.1824240868e+01    0.6696389    0.2594321 -34.32  0.002589419    2.205    0.547
       235 -10.7328    211.5018     49.3461   3.0699255337e+01   2.6678464821e+01    0.3108681    0.2415322 -70.70 0.0007124777    1.408    0.290
       236  -9.4324     54.8641     49.9868   6.8020306614e+01   6.2802655263e+01    0.2273551    0.2141067  63.38 0.0005102947    1.189    0.159
       237 -11.5532    233.0975     48.2828   2.8423433899e+01   2.2467997366e+01    0.2299761    0.1823972 -37.58 0.0002908264    1.034    0.033
       238  -9.0484    194.0497     48.9881   3.2507642513e+01   3.0510552331e+01    0.2095456    0.1899551 -39.14 0.0006371828    1.020    0.020
       239  -8.9206    191.9291     44.6776   3.1537323515e+01   3.1520456347e+01    0.3107412    0.1851339 -55.27  0.001201842    1.754    0.430
       240  -8.8023    111.0127     49.2957   4.7375188903e+01   5.0748206091e+01    0.2092958    0.1896123  64.78 0.0003706023    1.127    0.113
       241  -9.6057    246.3434     47.6901   2.7214930717e+01   2.0072456345e+01    0.2109748    0.1659178 -23.04  0.000704353    1.160    0.138
       242  -8.2348    173.2879     48.3038   3.4966142801e+01   3.5412482648e+01    0.1383488    0.1079959  20.91 0.0001670574    1.565    0.361
       243  -9.3642     45.3661     44.5405   7.0471836237e+01   6.5565972586e+01    0.3113463    0.1687818 -56.42 0.0008397078    1.966    0.491
       244  -8.3971    228.3307     45.3402   2.8113609659e+01   2.3721942537e+01    0.1229755   0.09161275  15.11 0.0007051624    1.743    0.426
       245 -10.8705    127.9455     53.2189   4.4721681304e+01   4.5905986656e+01    0.4539244    0.4035818 -22.14 0.0003950938    1.153    0.133
       246  -9.6389     74.9875     40.2008   5.4935239786e+01   6.0782190117e+01    0.3168387    0.2127467  25.26 0.0007060684    1.840    0.457
       247 -10.0703     73.2342     44.9018   5.7772791865e+01   6.0290520212e+01    0.3078888    0.2232141 -41.53 0.0007794158    1.363    0.267
       248 -10.0372     67.3093     44.4515   5.9992914115e+01   6.1604193121e+01    0.3925197    0.3008363  45.17  0.001060789    1.336    0.252
       249  -9.9573     33.6968     44.1957   7.6836027488e+01   6.7327285424e+01    0.4565299    0.2449052 -44.38  0.002062589    1.745    0.427
       250 -10.0404     32.9552     37.1413   7.4250196416e+01   6.9016589934e+01    0.2318713    0.1860073 -53.37 0.0002638018    1.224    0.183
       251 -10.3108     73.7677    213.5880   9.3389215836e+01   2.2440430313e+01    0.3568314    0.3179572 -88.70  0.001990584    1.294    0.227
       252  -9.6096     76.6897    222.7021   9.3529844723e+01   2.0486411752e+01     0.197176    0.1363606  32.83 0.0002648963    1.172    0.147
       253 -11.4332     77.1649    219.1810   9.3123049246e+01   2.1044863276e+01    0.5757071    0.3304899  10.24  0.002781462    2.379    0.580
       254  -9.1716     91.4616    214.5370   8.9523158404e+01   2.0139363925e+01    0.2489301   0.09808242  31.61 0.0007479641    2.061    0.515
       255  -9.5109    123.9740    205.9946   8.1385248778e+01   1.7362387036e+01    0.1716686    0.1436866  25.10            0    1.008    0.008
       256  -8.9111     90.5060    206.1581   8.8862903952e+01   2.1751772861e+01    0.2054217    0.1416233  48.37  0.001188335    1.353    0.261
       257  -9.8652      1.3552    185.0117   1.0879201467e+02   3.5219010496e+01    0.3363712   0.09832353 -84.43  0.001376509    3.301    0.697
       258  -9.3143     25.0051    173.9864   1.0226145193e+02   3.5701299964e+01    0.1824649    0.1558043  58.10            0    1.024    0.023
       259  -9.3301      6.4015    168.2415   1.0690778285e+02   3.8515009630e+01    0.2060488    0.1531271  29.00 0.0006081826    1.355    0.262
       260  -9.7752      5.9448    159.7688   1.0666500420e+02   4.0484641480e+01    0.1720723    0.1225847  26.01 0.0004548764    1.447    0.309
       261 -10.6756      8.5100    163.5206   1.0612940087e+02   3.9432945510e+01    0.2772392    0.2128645 -43.54  0.001729327    1.642    0.391
       262 -10.3860      4.6527    162.9987   1.0716033069e+02   3.9832417887e+01    0.2436904    0.1943146  51.15 0.0005140653    1.102    0.093
       263  -9.4967    209.8921     43.3607   2.9286012503e+01   2.7721431764e+01    0.2470305    0.1524065 -39.51  0.001320978    1.375    0.273
       264  -9.8570    178.4945     43.9960   3.2963220319e+01   3.4726128504e+01    0.2900776    0.1961847  83.82 0.0009833809    1.693    0.409
       265 -10.3852    107.5735     43.7176   4.6049331541e+01   5.2504703946e+01    0.5149984    0.2765832  61.79  0.001450148    1.981    0.495
       266 -10.6532     62.2873     38.1155   5.9195753232e+01   6.3831532034e+01    0.5747654    0.4432715 -24.77  0.002089951    1.344    0.256
       267 -11.9770     18.9903    159.1154   1.0296282067e+02   3.9627453125e+01    0.5826058    0.2987249  61.26  0.002925609    1.822    0.451
       268  -9.2334    218.4574     41.4311   2.7991954535e+01   2.6146798841e+01     0.218362    0.1878243 -42.69 0.0005613727    1.032    0.031
       269 -10.8202    201.8397     38.3566   2.8724061081e+01   3.0043884849e+01    0.4922154    0.2219706 -33.18  0.001716036    1.845    0.458
       270  -9.3393     28.0037     41.9009   7.9341751023e+01   6.8562516282e+01     0.203127    0.1927913 -44.05 0.0005616444    1.070    0.065
       271  -9.0685    203.8942     63.2097   3.5199805576e+01   2.6551208644e+01    0.1956567    0.1579327 -48.00 0.0005843213    1.183    0.154
       272  -9.4870    240.2964     39.6819   2.5806259955e+01   2.2042000776e+01    0.3547864    0.2451709  13.11  0.002059033    2.013    0.503
       273 -10.5421    230.5734     39.3091   2.6453123328e+01   2.3945094864e+01    0.2750512     0.220854 -74.61 0.0005599233    1.354    0.261
       274  -8.9903    226.6524     37.6950   2.6365320115e+01   2.4895167424e+01    0.2345653    0.1742077   4.67  0.001384531    1.684    0.406
       275  -9.0044    111.2295     29.5880   3.9206293722e+01   5.3630079917e+01    0.3527802    0.1604069  53.70  0.001379052    2.078    0.519
       276  -9.1122    113.7937     39.4146   4.2719029198e+01   5.1601049221e+01     0.274838    0.2085582  35.00 0.0007940189    1.441    0.306
       277  -9.9242    115.2056     34.9331   4.0551858456e+01   5.1882415013e+01    0.5385649    0.2675004 -42.17  0.001525673    2.041    0.510
       278 -10.1670    194.6959     37.3244   2.9153953443e+01   3.1762737535e+01    0.2843342    0.2010645 -45.43 0.0002729761    1.268    0.211
       279 -10.1316    123.5742     30.4084   3.6937529025e+01   5.0315652657e+01    0.3209537     0.241586  68.30 0.0009998278    1.325    0.246
       280  -8.9951     38.9499     36.2833   7.0259180114e+01   6.8340170600e+01    0.4490258    0.2077971 -35.44  0.001675468    2.500    0.600
       281 -10.6980     46.0894     29.4416   6.2699367166e+01   6.8537428620e+01    0.6428816    0.4407044   6.77  0.001533646    1.938    0.484
       282  -9.5278      2.0470     38.0368   9.5519820591e+01   7.1631871625e+01    0.1979129    0.1626625 -49.74 0.0003502161    1.063    0.059
       283  -9.1829    250.5668     37.0752   2.4492744013e+01   2.0432681247e+01    0.2465207   0.07654865 -33.17 0.0009955548    2.219    0.549
       284 -11.1384    246.1385     32.1299   2.3650737160e+01   2.1740052275e+01     0.365894    0.2026458 -39.72 0.0007402123    1.394    0.282
       285  -9.4785    184.9785     35.6934   2.9717568523e+01   3.4196518466e+01    0.2993728    0.2172138  83.24  0.001536658    1.490    0.329
       286 -10.9532    169.9744     32.8806   3.0601845129e+01   3.8133713916e+01    0.5193493     0.341711 -21.05  0.001646177    1.554    0.356
       287 -10.0137     97.1234     33.4944   4.4501402369e+01   5.6669986519e+01    0.3390172    0.2012898 -38.48 0.0009642522    1.686    0.407
       288 -10.0101     74.0833     35.6390   5.3101119893e+01   6.1780938806e+01    0.2602849    0.2256006 -29.70 0.0002683485    1.144    0.126
       289 -10.6592     20.0479    153.5544   1.0228600367e+02   4.0853303917e+01    0.2295616    0.1565101  76.39   0.00095707    1.351    0.260
       290  -9.0377     16.8231     33.8487   8.3533481471e+01   7.1615423765e+01    0.3627081    0.1328744 -50.94   0.00148106    2.255    0.557
       291  -9.8821    189.1225     25.8660   2.6416440037e+01   3.4314640665e+01    0.2568068    0.1976811  74.21 0.0004289326    1.370    0.270
       292 -10.2148    180.5636     29.6915   2.8404107538e+01   3.5925268192e+01    0.5219945    0.3370212 -18.08  0.002621539    1.621    0.383
       293  -9.8935    183.0010     25.0108   2.6747979673e+01   3.5850340077e+01    0.3137518    0.2366735 -29.24 0.0007748199    1.249    0.200
       294 -10.8131      2.5633    153.9701   1.0736318984e+02   4.2070887294e+01    0.2884871    0.2617358 -70.46  0.001041862    1.246    0.197
       295 -10.2603    188.3825     20.8120   2.5010518281e+01   3.5011430700e+01      0.23185    0.2169195 -57.27 0.0002658868    1.064    0.060
       296 -10.7720     28.9977    151.5365   9.9488177792e+01   4.0542809589e+01    0.3746294    0.2253267 -45.50  0.001408157    2.024    0.506
       297 -10.0677     31.1707    146.9656   9.8426282744e+01   4.1444054665e+01    0.2269715    0.1861875  36.64  0.001247609    1.205    0.170
       298 -11.4479     13.8786    151.5219   1.0396153042e+02   4.1837044076e+01    0.3465624    0.2492768 -28.47  0.001972856    1.856    0.461
       299  -9.3800    223.9024     30.8725   2.4876434154e+01   2.6174465052e+01    0.1862428    0.1583285 -41.29 0.0005133902    1.030    0.029
       300  -8.9692     24.3773     31.0266   7.6985740047e+01   7.1455978718e+01     0.196339    0.1546998 -44.66 0.0005422905    1.150    0.130
       301  -9.6511    216.4083     29.1495   2.5004638057e+01   2.7905208677e+01    0.2242741    0.2064483 -80.12 0.0006912905    1.179    0.152
       302  -9.0970     76.9263     30.3533   4.9416403988e+01   6.2003639591e+01    0.2208628    0.1233616  42.24 0.0009231648    1.828    0.453
       303 -10.7300      6.2522    148.0294   1.0601428437e+02   4.3231675017e+01    0.4172229    0.1839924  37.84  0.001679573    1.969    0.492
       304 -10.5205     81.8776     26.5553   4.5790645521e+01   6.1408713371e+01    0.5060624    0.3927993 -72.69  0.002499672    1.659    0.397
       305 -10.7441     11.1505    144.8292   1.0436568227e+02   4.3656448786e+01    0.3468462    0.2084776  33.18 0.0007647822    1.584    0.369
       306  -8.8424     60.7306    148.2401   8.9619437867e+01   3.7828354259e+01    0.1728669    0.1555776 -29.28 0.0003367378    1.293    0.227
       307  -9.5028     36.8639    147.8652   9.6779868283e+01   4.0662386097e+01    0.1879539    0.1801638 -55.51 0.0006381051    1.188    0.158
       308 -11.4672      7.7201    122.3887   1.0398643729e+02   4.9487964102e+01    0.6253949    0.5960125  33.80  0.004137147    1.188    0.158
       309 -10.1297    106.6255     35.2179   4.2729263263e+01   5.4032852975e+01    0.2844349    0.2242857  29.40 0.0004301172    1.400    0.286
       310  -9.1900      2.7761     28.9418   9.2350962466e+01   7.3807413640e+01    0.2771952     0.143536  36.68  0.001086488    2.249    0.555
       311  -9.4329    206.9112     25.9960   2.4918288684e+01   3.0272649500e+01    0.2575312    0.1659028 -21.73 0.0007157912    1.499    0.333
       312 -10.2228      1.7316    112.5288   1.0542560870e+02   5.2366302285e+01    0.4959686    0.1367749 -74.00  0.001843389    2.949    0.661
       313 -11.0513     22.5884    117.9751   9.8335316224e+01   4.9526356528e+01    0.5841072    0.3420971  -8.30  0.002380106    2.466    0.595
       314 -10.8502     15.4179    115.7651   1.0070146688e+02   5.0662476348e+01    0.3827363     0.267408  53.65 0.0003918484    1.387    0.279
       315  -9.7630     10.1947    112.3628   1.0230309547e+02   5.1906845044e+01    0.2460763    0.1696001 -74.76  0.001127554    1.302    0.232
       316 -11.1262      6.3641    108.5670   1.0341104826e+02   5.3130264852e+01    0.6676112    0.4461871 -54.73   0.00271985    1.502    0.334
       317 -10.8504    110.3336     22.7045   3.6405344738e+01   5.4723415372e+01    0.2832537      0.25546  39.80 0.0003247667    1.124    0.110
       318 -11.7130    111.0331     19.1714   3.4696065380e+01   5.4946380537e+01    0.4547779    0.2754533  54.50  0.001186762    1.571    0.364
       319  -9.3180    120.1912     26.1442   3.5864809675e+01   5.1729829716e+01    0.3447848    0.1733144  48.59  0.001405042    2.013    0.503
       320  -9.3450    157.9281     23.7936   2.9108301660e+01   4.2172758664e+01    0.4831242    0.1960846  38.25  0.001554868    4.055    0.753
       321 -11.8095     13.9670    134.4721   1.0278372741e+02   4.6002200424e+01    0.6183482    0.4257705  -8.88  0.001419149    1.926    0.481
       322 -10.4262     12.5846    128.9637   1.0282328541e+02   4.7487957259e+01    0.4286403    0.2248496  23.25 0.0008798546    1.983    0.496
       323 -11.9704     21.2000    141.8885   1.0106181206e+02   4.3586121355e+01    0.8617613    0.3100609  28.64  0.002944546    2.520    0.603
       324 -10.6721     16.9691    140.5526   1.0228077992e+02   4.4260943589e+01    0.3109147    0.2564949 -25.43   0.00108061    1.518    0.341
       325 -10.3238      2.7978    142.4146   1.0677021998e+02   4.4815634550e+01    0.3246881    0.2585801  52.64  0.001725545    1.142    0.124
       326  -9.7467      1.5810    137.2397   1.0689241853e+02   4.6154301600e+01    0.3879685     0.150021  85.69  0.001656113    2.451    0.592
       327 -10.1233    223.5411     22.2346   2.2737960326e+01   2.7126382203e+01    0.4031502    0.2207879 -48.74  0.001853388    1.571    0.363
       328  -9.7734     44.4301    141.6892   9.3761219451e+01   4.1367152048e+01    0.2388633    0.2348952 -77.21   0.00075213    1.127    0.113
       329 -10.2103    212.0535     22.5434   2.3609559874e+01   2.9508545416e+01    0.3070614    0.2339161 -23.20  0.001029619    1.266    0.210
       330  -9.2328     36.2233    141.9989   9.6368149060e+01   4.2164063581e+01    0.2258311    0.1303455 -46.22  0.001065288    2.031    0.508
       331 -11.4144    236.5505     29.4518   2.3644649302e+01   2.3815768167e+01    0.4202642    0.2913413 -15.81  0.002581231    1.470    0.320
       332  -8.8362    103.9075     23.8786   3.8369431922e+01   5.6251429567e+01    0.1894632    0.1638695 -68.62  0.001002207    1.251    0.201
       333  -9.3833     99.2043     23.5250   3.9344009150e+01   5.7505334455e+01    0.3038717     0.234262  87.33   0.00118414    1.482    0.325
       334  -9.9716    248.5076     22.3611   2.1279207162e+01   2.2268204896e+01     0.212531    0.1583418 -46.69 0.0002469567    1.105    0.095
       335  -8.8146    143.2293     22.1275   3.0459388564e+01   4.6144025689e+01    0.2054822    0.1547152 -59.93 0.0006472768    1.350    0.259
       336 -10.0360     23.6359    124.9869   9.8714840356e+01   4.7631138065e+01    0.3017263    0.2067494  82.60 0.0008056305    1.399    0.285
       337 -11.1573     30.8779    125.2277   9.6244161157e+01   4.6913339075e+01     0.463178    0.3614781  61.85  0.001084545    1.227    0.185
       338  -9.9096     29.5135    137.5517   9.8037298040e+01   4.3923770925e+01    0.2340421    0.1902911  32.72 0.0005447454    1.255    0.203
       339 -10.8128     30.0279    133.9905   9.7505428380e+01   4.4768205074e+01    0.3712027    0.3278269 -50.12  0.001911286    1.257    0.205
       340 -10.9198     26.7264    130.0681   9.8190113358e+01   4.6063994811e+01    0.4635793    0.2968405  18.46 0.0008577906    1.739    0.425
       341 -10.1894      4.3119    131.5298   1.0571847420e+02   4.7398463270e+01    0.3080357    0.1982626  34.42  0.001465716    1.524    0.344
       342  -8.8195     84.0973     13.3300   3.8177535823e+01   6.2550562854e+01    0.2646813    0.1856533 -76.27 0.0006636138    1.872    0.466
       343  -8.8760     46.2806    130.3742   9.1696330989e+01   4.3977536017e+01    0.2053272    0.1789888 -13.28 0.0005367997    1.376    0.273
       344  -8.8984    129.7406     19.5689   3.1507920247e+01   4.9963094521e+01    0.2040562    0.1351132  88.75 0.0009441327    1.652    0.395
       345  -9.1712    117.7754     19.2127   3.3414271277e+01   5.3164669735e+01    0.2163905    0.1896174 -67.97 0.0007657265    1.174    0.148
       346 -10.8755     48.8731    126.5639   9.0276997252e+01   4.4635584399e+01    0.3844744    0.3449933 -77.74 0.0002616447    1.078    0.072
       347 -10.1977     37.3349    124.3534   9.3906095888e+01   4.6491988603e+01    0.3713351    0.1884084 -74.54  0.001591092    1.917    0.478
       348 -10.3686    221.2854     15.5598   2.1203461065e+01   2.8237547746e+01    0.2323837    0.1786673 -45.40 0.0001888731    1.070    0.065
       349  -9.5620     40.2029    120.5237   9.2376543892e+01   4.7169330486e+01    0.2659524    0.2426209 -88.28  0.000651925    1.025    0.024
       350  -9.6363     98.2254    125.8345   7.4421803697e+01   3.7441140974e+01     0.261876    0.2275114  32.76 0.0008260006    1.144    0.126
       351  -9.8477    230.2796    124.1853   4.6251941805e+01   1.3473444463e+01    0.3344683    0.2067932 -43.42  0.001872774    1.772    0.436
       352  -9.8510     67.2684    123.4634   8.3604439625e+01   4.2984042766e+01     0.288305    0.2165171 -24.16 0.0007891789    1.698    0.411
       353  -8.7160    135.6603    121.2725   6.3278387135e+01   3.1392945466e+01    0.2089842     0.133032 -35.22  0.000616177    1.625    0.385
       354  -9.2935     82.8523    119.7575   7.7806760870e+01   4.1480330759e+01    0.2984833    0.1983329 -44.85  0.001331633    1.577    0.366
       355 -10.5131     58.3703    118.0966   8.5620840022e+01   4.5572650375e+01    0.3818117    0.2870663  44.90 0.0009258834    1.319    0.242
       356 -10.2760     46.6858    116.6127   8.9473563703e+01   4.7437085622e+01    0.3311199    0.2320941 -52.20  0.001669417    1.441    0.306
       357  -9.2777     98.9147    117.5175   7.2347458614e+01   3.9223312975e+01    0.2424149    0.2191761   4.91 0.0003774792    1.206    0.171
       358  -9.0448    102.4762    117.5331   7.1296669344e+01   3.8568415210e+01    0.2408078    0.1432934  39.36 0.0006499433    1.663    0.399
       359  -9.8519     67.3516    118.0046   8.2531260663e+01   4.4328274115e+01    0.3153609    0.2122986  26.28 0.0008298071    1.596    0.373
       360  -9.4949     31.0187    116.8404   9.5152267801e+01   4.9063038411e+01    0.2833613    0.1776769 -73.66 0.0006087498    1.486    0.327
       361  -9.7655     39.7690    115.1549   9.1735288874e+01   4.8602836805e+01    0.3005249    0.2221858 -26.24  0.001526465    1.684    0.406
       362  -8.1919    103.3149    113.7393   7.0139669270e+01   3.9270186190e+01    0.1474006    0.1170828  71.95 0.0002068031    1.538    0.350
       363  -8.7278     84.2383    113.0011   7.5864172162e+01   4.2869543793e+01    0.1980153    0.1868651 -62.44 0.0002202095    1.055    0.053
       364 -10.3597     62.6169    111.9078   8.2945065599e+01   4.6545169382e+01    0.2681705     0.241621  36.13 7.477746e-05    1.138    0.121
       365 -11.6636     46.0545    103.4844   8.7383209169e+01   5.0907587930e+01    0.3741757    0.2819389 -76.98 0.0004674091    1.307    0.235
       366  -9.6453     49.8664    111.9185   8.7519395731e+01   4.8256822373e+01    0.2160544    0.1985692  84.79            0    1.045    0.043
       367 -10.3079     46.6265    109.2351   8.8230293685e+01   4.9347902343e+01    0.3582867     0.260946 -78.04 0.0009208287    1.363    0.266
       368 -10.9556     21.5180    105.1033   9.7211349833e+01   5.2976076932e+01    0.3192529    0.2519336  57.70  0.000365309    1.260    0.206
       369 -10.0684     16.1627    104.4426   9.9230922828e+01   5.3563482809e+01    0.5200261    0.2138137 -86.50  0.002038294    2.529    0.605
       370 -10.9323     27.6343    109.4572   9.5425159594e+01   5.1305056276e+01    0.5104613    0.4107014  63.07  0.002378405    1.224    0.183
       371 -10.7673     21.5837    110.2213   9.7817012132e+01   5.1628497423e+01    0.5056636     0.255327  32.32   0.00234334    1.959    0.489
       372 -10.5231     35.1260    107.3512   9.2257410817e+01   5.1128406700e+01    0.5495899    0.2320396 -72.23            0    2.290    0.563
       373 -10.4108    120.2478    107.8183   6.3850577970e+01   3.7245743536e+01    0.2961558    0.2508003  41.44 0.0002283624    1.184    0.156
       374  -9.5811     72.8586    106.0514   7.8077400012e+01   4.6448109160e+01    0.4296936    0.1582799 -46.79  0.001446264    2.861    0.650
       375  -8.4132    152.4342    106.4818   5.5648620042e+01   3.0817751804e+01    0.1453499    0.1386362 -28.98 5.317296e-05    1.050    0.048
       376  -8.9873    127.1455    106.1103   6.1576700729e+01   3.6184082439e+01    0.2005741     0.178362 -74.51  0.001037959    1.295    0.228
       377 -11.9330     80.7811    103.2114   7.4667380319e+01   4.5817968699e+01    0.3312672    0.2933112  10.30 0.0004044067    1.260    0.206
       378  -9.1573      1.7780    104.7885   1.0486277597e+02   5.4364360929e+01    0.1895581    0.1610005 -67.65 0.0005831576    1.146    0.127
       379  -9.6632    131.7212    104.4526   5.9967370529e+01   3.5564584685e+01    0.3518227    0.1449035  42.35  0.001255538    2.496    0.599
       380 -11.0473    107.9732    103.1558   6.6057889960e+01   4.0728268448e+01    0.2944125    0.2550053  32.25 0.0003247043    1.181    0.153
       381  -8.1955     67.6421    104.6850   7.9603785162e+01   4.7610128889e+01    0.1549554    0.1145362 -21.81 0.0005729371    1.748    0.428
       382  -9.8946     61.9749    102.3546   8.1134981005e+01   4.9051393347e+01    0.2707714    0.2036731 -53.50 0.0006021578    1.294    0.227
