#   1 NUMBER                 Running object number                                     
#   2 MAG_AUTO               Kron-like elliptical aperture magnitude                    [mag]
#   3 X_IMAGE                Object position along x                                    [pixel]
#   4 Y_IMAGE                Object position along y                                    [pixel]
#   5 X_WORLD                Barycenter position along world x axis                     [deg]
#   6 Y_WORLD                Barycenter position along world y axis                     [deg]
#   7 A_WORLD                Profile RMS along major axis (world units)                 [deg]
#   8 B_WORLD                Profile RMS along minor axis (world units)                 [deg]
#   9 THETA_WORLD            Position angle (CCW/world-x)                               [deg]
#  10 FWHM_WORLD             FWHM assuming a gaussian core                              [deg]
#  11 ELONGATION             A_IMAGE/B_IMAGE                                           
#  12 ELLIPTICITY            1 - B_IMAGE/A_IMAGE                                       
         1 -13.5757     12.5692    144.7294   1.0384013379e+02   4.3572360147e+01     1.672336    0.4020336 -89.71  0.005020145    4.886    0.795
         2  -9.6881     21.7770      6.9604   6.5846555354e+01   7.7312013257e+01    0.2779785    0.1603799   7.36  0.001200711    2.726    0.633
         3  -9.3851    141.5359    249.0168   8.1933372682e+01   8.0297856584e+00    0.1296684     0.107257 -33.80 0.0007248393    1.540    0.350
         4 -10.9742     90.1483    248.3391   9.1937655112e+01   1.4176359559e+01     0.324213     0.304038  63.48  0.002025499    1.322    0.243
         5  -9.2973     95.4547    249.5157   9.0965764813e+01   1.3390962845e+01     0.164486   0.08664554  23.54  0.000619613    1.687    0.407
         6 -10.6199     82.1681    248.5986   9.3566599893e+01   1.5045337114e+01    0.2765454    0.2176413  80.39  0.002092402    1.586    0.370
         7 -14.6947     65.7191    213.7556   9.4496607987e+01   2.2843815376e+01     2.498888    0.9159158  50.45   0.01121844    2.549    0.608
         8 -13.8508     44.1958    245.2411   1.0109994989e+02   1.9657377613e+01     3.120425    0.6685374  27.04   0.01203876    4.016    0.751
         9  -9.6440     65.7520    247.9160   9.6849310939e+01   1.6967775234e+01    0.3887624    0.2207043  17.04  0.002319049    1.968    0.492
        10 -11.1750    121.0194    246.1848   8.5598061891e+01   1.0857307628e+01    0.2745523    0.2514102  65.82  0.002215653    1.448    0.309
        11 -11.4980    111.6164    245.1272   8.7358945552e+01   1.2132129103e+01    0.3617926    0.2894875  35.12  0.002615516    1.112    0.101
        12 -10.9790    116.2026    244.2173   8.6360361600e+01   1.1713323787e+01    0.2707474    0.1901591  54.95  0.001850023    1.663    0.399
        13 -12.0244     90.7099    238.5308   9.1037465625e+01   1.5618017382e+01     0.587807    0.2816757  44.73  0.002829819    1.733    0.423
        14 -11.3113     64.7573    232.7651   9.6087827315e+01   1.9560772860e+01    0.5242176    0.3428938 -12.41  0.001554375    2.680    0.627
        15 -12.9524     82.7967    226.6193   9.1723358662e+01   1.8513305208e+01    0.7296269    0.5007954  19.78   0.00461929    1.456    0.313
        16 -11.5791     87.7198    216.0611   8.9689867473e+01   1.9741770473e+01    0.3862309    0.1968817 -55.56   0.00208947    2.370    0.578
        17 -12.4156     92.9788    225.2108   8.9387887191e+01   1.7507243393e+01    0.5769053    0.3715366  73.10   0.00338514    2.134    0.531
        18 -11.0349     72.5343    235.8114   9.4641744505e+01   1.8170883769e+01    0.4715736    0.2523612 -41.40  0.002567515    2.968    0.663
        19 -11.3450     74.8690    229.3564   9.3663942392e+01   1.8986481518e+01     0.492776    0.2165121  45.04  0.002033865    1.823    0.452
        20 -12.0670    104.4791    234.6694   8.7834477695e+01   1.4561769785e+01    0.4935039    0.2609979 -63.53  0.002330277    2.579    0.612
        21 -12.7419     97.0908    233.6028   8.9278238878e+01   1.5632276912e+01    0.8266447    0.3339516  44.65  0.003497371    2.136    0.532
        22  -9.6842     77.9123    240.9888   9.3887665948e+01   1.6715464933e+01    0.1783793    0.1273472  40.55  0.000720304    1.066    0.062
        23  -9.8314     63.7978    240.3248   9.6781824915e+01   1.8402087981e+01    0.2815734     0.144932  19.88  0.001553742    2.071    0.517
        24  -9.9219    144.4608    239.9992   8.0392114313e+01   8.8599972416e+00    0.1885214    0.1158779  28.21 0.0006228397    1.231    0.188
        25 -10.6007    117.6245    238.3912   8.5506072758e+01   1.2384679371e+01    0.2835448    0.1693417  -8.56  0.001488982    2.848    0.649
        26  -9.2169    231.2774    237.8118   6.5125998824e+01  -8.3161476092e-01       0.1364    0.1088359 -10.68 0.0008336512    1.449    0.310
        27  -8.3871    217.3223    238.6908   6.7410670977e+01   5.4299878088e-01   0.08767176   0.07281844  26.10 0.0007036125    1.647    0.393
        28 -11.2656    131.1854    235.5147   8.2486924030e+01   1.1120809959e+01    0.3495789    0.1591552 -40.59  0.001885064    2.836    0.647
        29 -10.4269    244.9272    236.1989   6.2878402904e+01  -2.0496476699e+00    0.1414396    0.1052886   7.03 0.0007556239    1.257    0.204
        30 -10.3427    227.8796    233.9099   6.5106085550e+01  -9.6138759450e-02    0.2938508    0.1223375 -27.28  0.001803212    2.337    0.572
        31  -8.8487    189.2166    235.9980   7.1712728119e+01   3.9779376662e+00     0.122736   0.08049417 -28.89 0.0004856599    1.664    0.399
        32 -11.0688    125.4662    236.4785   8.3732451647e+01   1.1694543576e+01    0.2504295    0.1689899  42.18  0.001669094    1.363    0.266
        33 -10.4224     80.6600    233.5574   9.2747947034e+01   1.7604482042e+01    0.2888612    0.1454059  30.94  0.001646307    1.549    0.354
        34 -10.8276     52.3729    231.7084   9.8682541960e+01   2.1097804014e+01    0.4681641    0.2809611  79.55  0.002326223    1.913    0.477
        35 -13.2923     10.9164    177.5836   1.0583931431e+02   3.5957211487e+01     1.272803    0.7213566  13.58  0.006805854    2.094    0.522
        36 -11.3709    111.1068    233.9042   8.6389042134e+01   1.3861825401e+01    0.3688332    0.1927664  57.01  0.001888132    2.715    0.632
        37  -8.8543    177.5991    231.7938   7.3212808363e+01   5.8591298440e+00    0.1298705    0.1051546 -42.36 0.0009590051    1.740    0.425
        38  -9.3566    239.3179    231.6597   6.3064357451e+01  -1.0608092997e+00   0.08346244   0.07305778   7.42 0.0007049147    1.710    0.415
        39  -9.0961    206.7702    231.5505   6.8143919660e+01   2.4576621399e+00    0.1388151   0.08264534  33.61 0.0008041137    1.624    0.384
        40 -10.5723    143.2508    230.6066   7.9539725659e+01   1.0296054256e+01    0.2181304    0.1229508  23.70  0.001293174    1.500    0.333
        41 -11.6653    122.8205    230.9811   8.3680655923e+01   1.2835889336e+01    0.3024351    0.2082707  25.73  0.001953061    1.171    0.146
        42  -9.0058    192.2078    229.9982   7.0393104765e+01   4.3213771245e+00     0.148677    0.1124404   7.30  0.001118408    1.059    0.056
        43 -10.5672    101.8478    226.8169   8.7633843200e+01   1.6135673318e+01    0.1749169    0.1372318  24.26  0.000418416    1.146    0.128
        44 -10.9974    108.1023    224.8380   8.6101708860e+01   1.5664790897e+01    0.2067997    0.1632914  70.52  0.001314826    1.607    0.378
        45 -10.7682     63.4456    223.5191   9.5736780234e+01   2.1322434947e+01    0.4687575    0.1987121  43.90  0.002462527    1.803    0.445
        46 -11.9325    122.6147    221.9970   8.2725133939e+01   1.4239833096e+01    0.3731286    0.2324927 -58.90  0.002247324    2.134    0.531
        47  -9.6203    131.8179    222.1680   8.0833939702e+01   1.3006161787e+01     0.159695    0.1214041   7.70  0.000471619    1.329    0.248
        48 -10.9695    102.3641    220.6199   8.6902392845e+01   1.7092445411e+01    0.2157672    0.1458131 -48.37 0.0009229549    1.840    0.456
        49  -9.3670    197.2411    218.7625   6.7945528685e+01   5.0458121773e+00    0.1659721   0.07648207 -24.68 0.0008882756    2.454    0.593
        50 -10.7601    115.4105    217.8616   8.3783531728e+01   1.5849581688e+01    0.2571317    0.1398838  19.16  0.001322144    1.985    0.496
        51  -8.7151    223.3934    216.2766   6.3261207949e+01   2.2332920026e+00    0.1140855   0.06326173   6.54 0.0006993875    1.741    0.426
        52 -12.3188     96.6188    212.8521   8.7370537644e+01   1.9169956314e+01     0.343413    0.3280549  10.30  0.002485987    1.212    0.175
        53 -13.0076     98.7162    208.0798   8.6387190750e+01   1.9743086315e+01    0.7769488    0.2818818  32.60  0.003429891    2.232    0.552
        54 -12.7198     84.0384    210.0929   8.9956728227e+01   2.1284931261e+01    0.6607768    0.4547292  -7.07  0.003459183    2.186    0.543
        55  -8.7768    166.4916    214.5398   7.2936249383e+01   9.5194567346e+00    0.1189469   0.09287326  16.03 4.949861e-05    1.019    0.019
        56  -9.3261    128.0000    213.9824   8.0636544614e+01   1.4792420861e+01    0.1684503   0.07070512 -52.57 0.0008003008    2.928    0.658
        57  -8.7780    186.4812    212.9839   6.8998921868e+01   7.1140087006e+00    0.1591763   0.08376008 -13.78 0.0007821087    2.532    0.605
        58 -13.8511      5.8667    204.5854   1.0792533526e+02   3.0660087641e+01      2.20232    0.7363483  87.62   0.01028821    3.042    0.671
        59 -11.1565    131.8166    207.5788   7.9008945071e+01   1.5301906499e+01    0.3601605    0.1687822  28.22  0.001762129    1.913    0.477
        60 -10.8668     78.4856    207.0410   9.0955775182e+01   2.2554332626e+01    0.2127306     0.190432  -0.89  0.001439837    1.349    0.259
        61 -10.2541    124.0404    205.9910   8.0482363333e+01   1.6648139335e+01    0.1804096    0.1482061  27.90  0.001177932    1.011    0.011
        62  -9.1265    240.7760    204.3918   5.8782817835e+01   1.5429652890e+00    0.1450156    0.0787792  19.66 0.0006730787    1.641    0.391
        63  -9.2112    235.1981    202.4893   5.9314319762e+01   2.3832558806e+00    0.2639522    0.1174721 -15.34  0.001378143    2.611    0.617
        64 -12.3146     87.0560    201.9862   8.8438084898e+01   2.2410282314e+01    0.5452261    0.2241689  38.53  0.002550534    1.920    0.479
        65 -10.7947    122.2321    199.9977   8.0100986509e+01   1.7928035400e+01    0.3270752    0.1334895  44.98  0.001419575    2.432    0.589
        66 -15.0196     35.7564    214.1775   1.0141340585e+02   2.6039482165e+01     2.926997     1.527412  59.75   0.01682436    1.699    0.412
        67 -12.0127     68.4065    195.6256   9.2309314214e+01   2.6045265790e+01    0.4287321    0.3607662 -17.84  0.002694743    1.563    0.360
        68 -12.2596     26.0935    234.7008   1.0441040130e+02   2.3214626791e+01    0.5284097    0.4058686 -77.03  0.003298401    1.605    0.377
        69  -9.7604    143.3856    192.1833   7.4360875415e+01   1.6175848999e+01    0.1565896    0.1243122 -59.75 0.0005827408    1.656    0.396
        70  -8.7163    247.3310    190.3002   5.5561534369e+01   2.3106393490e+00    0.1117226   0.06448344   1.58 0.0002993638    1.647    0.393
        71 -10.6198     45.7530    189.3962   9.7471485296e+01   3.0003579256e+01    0.2449984    0.1998669  22.48  0.001027829    1.321    0.243
        72  -9.8601     41.1550    189.1362   9.8624789711e+01   3.0558295484e+01    0.2559937    0.1521515  37.08  0.000854592    1.390    0.280
        73 -11.7821    121.2174    187.9351   7.8670069765e+01   2.0231765457e+01     0.411485    0.2563517 -19.35  0.001944566    2.485    0.598
        74 -11.7055     92.2638    187.8149   8.5577256347e+01   2.4464097916e+01    0.3862776    0.2535389 -22.05  0.001887053    2.384    0.580
        75  -9.9525     30.5717    187.4105   1.0121822392e+02   3.2017746549e+01    0.2368614    0.1801021  50.49  0.001360197    1.058    0.054
        76  -9.5036    242.3695    190.8020   5.6358804238e+01   2.8335747664e+00    0.1564217   0.08017108 -19.22 0.0007557427    1.732    0.423
        77  -9.5268     78.6819    184.3307   8.8573285444e+01   2.7039797413e+01    0.1411603   0.08669636  58.08 0.0006587925    1.687    0.407
        78  -8.6548    190.8648    183.1288   6.3455686748e+01   1.0554540790e+01    0.1684454    0.1204547   7.62 0.0004039486    1.304    0.233
        79 -11.7318    104.9269    187.5648   8.2461060355e+01   2.2705744628e+01    0.4342498     0.245112  12.87  0.001888049    2.598    0.615
        80  -8.4636    230.6717    195.6550   5.8904453751e+01   3.6817612049e+00    0.1179397   0.06767219   0.72 1.186579e-05    1.750    0.428
        81 -10.0035     28.9314    181.3338   1.0128902386e+02   3.3507033350e+01    0.1812377     0.140706  42.96 0.0009613687    1.119    0.106
        82 -10.5984     82.4138    177.7615   8.6840053063e+01   2.7912869973e+01    0.1800893    0.1233786 -51.67 0.0009599229    1.676    0.403
        83  -8.8104    206.6144    176.2445   5.9483488282e+01   9.2493706984e+00    0.1560438   0.09810878 -20.01 0.0002264766    1.502    0.334
        84 -11.3509    121.4973    175.2644   7.6703318476e+01   2.2572323110e+01    0.2725111    0.2311155  29.83 0.0007177006    1.054    0.051
        85 -10.8398    114.7312    176.0165   7.8448815709e+01   2.3484475861e+01    0.1843178    0.1762576  29.60 0.0005308386    1.081    0.075
        86 -11.4212    100.8235    175.8974   8.1875221592e+01   2.5634311588e+01    0.3465707    0.2012336  39.84 -0.0006383859    1.503    0.335
        87 -12.3799    107.4920    171.0193   7.9478813054e+01   2.5612714941e+01    0.7089537     0.254696 -42.16   0.00243425    3.957    0.747
        88 -10.4887    112.0325    179.4941   7.9621519450e+01   2.3218087006e+01    0.2148798    0.1182899  34.37  0.001011057    1.594    0.373
        89 -11.5244      2.3070    225.8596   1.0916879500e+02   2.6885641846e+01    0.2576897    0.1925352  66.03 0.0008795175    1.196    0.164
        90  -9.2317     65.3258    172.3043   9.0749393398e+01   3.1402803718e+01    0.1280923    0.1037479 -19.03 0.0002927056    1.644    0.392
        91 -10.8261    133.9026    170.4026   7.2991295654e+01   2.1507590801e+01    0.2196926    0.1896891 -60.80 0.0007759613    1.379    0.275
        92 -12.8120      7.2486    226.9594   1.0815003538e+02   2.6276921736e+01    0.6111767    0.3559162 -35.23  0.003372122    3.380    0.704
        93 -13.4521     10.9635    158.1992   1.0501016732e+02   4.0423827012e+01    0.9097189    0.5946186 -86.06  0.005220429    1.442    0.306
        94  -9.7076    168.7225    249.3240   7.6973173366e+01   4.8095411215e+00    0.2187007    0.1021993  15.56  0.001132904    2.359    0.576
        95 -13.2071      4.5834    146.7114   1.0639703683e+02   4.3667256844e+01     1.495229    0.4690867 -82.22  0.005709465    2.906    0.656
        96 -12.1698     75.8669    159.8212   8.6296283582e+01   3.2804264347e+01    0.6349322    0.3096104  60.57  0.002469781    2.713    0.631
        97  -8.6440    225.8820    161.8036   5.3736022165e+01   8.4273187955e+00    0.1454929    0.1265851 -22.71 0.0003700647    1.299    0.230
        98 -10.6180    124.8775    159.4670   7.3241249085e+01   2.5126616850e+01    0.2892128    0.1805288 -32.14  0.001347863    1.983    0.496
        99 -11.6201      7.7698    168.2738   1.0632858265e+02   3.8315594797e+01    0.6099225    0.3413387 -33.48  0.002099454    2.910    0.656
       100  -8.8871    207.3402    158.2628   5.6038768396e+01   1.1626209433e+01    0.1662043    0.1033184 -37.74 0.0004770936    1.616    0.381
       101 -11.7770    100.0772    156.2161   7.9061686495e+01   2.9927563958e+01    0.4915117    0.2398578  23.44  0.001871035    2.659    0.624
       102 -12.0461     26.6090    154.7036   1.0019828478e+02   3.9915882949e+01    0.4777045    0.2004111 -79.82  0.002078216    2.340    0.573
       103 -10.8894     46.3392    165.8886   9.5375256107e+01   3.5185503633e+01    0.3345668    0.1341081  37.21   0.00145044    2.045    0.511
       104 -11.6192     85.5071    152.4930   8.2494737384e+01   3.3063623975e+01     0.489656     0.185894  35.99  0.001856796    2.349    0.574
       105  -8.7863    209.7980    150.6266   5.4143314307e+01   1.2326590056e+01    0.1500074     0.115429  44.25 0.0002741704    1.536    0.349
       106  -9.9945     56.4710    151.0000   9.0822712978e+01   3.7513090575e+01     0.302408   0.07476182  28.47 0.0009252976    3.859    0.741
       107 -10.4761     94.3078    147.9845   7.9264849278e+01   3.2703807696e+01    0.1975929    0.1872701 -84.76 0.0003988879    1.102    0.092
       108 -12.0358     28.3086    145.4102   9.8954687677e+01   4.2042542610e+01     0.333427    0.2847777 -74.55  0.002012737    1.215    0.177
       109  -8.5430    208.6951    144.3102   5.3059542212e+01   1.3404560427e+01     0.114175   0.09879269 -57.68 0.0003268216    1.612    0.380
       110 -12.4446      3.3026    249.6226   1.0937698753e+02   2.2693841860e+01    0.4552465    0.2611865  34.96  0.001997426    1.301    0.231
       111 -11.3499      4.9923    165.5100   1.0699117415e+02   3.9163252107e+01    0.4419904    0.3280931  10.38   0.00271738    1.624    0.384
       112 -12.1095     23.0107    133.8237   9.9704353398e+01   4.5462093427e+01    0.4071399    0.2477872  53.66   0.00207025    1.499    0.333
       113 -13.6078     13.8108    240.9444   1.0712601617e+02   2.3250104019e+01    0.6690844    0.4539428  84.56  0.001019684    1.574    0.365
       114 -12.1153     11.4683    126.5063   1.0308284846e+02   4.8268472564e+01    0.3993554     0.262044 -50.43  0.002104782    1.719    0.418
       115 -10.7744     96.7272    130.2463   7.5254228607e+01   3.6399383634e+01    0.3610434    0.2204314  22.88   0.00150648    2.042    0.510
       116 -10.8850     31.3243    129.0718   9.6425577551e+01   4.5910803851e+01    0.2346723    0.1982781  12.18  0.001333852    1.379    0.275
       117  -9.3462     93.4110    122.7114   7.4683024159e+01   3.8769642186e+01    0.2870362    0.1491373 -60.33 0.0006519161    2.080    0.519
       118  -9.5436    249.6243    122.1797   4.2702910790e+01   1.0021999771e+01    0.1704683   0.09110448 -21.58 0.0005362006    1.651    0.394
       119 -10.8872     19.4028    122.0782   9.9939452640e+01   4.8812972387e+01    0.2903904    0.1250678  55.48  0.001031977    2.293    0.564
       120 -11.2775      2.9045    121.0705   1.0575710492e+02   5.0229212638e+01    0.3136556    0.2636685 -85.49  0.001938848    1.114    0.103
       121 -14.0415     12.0609    232.3819   1.0727030860e+02   2.4892071590e+01     1.538144    0.7463216 -58.68  0.008905332    2.930    0.659
       122  -9.3375    170.8712    169.1177   6.4786761744e+01   1.5719549272e+01    0.1810961    0.1713057  22.99 0.0004421124    1.210    0.174
       123 -11.5914     29.9243    113.5760   9.5150621007e+01   5.0121634662e+01    0.4146077    0.2194409  29.41  0.001882795    1.875    0.467
       124  -9.4817     79.5161    111.4702   7.6702241896e+01   4.3951176026e+01    0.1507733    0.1454912  75.32 3.308996e-05    1.020    0.019
       125  -9.1419     56.3275    111.3091   8.4878819427e+01   4.7605260650e+01    0.1495326    0.1131657 -29.79  0.000661368    1.659    0.397
       126 -11.2200      7.4830    111.0192   1.0345937907e+02   5.2576192070e+01    0.2493185    0.2046579  67.15 0.0008628352    1.098    0.090
       127 -11.6738      9.4282    104.6527   1.0220898614e+02   5.4139674331e+01    0.4562373    0.3040456 -73.69 0.0007965849    1.358    0.264
       128  -8.9563    249.6337    167.7051   5.1365837365e+01   4.5595578568e+00    0.1160076   0.06900477   2.72 0.0007029655    1.718    0.418
       129  -8.6943    105.0536    107.9868   6.7709159489e+01   4.0021941756e+01    0.1801333    0.1730491  58.27 0.0003346816    1.020    0.020
       130 -10.4599      3.4645    105.9535   1.0466696740e+02   5.4143818607e+01    0.3020908    0.2150046 -51.56  0.001672233    1.499    0.333
       131  -8.5360     90.4948    102.4669   7.0876396294e+01   4.4169368166e+01    0.1542595    0.1479677  76.85  0.000809691    1.015    0.014
       132  -8.9839    233.0431    100.7225   4.0202924461e+01   1.5407569626e+01     0.165578    0.1445869 -23.17 0.0003743874    1.067    0.063
       133  -8.8413     49.6634     91.6616   8.3494536589e+01   5.3682885805e+01    0.1566669    0.1102955 -31.69 0.0007051331    1.754    0.430
       134  -9.7783     11.8151     78.1675   9.8329574334e+01   6.1078765505e+01    0.1899462    0.1458619 -49.57 0.0004122548    1.300    0.231
       135  -8.2714      8.5207     43.5083   9.4013010247e+01   7.0349051275e+01    0.1332264    0.1192283 -61.86 -3.477643e-05    1.015    0.015
       136  -8.9375     67.9061     24.9295   5.0022131379e+01   6.5469498670e+01    0.2301538    0.1786571 -74.71  0.001124157    1.701    0.412
       137  -9.4785     14.7405     18.0649   7.9628867628e+01   7.5944484900e+01    0.1828217    0.1529763 -44.99 0.0003643972    1.094    0.086
