#   1 NUMBER                 Running object number                                     
#   2 MAG_AUTO               Kron-like elliptical aperture magnitude                    [mag]
#   3 X_IMAGE                Object position along x                                    [pixel]
#   4 Y_IMAGE                Object position along y                                    [pixel]
#   5 X_WORLD                Barycenter position along world x axis                     [deg]
#   6 Y_WORLD                Barycenter position along world y axis                     [deg]
#   7 A_WORLD                Profile RMS along major axis (world units)                 [deg]
#   8 B_WORLD                Profile RMS along minor axis (world units)                 [deg]
#   9 THETA_WORLD            Position angle (CCW/world-x)                               [deg]
#  10 FWHM_WORLD             FWHM assuming a gaussian core                              [deg]
#  11 ELONGATION             A_IMAGE/B_IMAGE                                           
#  12 ELLIPTICITY            1 - B_IMAGE/A_IMAGE                                       
         1 -13.4834    167.6665     56.8052   6.4649902544e+01   3.5663635733e+01     2.303603     1.350108  19.21  0.006989108    2.596    0.615
         2 -13.1078    182.0415     41.3808   5.7368760688e+01   3.4146993241e+01    0.9678282    0.7736844 -35.34  0.002793803    1.199    0.166
         3 -12.6822    187.3076     34.8106   5.4560690038e+01   3.3612836897e+01    0.6227048    0.5032145  -0.36  0.001577455    1.313    0.238
         4 -13.9487    203.9087     10.1886   4.5213633031e+01   3.2002159655e+01     1.170232     1.017913  15.18  0.003941126    1.262    0.208
         5 -11.5444    190.5569     15.0532   4.7959203115e+01   3.4874990085e+01    0.4152151    0.3376658  78.60  0.001398316    1.271    0.213
         6 -12.4968    236.0849      2.9812   4.0902551182e+01   2.5139293995e+01    0.8640769    0.3448387  65.62  0.003941095    2.597    0.615
         7 -11.7039    151.0573    196.4180   1.0007855817e+02   1.6087119004e+01    0.2956681    0.2633632  40.07  0.001810781    1.155    0.134
         8 -13.5846    246.2542    238.8741   9.0149567153e+01  -1.7384655264e+00     1.443946    0.5657153 -22.10  0.008815567    2.740    0.635
         9 -17.9505     44.9159    238.8563   1.2410058517e+02   2.3233727223e+01     6.061812     5.046171  44.12   0.05122394    1.265    0.209
        10 -10.7249     81.9251    195.8399   1.1396460087e+02   2.6021764843e+01     0.315241    0.2681781  -8.39  0.001196996    1.660    0.398
        11 -11.6857     68.5152    194.0166   1.1658714175e+02   2.8007056676e+01    0.3345882    0.2654907 -41.23  0.001515748    1.734    0.423
        12 -10.3292    156.7576    189.9883   9.8031175922e+01   1.6146795635e+01    0.2013907    0.1494504  34.23 0.0003013601    1.130    0.115
        13 -11.5059    150.9574    188.5361   9.8943060787e+01   1.7269148804e+01    0.3170147    0.1681583 -52.03  0.001653222    2.439    0.590
        14 -19.1192     31.0675    101.8713   1.1603704370e+02   5.1775136063e+01      16.5663    0.9007567 -69.73   0.02769396   15.517    0.936
        15  99.0000     59.9124    187.9050   1.1787269226e+02   3.0138363960e+01    0.2383935    0.1214726  85.91 0.0009186519    2.463    0.594
        16 -12.6406    145.6598    181.5285   9.8930769950e+01   1.9185586661e+01    0.4243928    0.3757225 -68.33  0.001970075    1.440    0.305
        17 -12.5209    142.4758    174.8689   9.8534538879e+01   2.0768139242e+01     0.534824    0.4101681  34.70   0.00286882    1.142    0.125
        18 -10.9792    188.8947    176.8880   8.9822316027e+01   1.2844574798e+01    0.5749545    0.3354983 -50.87  0.002400346    2.659    0.624
        19 -10.1973     67.5081    172.1318   1.1469222254e+02   3.2240146975e+01    0.6157351    0.1157206  45.57    0.0020656    4.479    0.777
        20 -11.8530     71.6960    209.2768   1.1723747038e+02   2.4983056940e+01    0.4277965    0.2595666  19.61  0.001747108    2.227    0.551
        21  -9.4484    240.3163    169.3137   7.9803340749e+01   5.6447577515e+00    0.1243339   0.07414792  10.06 0.0002601919    1.644    0.392
        22  -9.6382    187.1904    166.0958   8.8188197494e+01   1.4615201667e+01    0.2773791    0.1651846 -41.33  0.001480829    1.933    0.483
        23  -9.5516    116.5915    161.8443   1.0206075229e+02   2.7232357368e+01    0.3154017    0.1535164  42.76  0.001283288    1.851    0.460
        24 -11.1328     95.7151    156.8569   1.0614858249e+02   3.1422259215e+01    0.2465518    0.2317056  25.58 0.0003691835    1.167    0.143
        25 -12.0948    100.6000    150.6950   1.0402308515e+02   3.1908758587e+01    0.5470242    0.4218087 -27.14  0.001964645    1.690    0.408
        26 -11.0306    133.8396    145.9122   9.5347729956e+01   2.7286904183e+01     1.021766     0.275784 -53.27  0.002887399    5.733    0.826
        27  -9.4360    113.3136    151.5044   1.0111887825e+02   2.9724301196e+01    0.2574914    0.1605957 -71.00  0.001240169    2.162    0.538
        28  -9.8854    174.8016    148.9285   8.7236499968e+01   1.9345461135e+01    0.2330008    0.1898563 -56.09 0.0009379353    1.613    0.380
        29 -10.1001    143.8654    146.1954   9.3156866443e+01   2.5442550096e+01    0.3288214    0.1819402 -62.20  0.001345328    2.982    0.665
        30 -11.1705    110.4566    137.0978   9.9232725997e+01   3.3055393596e+01    0.4621441    0.2969365 -27.19  0.002134853    2.262    0.558
        31 -11.7871     99.4253    136.5106   1.0190308682e+02   3.4995622773e+01    0.2717372    0.2601902 -12.39   0.00169172    1.174    0.148
        32 -11.0199    105.9540    130.7778   9.9157692337e+01   3.5112774792e+01    0.3514847    0.3068058 -75.20  0.001158035    1.217    0.178
        33 -10.0380    135.7659    129.5820   9.1584822099e+01   2.9996505881e+01    0.3609983     0.115922 -49.94   0.00118192    3.654    0.726
        34 -10.2033    116.7353    128.5080   9.5969262361e+01   3.3705487973e+01    0.2622878     0.224731   6.47 0.0008112135    1.355    0.262
        35 -10.0718    160.4911    127.4469   8.5578058554e+01   2.5598809948e+01    0.2947436     0.231646 -63.99  0.001529412    1.696    0.410
        36 -10.4698    104.8054    124.0901   9.8117910182e+01   3.6707113014e+01    0.2622932    0.2251198 -27.23 0.0006508692    1.327    0.246
        37  -9.4577    120.8005    123.2122   9.3825468643e+01   3.4037247412e+01    0.1924244    0.1655534  -9.66 0.0007236207    1.342    0.255
        38  -8.9993    154.3533    120.6733   8.5343113921e+01   2.8009964568e+01    0.1427298    0.1156287 -89.76 0.0002499965    1.768    0.434
        39  -8.9667    135.0000    119.9604   8.9617355305e+01   3.1982311026e+01    0.2318524   0.08109731 -44.36 0.0008008011    2.931    0.659
        40  -9.4699    111.6176    118.0342   9.5037533458e+01   3.6775241514e+01    0.2272539    0.1845056  51.66 0.0003699728    1.242    0.195
        41  -9.7844    231.1557    113.7965   6.9641515873e+01   1.3785733633e+01    0.2177646    0.1879542  -4.82 0.0007111766    1.042    0.041
        42 -10.1860    168.1427    113.0461   8.0560136995e+01   2.6508225958e+01    0.3350648    0.2738095 -80.20  0.001279078    1.757    0.431
        43 -11.1031    119.3046    109.8808   9.1143070875e+01   3.7023965608e+01    0.5426335    0.3376395  49.81  0.002506266    1.663    0.399
        44  -9.7235    205.4915    110.1712   7.2852581718e+01   1.9248962402e+01    0.2394317    0.1892483  39.37  0.000642403    1.281    0.220
        45 -10.2983    134.5767    105.2972   8.6150666408e+01   3.4898161555e+01    0.3664012     0.141682 -40.63  0.001307876    2.635    0.620
        46  -9.3896    128.2869     95.5204   8.5131281699e+01   3.8104093891e+01    0.2649642    0.1452908  49.55  0.001104594    1.886    0.470
        47  -9.5215    160.6088    205.7701   9.9593438466e+01   1.3342024792e+01    0.1360199    0.1132993 -55.37 0.0008152322    1.643    0.392
        48 -10.4188     85.2431    240.1753   1.1709527194e+02   1.8614174164e+01    0.2620818    0.2103115 -13.45  0.000893811    2.003    0.501
        49  -9.6881     87.5546    203.4656   1.1355856058e+02   2.3995720531e+01    0.2260824    0.2027647 -69.90  0.001111098    1.324    0.245
        50  -9.4685    167.5405    228.5286   1.0134141957e+02   9.4771245289e+00    0.1651999    0.1081479 -40.13 0.0008891849    1.954    0.488
        51  -9.6255     13.6920     59.9637   1.1566086023e+02   6.3200969584e+01    0.1842317    0.1734171 -65.72 0.0004605869    1.136    0.119
        52 -12.0622    198.2307     23.0499   4.9620108622e+01   3.2169357762e+01     0.432797    0.3226498  -6.98  0.001878931    1.412    0.292
        53 -12.5848     12.2627    205.9287   1.2859508982e+02   3.1657665275e+01    0.4435588    0.1478133  36.99   0.00257223    2.235    0.552
        54 -10.9105    192.6570    194.5516   9.2108925308e+01   9.9674728830e+00    0.8319347    0.4731342 -59.76  0.003061014    6.636    0.849
