#   1 NUMBER                 Running object number                                     
#   2 MAG_AUTO               Kron-like elliptical aperture magnitude                    [mag]
#   3 X_IMAGE                Object position along x                                    [pixel]
#   4 Y_IMAGE                Object position along y                                    [pixel]
#   5 X_WORLD                Barycenter position along world x axis                     [deg]
#   6 Y_WORLD                Barycenter position along world y axis                     [deg]
#   7 A_WORLD                Profile RMS along major axis (world units)                 [deg]
#   8 B_WORLD                Profile RMS along minor axis (world units)                 [deg]
#   9 THETA_WORLD            Position angle (CCW/world-x)                               [deg]
#  10 FWHM_WORLD             FWHM assuming a gaussian core                              [deg]
#  11 ELONGATION             A_IMAGE/B_IMAGE                                           
#  12 ELLIPTICITY            1 - B_IMAGE/A_IMAGE                                       
         1  -9.3861     45.9459     21.4879   8.5499791004e+01   6.6258515924e+01    0.5840877    0.2230216 -29.40  0.002470185    2.677    0.626
         2 -11.6383     79.9663     23.4426   7.3574736246e+01   6.0599332032e+01    0.7602777    0.2835304  38.07  0.003010812    2.806    0.644
         3  -9.4180     26.9338     21.8095   9.4088525389e+01   6.8377138805e+01    0.6126484    0.2024668 -36.17  0.002684457    2.633    0.620
         4  -9.2858     13.3546     18.1822   9.9053213830e+01   7.0176730101e+01    0.4269673     0.217132  -9.41  0.001714001    2.463    0.594
         5  -8.6268     71.4197      8.8551   6.9640354517e+01   6.3957689960e+01     0.311367    0.2370372 -49.03  0.001130372    1.937    0.484
         6  -9.3309     79.4356     12.7886   6.8878119201e+01   6.2029870050e+01    0.4062363    0.2336409  47.12  0.001598655    1.738    0.425
         7  -8.8056     74.4936     13.4828   7.0828899502e+01   6.2866848716e+01     0.354021    0.2127209  12.02  0.001491754    1.838    0.456
         8  -9.5471     64.4107     14.1654   7.4703853400e+01   6.4540663125e+01    0.3559724    0.2117259  17.71  0.001201284    1.804    0.446
         9  -9.6553    133.9145     13.6130   5.5436890398e+01   4.9899081869e+01    0.2708541    0.2133425  31.75 0.0003399898    1.214    0.176
        10  -8.3097     87.9330     13.2743   6.6475901969e+01   6.0317189250e+01    0.3432698    0.1682695  21.32  0.001359072    2.727    0.633
        11  -9.9016     31.4827     10.8226   8.6830829945e+01   6.9631810855e+01    0.4818655    0.2805919   8.55   0.00043029    1.899    0.473
        12  -9.3053     31.7760      6.2473   8.4347515517e+01   7.0248028958e+01    0.3246482    0.1871209  14.20  0.000424636    1.832    0.454
        13  -8.4817     96.7295     12.3209   6.3540090548e+01   5.8605024536e+01    0.3724557    0.1693753  35.30  0.001502425    2.242    0.554
        14  -9.2435    125.2109     10.3151   5.5921683792e+01   5.2335164168e+01    0.2318076    0.2133235  10.64 0.0003559931    1.082    0.076
        15  -9.5957     20.3106      8.7878   9.1263795420e+01   7.1109033130e+01    0.2730625    0.1713515 -11.37 0.0007825085    1.466    0.318
        16 -10.1615    119.2335      6.9035   5.5815977373e+01   5.4072465025e+01    0.2505378    0.2128515  21.92 0.0002203895    1.092    0.084
        17  -9.5510     46.4472      6.2508   7.7786237535e+01   6.8321885631e+01    0.4126615    0.2190919  22.26 0.0004674013    2.004    0.501
        18  -9.0379     41.0216      6.2011   8.0098474283e+01   6.9083254771e+01    0.3192848    0.1880477 -12.89  0.001062889    1.572    0.364
        19  -8.5211    179.0489      6.2413   4.5834622345e+01   3.9081953159e+01    0.2752785    0.1538234  21.59  0.001155727    2.548    0.608
        20  -7.9682    170.8661      6.8864   4.7089365124e+01   4.1136623962e+01    0.1984311    0.1712768  40.96 0.0002688653    1.171    0.146
        21  -7.7476    155.9891      7.1724   4.9304840223e+01   4.4942255207e+01    0.2434382     0.123221  43.98 0.0005391593    1.939    0.484
        22  -8.7016    137.6842      5.8447   5.1835261961e+01   4.9686497118e+01    0.2351538     0.191061  48.43 0.0003408616    1.104    0.094
        23  -8.8269    131.5352      5.4738   5.2811518300e+01   5.1236610395e+01    0.3540488    0.2023883 -39.05  0.001671421    1.977    0.494
        24  -8.3925    134.1892      2.8539   5.1340435338e+01   5.0804135505e+01    0.2149095    0.1772057  40.53  0.000291353    1.097    0.089
        25  -8.6365     99.8834      6.3489   6.0073903053e+01   5.8519781304e+01    0.2574542     0.194425 -62.25 0.0008759051    1.985    0.496
        26  -9.6047     77.3471      6.6889   6.6641922401e+01   6.3092407217e+01    0.3413202    0.2092633  24.81  0.001674386    1.554    0.356
        27  -9.9974      8.1247      5.3984   9.5976158310e+01   7.2686024291e+01    0.4886613    0.2235217   6.44  0.001737032    2.841    0.648
        28  -8.6357     91.8860      5.4979   6.1797900715e+01   6.0305947271e+01    0.3708662    0.1789682  48.26  0.001223278    1.845    0.458
        29  -9.6871     84.9138      5.4439   6.3742656240e+01   6.1739127447e+01     0.255657    0.2125406  -8.60  0.001595444    1.170    0.145
        30  -8.1857    125.7069      3.8700   5.3300188228e+01   5.2790006750e+01    0.2092719    0.1598465  29.29  0.000513792    1.239    0.193
        31  -8.4745    110.2116      1.6044   5.5581288791e+01   5.6624486927e+01    0.2062189    0.1594749  41.21  0.001189949    1.127    0.113
        32  -8.4500     57.5256      3.2643   7.1787516013e+01   6.6967604778e+01      0.23571    0.1835879   5.86 0.0006950511    1.026    0.025
        33  -7.7202    153.4595      3.4639   4.8422425681e+01   4.5911201780e+01    0.1397848     0.123395  49.41 0.0002061814    1.047    0.045
        34  -8.0359    143.1227      2.0482   4.9533672201e+01   4.8645352041e+01    0.2009583    0.1824982  51.51 0.0003450362    1.016    0.016
        35  -8.5062    105.2622      1.8148   5.6789490280e+01   5.7729567796e+01    0.2834788    0.1250325  38.32  0.001229286    2.125    0.529
        36  -7.8578      2.8397      1.3619   9.6910226637e+01   7.3706394556e+01    0.1425306   0.08367644  -3.30  0.000535009    1.713    0.416
        37  -8.6809      1.6857     90.5224   1.2182897713e+02   5.5923283060e+01     0.227876   0.08175296 -70.75  0.001096621    2.070    0.517
        38  -8.4431    249.2738    248.8372   9.2358314910e+01  -1.0500745661e+01    0.2133557    0.1266046 -43.19  0.001257548    2.956    0.662
        39 -10.5471    205.7592    249.1866   9.9653019806e+01  -4.1532975348e+00    0.4856927    0.2563096  41.22  0.002883716    1.533    0.347
        40  -7.7779    102.6615     88.0355   8.9941477078e+01   4.4756960711e+01    0.2072232    0.1760066 -41.61 0.0002153297    1.094    0.086
        41 -10.2905     37.1091     81.4146   1.0891640630e+02   5.5428436003e+01    0.6994078     0.368584 -25.06  0.003161043    2.822    0.646
        42  -7.9190     66.0518     84.1748   1.0010400250e+02   5.1502802965e+01    0.2105934    0.1661189 -29.61 0.0004762754    1.294    0.227
        43  -7.8622     20.6546     84.6718   1.1498336711e+02   5.6059081118e+01    0.1312806   0.07225112 -42.07 0.0007050385    1.750    0.429
        44  -9.5096      8.2361     77.4333   1.1770006393e+02   5.8486518253e+01    0.4039043    0.2183042 -37.85  0.001809732    1.895    0.472
        45  -8.6356     88.1231     78.7965   9.1557921660e+01   4.9317757444e+01    0.4096579    0.2500641  -4.49  0.001513466    3.237    0.691
        46  -7.0643    250.6735     79.3198   5.6638662342e+01   1.2124071050e+01    0.1464413   0.09981654 -58.63   0.00032464    1.682    0.405
        47  -7.7752    184.3763     78.1920   6.7002299001e+01   2.8049304582e+01    0.2211807    0.1400876 -41.54 0.0005450131    1.557    0.358
        48  -8.4527     44.5788     91.8971   1.0882806960e+02   5.2305681113e+01    0.3492158    0.1896645  11.83  0.001614148    2.858    0.650
        49  -8.7360     49.8453     76.8460   1.0351478394e+02   5.5136851315e+01    0.3645328    0.1984087  10.24  0.001620027    2.915    0.657
        50  -7.9487    120.1161     76.1675   8.1340211092e+01   4.3713405517e+01    0.2374083    0.2011866   1.58 0.0005215225    1.282    0.220
        51  -9.9007     24.4833     73.2721   1.1136129358e+02   5.8324712921e+01    0.7874179    0.2678992 -36.50  0.002900972    4.051    0.753
        52  -8.0202     23.4724     69.4858   1.1085320031e+02   5.9235654807e+01    0.2011945    0.1794007 -67.19 0.0005250694    1.191    0.160
        53  -8.4446     74.7093     74.4341   9.4513874681e+01   5.2392253378e+01    0.2592616    0.1941426 -26.26 0.0001929687    1.363    0.266
        54  -7.9366    126.2393     84.0224   8.2152026078e+01   4.0834776618e+01    0.2830359    0.1668544  13.83 0.0009026598    3.563    0.719
        55  -7.5392    129.2570     69.3716   7.6676003211e+01   4.3001045168e+01    0.2068944    0.1482351  57.55 0.0009402158    1.565    0.361
        56  -8.7449     83.0003     64.7893   8.8718257072e+01   5.3063692263e+01    0.4324991    0.2685593 -10.12   0.00157573    2.468    0.595
        57 -10.3251    117.2678     66.9086   7.9077072787e+01   4.6096041605e+01    0.2723688     0.247743  10.75 0.0003326641    1.097    0.088
        58  -7.8879    106.0287     67.4673   8.2476912408e+01   4.8312362373e+01    0.2189588    0.1458457  40.17 0.0006895807    1.573    0.364
        59  -9.3085     17.7111     62.3017   1.1124600117e+02   6.1210460076e+01    0.5004488     0.221845 -30.13  0.002344826    2.791    0.642
        60  -9.5442     62.0180     61.3752   9.4729122150e+01   5.6929298471e+01     0.634294    0.2634474  24.74  0.002162611    3.537    0.717
        61  -9.7880     37.2074     59.3075   1.0316139932e+02   6.0240435290e+01    0.4584978    0.2201805 -31.43  0.001350066    2.383    0.580
        62  -8.8257     25.9063     60.5218   1.0774448484e+02   6.0983875413e+01    0.3736846    0.1790335 -27.79  0.001749212    2.643    0.622
        63  -8.3495     11.4980     61.0260   1.1324768752e+02   6.1883581822e+01    0.1856821   0.09166095 -61.37 0.0007760897    1.545    0.353
        64  -7.2691    123.6676     60.6953   7.5209855023e+01   4.5822433982e+01    0.1577056    0.1151128  11.96 0.0007037838    1.660    0.398
        65  -8.5066     96.3792     59.3974   8.2597595785e+01   5.1716127553e+01    0.2836518    0.1216937 -27.93 0.0009468395    3.122    0.680
        66  -8.0639    111.2324     58.3246   7.7802624764e+01   4.8940865792e+01    0.2850978    0.2110337  13.71   0.00113695    1.567    0.362
        67  -8.2062    213.6481     56.4428   5.5792293990e+01   2.4140859773e+01    0.2917965    0.1819592 -24.89 0.0009410275    1.648    0.393
        68  -9.8503     75.2467     50.0535   8.6114884494e+01   5.7157196207e+01    0.3491568    0.2503623 -11.74 0.0002234726    1.492    0.330
        69  -7.8524     88.6952     53.6651   8.2957845646e+01   5.4193200665e+01    0.1478919    0.1045224  -5.15 0.0007038981    1.666    0.400
        70  -8.5205    118.5211     50.9916   7.3140624131e+01   4.8619095201e+01    0.2694643    0.2124861  45.99  0.000568996    1.293    0.226
        71  -8.9741     45.2315     49.0903   9.6837305028e+01   6.1473118338e+01    0.3896593    0.1958351 -29.14  0.001306194    2.193    0.544
        72  -7.9262    106.5302     48.7237   7.5653650128e+01   5.1574489278e+01    0.2816066    0.1742933  15.39  0.001168015    2.248    0.555
        73  -9.2069     10.5936     47.1952   1.1016002566e+02   6.4841850039e+01    0.3519902    0.2033876 -44.76 0.0009025146    1.313    0.239
        74  -9.1153     13.6704     45.6951   1.0848029796e+02   6.4955146571e+01     0.507201    0.1811265 -36.87  0.002313568    2.684    0.627
        75  -9.1144      3.0809     42.9097   1.1211276345e+02   6.6131810010e+01    0.6668233    0.1304278 -58.58  0.002705171    3.094    0.677
        76  -9.1331      5.7886     34.1214   1.0841859477e+02   6.7735800478e+01    0.3620485    0.1807073  -8.33  0.001997799    2.570    0.611
        77  -8.6201      2.8131     31.6145   1.0898176133e+02   6.8384579804e+01    0.1976889    0.1630269 -78.67  0.001138258    1.589    0.371
        78  -9.0207      1.6305     27.1076   1.0808427580e+02   6.9308856122e+01     0.354156    0.1321492 -47.82  0.001921473    1.793    0.442
        79  -6.9218    142.5396     44.4520   6.4880770088e+01   4.3981776411e+01     0.150808    0.1409716  19.54  0.000371739    1.028    0.027
        80 -10.9717     83.1706     40.0675   7.9547465772e+01   5.7534264877e+01    0.3515502    0.2396731 -16.90            0    1.467    0.318
        81  -8.8490     87.3966     37.8448   7.7263868180e+01   5.7115445982e+01    0.2648197    0.2213356   9.42 0.0005651093    1.126    0.112
        82  -9.2933     55.5667     44.1191   9.1051455161e+01   6.1148500385e+01    0.7672879    0.3173254 -25.14  0.002384177    4.911    0.796
        83  -9.5784     69.2998     36.4870   8.2903998583e+01   6.0475000902e+01    0.3990109    0.2850131   5.16  0.002192248    1.490    0.329
        84  -8.7146     35.4859     37.0438   9.6448764995e+01   6.4823478551e+01    0.2585456    0.1301661 -45.19  0.001310172    1.617    0.381
        85  -8.4225     38.9187     35.4879   9.4411497630e+01   6.4744084938e+01    0.2358672    0.1686526  -3.01 0.0009410715    1.458    0.314
        86  -8.1463    106.1558     36.5754   7.1076887435e+01   5.3546144393e+01    0.2833801    0.1725954  11.52  0.001196425    2.226    0.551
        87  -8.1528     91.8345     37.1757   7.5580582428e+01   5.6374239786e+01     0.195012    0.1502996   6.27 0.0003502438    1.302    0.232
        88  -8.5485     74.0271     34.2778   8.0299068155e+01   6.0055960439e+01    0.2678794    0.1785595 -23.77 0.0008287021    1.371    0.271
        89  -9.7416     19.3409     36.0438   1.0303862470e+02   6.6462009221e+01    0.4774213    0.2226098  25.90  0.002601883    2.544    0.607
        90  -9.4056     21.3490     32.1429   1.0076647110e+02   6.7039963820e+01    0.3303916    0.2254432  -2.20 0.0008560423    1.590    0.371
        91  -8.6475     55.9113     35.8312   8.7666462064e+01   6.2579586897e+01    0.1987613    0.1478108 -14.42 0.0003271161    1.232    0.188
        92  -9.1794     61.6454     27.3832   8.1862600063e+01   6.3122848983e+01    0.3017784     0.180796 -13.57  0.001094918    1.809    0.447
        93  -8.0372     42.4275     27.7589   8.9773319782e+01   6.5690218532e+01     0.264284    0.1662619  -6.04 0.0008072267    1.773    0.436
        94  -8.7160    242.1659     88.8332   6.0189295617e+01   1.2542261493e+01    0.1939444    0.1627731   4.10 0.0003598093    1.310    0.237
        95  -9.8541    194.5837    248.4720   1.0146634560e+02  -2.3432510903e+00    0.2143364    0.1942785 -16.80  0.001645779    1.361    0.265
        96 -10.2150    181.2252    246.5785   1.0352048274e+02  -1.3166181833e-02    0.2562616     0.127936  34.25   0.00140628    1.709    0.415
        97  -7.3962    250.3308     25.7086   4.3564410527e+01   1.9432446624e+01    0.1400136   0.08538253 -61.02 0.0007020333    1.628    0.386
        98  -8.7204    144.6409     23.3562   5.6928304403e+01   4.6193135336e+01    0.2568366    0.2155456  29.28 0.0003030294    1.172    0.146
        99  -7.7673    128.9865     22.5118   5.9839069947e+01   5.0152492591e+01    0.2161798    0.1308845  53.66  0.000961147    1.542    0.352
       100  -9.2788     92.2730     20.6535   6.8474923477e+01   5.8577030324e+01    0.3285124    0.2361251  18.83  0.001123569    1.349    0.259
       101  -9.9435    166.7442    247.1038   1.0611709214e+02   2.2106749760e+00    0.2604976    0.1570412  59.45  0.001477989    2.038    0.509
       102  -8.2553    140.3839     20.0569   5.6560838343e+01   4.7626343847e+01    0.2359533    0.1755845  45.80  0.000303839    1.246    0.197
       103  -9.0375      8.7499     20.3612   1.0221266009e+02   7.0125106031e+01    0.3763505    0.1972626  32.76  0.002231746    2.558    0.609
       104  -7.1007    151.3844     18.2697   5.3884151410e+01   4.5039505171e+01    0.1566032   0.09520659  37.65 0.0003136226    1.702    0.413
       105  -8.4890    127.4419     16.9000   5.8016221161e+01   5.1140804005e+01    0.2597623    0.1838978  47.78 0.0004370137    1.290    0.225
       106  -7.5848     91.6613    245.1730   1.1893278882e+02   1.3875392450e+01    0.1331803   0.09641489 -59.68 0.0005929565    1.729    0.422
       107 -10.2228    127.9234    238.8941   1.1198717737e+02   9.5122422542e+00    0.1955413    0.1764583  67.34 0.0003626236    1.165    0.142
       108  -9.6470    188.3683    234.3011   1.0052924966e+02   4.2583645166e-01    0.2236457    0.1898319  44.84  0.001235755    1.227    0.185
       109  -8.2532    238.4232    212.2316   8.8054939874e+01  -4.9126953170e+00    0.2024548    0.1402827  30.66 0.0002611804    1.242    0.195
       110  -8.7184    236.5459    194.3231   8.5058165050e+01  -2.3248698655e+00    0.2252436    0.2079871  52.02 0.0006905127    1.535    0.348
       111  -8.4226    224.5723    189.1880   8.6198099383e+01   4.5166314555e-01    0.2107913    0.1603429  31.38 0.0002956914    1.194    0.162
       112  -8.0035    226.0431    179.6931   8.4044568361e+01   1.5609149495e+00    0.1838402      0.15092  16.48 0.0003926351    1.068    0.064
       113  -7.5705    241.5370    178.5302   8.1057250588e+01  -1.0309789247e+00    0.1328143    0.1114198   4.31 0.0002095032    1.021    0.020
       114  -7.2899    146.2692    178.0066   9.9616886297e+01   1.7022237344e+01    0.1604822    0.1228287 -49.54  0.000378086    1.405    0.288
       115  -7.9009     79.7674    176.0068   1.1377184550e+02   2.8580457249e+01    0.1720285    0.1456114  87.48  0.001084831    1.042    0.041
       116  -7.6315    142.4983     10.4206   5.2658292133e+01   4.8070926842e+01    0.1423137    0.1245182  42.99 0.0001004023    1.047    0.045
       117  -8.1337    213.9742    159.7413   8.2082509586e+01   6.9536032629e+00    0.2114547    0.1721117  15.34 0.0004396076    1.181    0.154
       118  -8.9907     67.2046    144.5168   1.1217055645e+02   3.7348110555e+01    0.4289422    0.2539952  73.82  0.002019318    2.153    0.536
       119  -7.5310    108.5398    137.4419   1.0054418572e+02   3.2584638893e+01     0.142449    0.1364888 -70.43 0.0001690295    1.037    0.036
       120  -7.1886     55.3446    135.3315   1.1371361339e+02   4.0968329156e+01    0.1318465   0.09242719 -39.06 0.0007050369    1.757    0.431
       121  -8.2957      4.6602    134.1781   1.2601021305e+02   4.5940926577e+01    0.2134549    0.1182327 -24.80  0.001098567    3.451    0.710
       122  -7.4470    171.3946    133.5080   8.4718575742e+01   2.0697299014e+01    0.1501689    0.1464132 -29.44 9.753634e-05    1.048    0.046
       123  -7.7762    143.9967    126.7863   8.9373844009e+01   2.8016406582e+01    0.2279509    0.1740653 -17.25  0.001042922    1.624    0.384
       124  -8.1494    119.2013    119.1004   9.3689674258e+01   3.4745742946e+01    0.3580177    0.2089964  16.02  0.001178951    3.669    0.727
       125  -7.8180    101.0130    118.3340   9.8320935626e+01   3.8273355113e+01    0.2316538    0.1262429  16.40 0.0007048892    4.474    0.776
       126  -8.3605      2.0610    109.8436   1.2416335857e+02   5.1559053088e+01     0.335381   0.08263885 -52.32  0.001383183    3.421    0.708
       127  -8.0626    133.9270    106.1535   8.6549838605e+01   3.4571599937e+01    0.2989915    0.2035579 -15.74  0.001219367    2.074    0.518
       128  -7.0735     76.4290    107.4992   1.0269031203e+02   4.4718879591e+01    0.1413355    0.1247602 -63.36 6.792697e-05    1.043    0.041
       129  -8.8696     14.5058    105.3988   1.2020452268e+02   5.1770995316e+01    0.2912256    0.1531889 -37.25  0.001541797    2.354    0.575
       130  -7.9525    214.4914    104.9550   6.8799723898e+01   1.6167905106e+01    0.2289515    0.2074962  38.77 0.0009042225    1.149    0.130
       131  -8.2661    246.6321    100.3179   6.2387152950e+01   9.8070022299e+00    0.1469912    0.1060604 -62.08  0.000703738    1.784    0.439
       132  -7.8286    109.0780    106.7783   9.3290979966e+01   3.9436547069e+01    0.2420088    0.1763657   4.68  0.001070599    2.006    0.501
       133 -10.2908     11.9754     94.5331   1.1934893917e+02   5.4416644216e+01    0.4535758    0.2483514 -31.25  0.002308436    2.352    0.575
       134  -7.7948     83.5303     93.5216   9.7151741611e+01   4.6844195118e+01    0.2341345    0.1418105  21.99 0.0008510445    2.240    0.554
       135  -8.3389     96.5333     90.5246   9.2451595058e+01   4.5330256323e+01    0.4694941    0.2841867  -9.56  0.001621192    3.575    0.720
       136  -9.5775     22.1644     90.5167   1.1557978634e+02   5.4620734133e+01    0.5011315    0.1964208 -32.38  0.001839964    4.621    0.784
       137  -8.1449    109.3188     91.1982   8.8953189966e+01   4.2812891847e+01     0.366264    0.2094826  25.44  0.001415592    2.487    0.598
