#   1 NUMBER                 Running object number                                     
#   2 MAG_AUTO               Kron-like elliptical aperture magnitude                    [mag]
#   3 X_IMAGE                Object position along x                                    [pixel]
#   4 Y_IMAGE                Object position along y                                    [pixel]
#   5 X_WORLD                Barycenter position along world x axis                     [deg]
#   6 Y_WORLD                Barycenter position along world y axis                     [deg]
#   7 A_WORLD                Profile RMS along major axis (world units)                 [deg]
#   8 B_WORLD                Profile RMS along minor axis (world units)                 [deg]
#   9 THETA_WORLD            Position angle (CCW/world-x)                               [deg]
#  10 FWHM_WORLD             FWHM assuming a gaussian core                              [deg]
#  11 ELONGATION             A_IMAGE/B_IMAGE                                           
#  12 ELLIPTICITY            1 - B_IMAGE/A_IMAGE                                       
         1 -12.0887     57.3890     34.7451   4.6586809674e+01   6.6238042231e+01    0.5044132    0.3757905  -6.58  0.002426627    1.761    0.432
         2 -12.4373    128.6221     23.9586   2.2135497936e+01   4.9875895499e+01    0.3150379    0.2582728 -49.52 0.0003539224    1.161    0.139
         3 -11.3549      4.0232     18.0346   7.6069367304e+01   7.8048831194e+01    0.3762442    0.2332575 -49.49  0.001389509    1.458    0.314
         4 -11.8563      3.2956     13.3438   7.4123051379e+01   7.9119679970e+01    0.4139653    0.2667074 -29.95  0.001137345    1.497    0.332
         5 -10.9491     20.0764     17.3008   5.9534873758e+01   7.6335474968e+01    0.3602236    0.3317781  57.52  0.002239081    1.330    0.248
         6 -11.5739    137.0616     14.9688   1.7769840693e+01   4.8675426065e+01    0.2996774     0.180677 -54.85 0.0003396032    1.550    0.355
         7 -11.0992     75.5088     10.6909   2.6404487824e+01   6.5214329465e+01    0.7482389    0.1786652  56.48   0.00247109    3.216    0.689
         8 -10.9512      9.9853      9.1223   6.3251342540e+01   7.9251309280e+01    0.3741978    0.2571059  41.35  0.002029245    1.627    0.385
         9 -11.1284    102.1803      9.6749   2.0345121829e+01   5.8326872917e+01    0.4076591    0.2039236 -18.08  0.001553423    2.306    0.566
        10 -10.8782     13.5330     13.5686   6.2972094343e+01   7.7956540361e+01    0.5539656     0.309932  11.29  0.001930713    2.327    0.570
        11 -10.7503    119.5379     11.7347   1.8676960245e+01   5.3549259466e+01    0.2306869    0.1982633  82.09 0.0002226864    1.084    0.077
        12  -9.9555     27.3103     11.0971   4.8791707712e+01   7.6190407348e+01    0.2604457     0.117397 -30.96  0.001092564    2.517    0.603
        13 -10.8301    176.1149     11.2334   1.3191378903e+01   3.9501811136e+01    0.2668055    0.1489916 -70.80   0.00137997    1.668    0.400
        14 -11.3392    145.5415      6.4241   1.3976891071e+01   4.7341687197e+01    0.3993842     0.214181 -28.52   0.00195498    1.826    0.452
        15 -11.3457    234.3551      9.3845   9.7980672007e+00   2.7666108491e+01     0.254789   0.09220055 -53.07   0.00133823    2.039    0.510
        16 -11.5258    159.3815      8.6705   1.3610087038e+01   4.3713490328e+01    0.3659342    0.1821504 -81.54  0.001292751    2.005    0.501
        17 -10.7324    154.2769      8.0085   1.3792141823e+01   4.5023542323e+01    0.2395921    0.1630105 -78.29 0.0004712779    1.331    0.249
        18 -10.5605     36.4537      7.7576   3.9897829612e+01   7.4843084954e+01    0.3514158     0.229646  55.84  0.001417512    1.514    0.340
        19 -10.8953     26.7937      2.2644   4.1365070788e+01   7.7517750171e+01    0.2831166      0.21588  40.71 0.0008538572    1.198    0.165
        20 -11.4050    164.8158      5.0225   1.2110841256e+01   4.2745593931e+01    0.3037962    0.1680987 -46.45 0.0007816232    1.513    0.339
        21 -11.2348    168.1884      1.9437   1.0985214485e+01   4.2222864090e+01    0.2254273    0.1643092 -81.04 0.0003140453    1.226    0.185
        22  -9.9620     81.9503      7.1133   2.2887812480e+01   6.3886842361e+01    0.1856838    0.1481295  47.85 0.0004735652    1.248    0.199
        23 -10.1506     20.0177      5.7660   5.0136858728e+01   7.8305128845e+01    0.3895293    0.1885723 -32.05  0.001799715    2.215    0.549
        24 -10.1119    222.9789      5.6024   9.3845404686e+00   3.0156981760e+01    0.1751091    0.1173502 -42.29 0.0001092276    1.150    0.131
        25 -10.9557    229.7953      2.4926   8.4451069070e+00   2.9167587710e+01    0.3152678    0.1451818 -21.34  0.001272776    2.355    0.575
        26 -11.1948    178.9870      3.8830   1.0940505498e+01   3.9546040925e+01    0.2016135    0.1548866 -46.87  0.000276562    1.123    0.109
        27 -11.2597    125.0819      2.5065   1.4415865777e+01   5.2916853029e+01     0.448629    0.2361297 -81.05   0.00145948    1.879    0.468
        28 -10.8310     16.4183      3.1063   5.0936867638e+01   7.9318111701e+01    0.2292744    0.1905026 -48.60  0.001408682    1.462    0.316
        29 -11.2436     11.1345      2.2990   5.5678438093e+01   8.0281249929e+01    0.2995589      0.21785   7.82  0.001508156    1.435    0.303
        30 -11.8190    242.9708      3.0650   8.1528694168e+00   2.6737740095e+01    0.2722863    0.1463068  76.54  0.001161031    2.182    0.542
        31  -9.3706     97.9989      3.5056   1.8146203159e+01   5.9966586479e+01    0.1961774    0.1244354  76.04 0.0003567686    1.425    0.298
        32 -10.8014     90.9981      2.1698   1.8600883580e+01   6.1922042640e+01    0.1999396    0.1906509 -46.03 0.0002763795    1.135    0.119
        33 -10.2546    140.9861      1.6465   1.2710172324e+01   4.8904535682e+01    0.1904612     0.144578 -86.62 0.0003348111    1.176    0.149
        34 -11.0855     73.8136      2.3090   2.2001895228e+01   6.6406375083e+01    0.3939793    0.2485506 -62.60   0.00192175    1.824    0.452
        35 -10.6131     22.5068      1.5328   4.3929031020e+01   7.8446581948e+01    0.2461148    0.2241511 -11.83  0.001600399    1.131    0.116
        36  -9.4993    238.3014    200.6653   4.7855396621e+01   2.5313699199e+00   0.09171476   0.07722423 -32.96 0.0003481543    1.658    0.397
        37  -9.6574    109.9559    250.2486   7.8210706474e+01   9.6929599236e+00    0.1558051   0.07793695  27.51 0.0005728022    1.544    0.352
        38 -12.4846     21.3824    248.5191   9.7352185501e+01   1.8961581976e+01    0.5642815    0.1533614  37.04  0.002721475    2.222    0.550
        39 -11.5291      5.5781    244.3746   1.0066841976e+02   2.1049549500e+01    0.3149395    0.1806239  47.23  0.001046521    1.278    0.218
        40 -12.0935     15.7143    192.2119   9.6520620003e+01   3.1164298223e+01    0.3882297    0.3305668  12.93  0.001741548    1.329    0.248
        41  -9.7851    186.3488    193.3089   5.5100645769e+01   9.4701436868e+00    0.1279598   0.08038839  -5.10 0.0007044265    1.709    0.415
        42  -9.4332    145.2741    190.3281   6.2831887785e+01   1.5501074887e+01    0.1321716   0.09221071 -11.86 0.0004021474    1.588    0.370
        43 -10.6751    244.5595    187.7160   4.4866204857e+01   3.4805558207e+00    0.1418298    0.1318501  23.35 0.0006499619    1.737    0.424
        44 -10.1092     61.7399    184.2959   8.3079133404e+01   2.8275203062e+01    0.2363424     0.170569 -79.64  0.001248583    1.510    0.338
        45 -12.2957     16.6329    181.9848   9.5767040414e+01   3.3534100948e+01    0.4895611    0.2641047  42.49  0.002455139    1.546    0.353
        46 -10.8173    244.2034    179.0887   4.3468382733e+01   4.5976711998e+00    0.2400201    0.1114764 -25.11  0.001158502    1.812    0.448
        47 -10.0606      1.5571    180.2609   9.9980504149e+01   3.5128215434e+01    0.1720644    0.1127055 -73.09 0.0009384887    1.595    0.373
        48 -11.1909     23.2334    180.2583   9.3771094357e+01   3.3377993550e+01    0.4228671    0.1471495  51.16  0.001646521    2.564    0.610
        49 -11.0207     18.2022    172.7694   9.4800844273e+01   3.5686700353e+01    0.2903289    0.1636926  51.84  0.001422845    1.554    0.357
        50 -10.3520    248.2990    168.6686   4.1127896563e+01   5.4706351507e+00   0.09942392   0.07507751 -42.47 0.0003335729    1.645    0.392
        51 -10.3741     67.6148    165.7838   7.9139849090e+01   3.2011576646e+01    0.2021237    0.1373756 -85.29 0.0009216464    1.678    0.404
        52 -10.2728     34.6824    166.0611   8.9275266199e+01   3.5852023215e+01    0.3978611    0.1783385   8.11  0.001416735    3.297    0.697
        53 -10.9456     51.0501    162.2795   8.3775141135e+01   3.5006664165e+01    0.4442144    0.2230672 -73.74  0.001822436    2.084    0.520
        54 -11.2334      7.4145    163.8864   9.7614232773e+01   3.8810171041e+01     0.226738    0.1914486  17.29 0.0002982205    1.308    0.235
        55  -9.8468      1.3091    164.6377   9.9522050620e+01   3.9044584696e+01    0.1537502   0.07598636  55.66 0.0007040031    1.744    0.427
        56  -9.0314    132.6671    161.6668   6.0691793681e+01   2.2993436682e+01      0.14868    0.1064897 -10.33 0.0007052236    1.731    0.422
        57 -10.6585     67.0128    157.8911   7.8225327474e+01   3.4079292396e+01     0.215247    0.1985259  55.48 0.0003312036    1.019    0.019
        58 -10.8266     20.1700    157.3559   9.3184674381e+01   3.9500707486e+01    0.3047532    0.2493936 -81.51  0.001145368    1.200    0.166
        59 -10.8931    247.0000    156.4869   3.9137992862e+01   7.1920256589e+00    0.2482537   0.04900227 -35.73 0.0009283792    3.884    0.743
        60  -9.7321    216.3111    154.3056   4.3013694124e+01   1.1404207140e+01    0.1223142   0.08092429  -8.26 0.0004398909    1.615    0.381
        61 -10.0286    158.8499    153.7091   5.3219334477e+01   2.0251592124e+01    0.2241315    0.1677988  12.98  0.001195044    1.467    0.318
        62  -9.8240     40.8450    153.1271   8.6011469185e+01   3.8586252939e+01    0.1940448    0.1567904 -58.17 0.0005627095    1.309    0.236
        63 -10.2287     10.6371    152.8616   9.6009073783e+01   4.1461612761e+01    0.2831732     0.133017  33.06  0.001253074    1.902    0.474
        64  -9.6555    222.5584    151.5192   4.1552852032e+01   1.0963736513e+01    0.1197944    0.0947812 -26.12 0.0001865705    1.070    0.065
        65 -10.8898     13.9721    148.0017   9.4586842537e+01   4.2510944006e+01    0.2103167    0.1830807  66.67 0.0003055301    1.014    0.014
        66  -9.9607    234.3461    146.7938   3.9005721658e+01   1.0070343544e+01    0.1720185   0.08583221 -28.12 0.0007846134    1.676    0.403
        67 -10.7365      7.8886    146.3220   9.6552340953e+01   4.3413258462e+01    0.2286369    0.1476414  47.60 0.0007487933    1.403    0.287
        68  -9.9445    216.5272    145.4846   4.1269719001e+01   1.2687379209e+01    0.1244011   0.09785984 -21.09 0.0001263972    1.049    0.047
        69  -9.9171     13.9960    140.0174   9.4011531418e+01   4.4683725310e+01    0.1719785    0.1534274  68.80 0.0003191766    1.016    0.015
        70 -10.0231     65.3087    139.0582   7.5831759645e+01   3.9223349064e+01    0.2143243    0.1864519 -74.33 0.0005599231    1.148    0.129
        71 -10.7760    236.0197    137.9896   3.7099894320e+01   1.1073918582e+01      0.18189    0.1411923 -23.54  0.000787565    1.035    0.034
        72 -13.2713     37.4902    135.3865   8.5055727281e+01   4.3781025595e+01      0.50459    0.3584816 -82.92  0.000533615    1.381    0.276
        73 -11.0189     37.6999    130.2782   8.4302982651e+01   4.5176783640e+01    0.3481834    0.2535219 -88.96 0.0006014478    1.365    0.267
        74 -10.7421      2.7124    136.1466   9.7800860911e+01   4.6517975093e+01    0.4032168    0.1087505 -79.95  0.001329086    3.287    0.696
        75 -12.5905    241.8766    132.9089   3.5380252255e+01   1.0990796352e+01     0.341524    0.1860418 -18.28  0.001881401    1.985    0.496
        76 -10.3704     58.9816    131.3111   7.6686778684e+01   4.2205549854e+01    0.2107465    0.1977105  49.39 0.0003233334    1.055    0.052
        77 -10.6674      4.2571    130.2159   9.6898353193e+01   4.8058586866e+01    0.2214695    0.1925602  -6.63 0.0006798229    1.353    0.261
        78 -10.9187     73.3655    129.0025   7.1247913079e+01   4.0661895056e+01    0.2980439    0.2257314  39.98 0.0005130853    1.296    0.228
        79 -10.8681     53.0823    131.5596   7.8839204607e+01   4.2944684439e+01    0.3155459    0.2240432  72.59  0.001447142    1.540    0.351
        80 -10.0925    234.3061    127.2980   3.5221010954e+01   1.2807238213e+01     0.115761   0.07978573  -9.34 0.0002703033    1.589    0.371
        81 -11.0082     56.2345    126.9068   7.6901583812e+01   4.3789274235e+01    0.3109445    0.2199418  21.78 0.0006891973    1.538    0.350
        82 -10.6111     24.5209    126.5242   8.8852140560e+01   4.7561683297e+01    0.1485564    0.1348307  77.17 0.0001714812    1.010    0.010
        83 -11.0335     15.8292    125.3121   9.2103043441e+01   4.8633445155e+01    0.3852048    0.1719938  26.45  0.001510084    2.170    0.539
        84 -11.1838      3.8523    124.2066   9.6676925854e+01   4.9753725073e+01    0.3572924    0.1854586 -84.40  0.001426548    1.753    0.430
        85 -11.4116     19.9837    122.1688   9.0151625433e+01   4.9185748814e+01    0.2693171     0.195728 -81.91 0.0008168308    1.283    0.221
        86 -11.8159     10.6984    122.3290   9.3854132236e+01   4.9846386488e+01    0.4710015    0.2265615 -79.72  0.001869838    1.907    0.476
        87 -10.5307     69.1810    121.7791   7.1234247439e+01   4.3244232324e+01    0.3863494    0.2369673  17.47  0.001544613    2.075    0.518
        88 -12.5064    249.6480    117.7028   3.1521542601e+01   1.1993892605e+01    0.3793609    0.2111612 -41.39  0.002336455    1.481    0.325
        89 -12.4367    249.5048    111.5214   3.0322655528e+01   1.2834101126e+01    0.4011717    0.2686857  27.26  0.002185277    2.069    0.517
        90 -10.5542      1.4089    118.5767   9.7282965974e+01   5.1463307453e+01    0.2623264    0.1249395 -82.40 0.0004495168    1.888    0.470
        91 -11.9229     52.5663    115.8905   7.6240821058e+01   4.7328244545e+01    0.3091456    0.2585921 -79.05 0.0001521743    1.176    0.150
        92 -11.8243      9.9191    111.0878   9.3172653253e+01   5.3074619238e+01    0.9552814    0.3357334 -37.45  0.002962191    4.117    0.757
        93 -11.4119     25.2696    106.9522   8.6018449242e+01   5.3037238757e+01    0.5535364    0.3156841 -19.17  0.002201369    2.471    0.595
        94 -11.9392     16.2048    115.1584   9.0934872918e+01   5.1473851038e+01    0.3992023     0.258281  45.87 0.0007813435    1.516    0.341
        95 -11.1660     15.5145    111.5395   9.0830812301e+01   5.2553766365e+01    0.3311066    0.2402278  63.77  0.001194717    1.354    0.262
        96 -11.2043     18.6626    109.6748   8.9261402322e+01   5.2838288978e+01    0.3706465    0.2476989 -23.29  0.001712105    1.839    0.456
        97  -9.5938     86.0000    115.9126   6.4107043407e+01   4.1898807816e+01    0.2518531    0.0887071 -55.27            0    2.815    0.645
        98 -10.2555    182.6111    114.3457   3.9991583578e+01   2.3248307699e+01    0.2208591    0.1887897 -58.68 0.0005336424    1.272    0.214
        99 -10.0055    105.5356    114.5306   5.7617784688e+01   3.8514838856e+01    0.1544598    0.1511398 -71.75 0.0001104107    1.001    0.001
       100 -10.4618     56.4875    121.0859   7.5738759054e+01   4.5347504506e+01    0.2337667    0.1508054 -69.76 0.0006340771    1.553    0.356
       101 -10.0870     93.7939    111.9705   6.0585237001e+01   4.1426173429e+01    0.3694109    0.2003302  62.76  0.001228115    2.969    0.663
       102 -10.7302     55.1638    109.7697   7.3972780521e+01   4.8642523200e+01    0.2797236    0.2414532 -60.64  0.000699652    1.135    0.119
       103 -12.4084    247.4703    106.0491   2.9448592293e+01   1.3847892880e+01    0.3287496    0.2016395  49.83  0.002110494    2.155    0.536
       104  -9.6622    111.9245    105.8132   5.3476362346e+01   3.9245657093e+01    0.1952998    0.1208079  42.61  0.000813151    1.663    0.399
       105 -11.1117     31.2568    108.9230   8.3727713931e+01   5.1885907026e+01    0.3585836    0.1920004  80.60  0.001364965    2.311    0.567
       106 -11.0483     22.6232     99.9941   8.6157738871e+01   5.5254617160e+01    0.5322618     0.198498  35.57  0.001947827    2.530    0.605
       107 -11.2309     62.0597     98.3810   6.8535289728e+01   5.0650086543e+01    0.4067316    0.2785418 -60.94  0.001497351    1.431    0.301
       108 -11.1736     33.3078     97.8469   8.0872349319e+01   5.4791889261e+01    0.6178578    0.2884327  68.83  0.001944242    3.544    0.718
       109  -9.8521      9.7305     99.0561   9.2015018669e+01   5.6500583454e+01    0.1980859    0.1653272 -83.68 0.0002830591    1.092    0.085
       110 -10.4283     67.0157     97.8856   6.6431073328e+01   4.9944562396e+01    0.2270953    0.2265988 -73.21 0.0003975526    1.056    0.053
       111 -10.9673     15.4268     96.8861   8.9068253452e+01   5.6725033943e+01    0.2914466    0.1867346 -19.74  0.001318951    1.907    0.476
       112 -11.4986    241.7957     96.3707   2.8066996155e+01   1.5978713072e+01    0.1744717    0.1203457 -38.67  0.001146294    1.112    0.101
       113  -9.7985     57.1831     96.1964   6.9983183936e+01   5.2019471365e+01    0.2097294    0.1762787  72.48 0.0002670274    1.271    0.213
       114 -11.9161    249.5179     91.7713   2.6360455695e+01   1.5430601684e+01    0.2803055    0.1457826 -34.09  0.001136959    1.420    0.296
       115  -9.6970      1.5357     93.4585   9.5334145923e+01   5.8529149680e+01    0.1423671    0.1278441 -83.83  0.000140129    1.004    0.004
       116 -10.7225    231.6189     91.7411   2.8160046315e+01   1.8203706562e+01    0.1805726   0.08607432 -40.63 0.0007853846    1.621    0.383
       117  -9.9874     56.5437     90.6662   6.8803592671e+01   5.3594307693e+01    0.2910867    0.1416887 -53.99 0.0008322865    1.957    0.489
       118 -10.8929     10.5731     90.8407   9.0614062263e+01   5.8772986787e+01    0.2382882    0.2247605 -21.83 0.0003483351    1.158    0.136
       119 -10.0875    158.6793     89.9993   3.8136605195e+01   3.2366376108e+01    0.2127349    0.1820678 -41.40 0.0007541042    1.077    0.072
       120  -9.8034     87.2182     89.3572   5.6482812750e+01   4.8241534274e+01    0.2174902    0.1455187  52.07 0.0004261775    1.561    0.359
       121  -9.5273     60.6607     89.3131   6.6675317088e+01   5.3271215207e+01    0.1651865    0.1195083  70.47 0.0007046601    1.696    0.410
       122 -10.9456     21.7497     86.8866   8.4370934909e+01   5.9031137152e+01     0.413904    0.2064485  84.94  0.001526975    2.574    0.611
       123 -10.3509     21.6478     83.3163   8.3747030906e+01   6.0037449802e+01    0.2377475    0.1455877 -78.32 0.0006658858    1.611    0.379
       124 -10.1929     83.2128     88.8233   5.7730602382e+01   4.9186488178e+01    0.2727073    0.2296588   1.70  0.001288865    1.496    0.332
       125 -12.0501    247.2294     84.4214   2.5067764252e+01   1.6728690676e+01    0.2224661    0.1657023 -79.87 0.0007521024    1.785    0.440
       126 -10.1051     65.4970     86.0289   6.3701063964e+01   5.3273313961e+01    0.2505601     0.151616 -54.40  0.001039162    1.613    0.380
       127 -11.7811     30.1775     82.4851   7.9159527766e+01   5.9413516643e+01    0.5298085    0.3049653 -54.32  0.001964873    1.623    0.384
       128 -10.6297      6.9887     81.6020   9.1231459333e+01   6.1584297718e+01    0.3168607    0.2096279 -54.76  0.001564153    1.408    0.290
       129 -11.3684    107.2858     84.7068   4.8636999061e+01   4.4957648881e+01    0.3055151    0.2633385 -88.08 0.0002848361    1.262    0.208
       130 -10.7158     76.6187     82.2474   5.8103240651e+01   5.2096691200e+01    0.2936119     0.229406  67.98 0.0008172364    1.462    0.316
       131  -9.5497      3.0000     77.9905   9.2929719189e+01   6.2794299689e+01    0.2292056   0.07414289 -78.39 0.0003913543    2.798    0.643
       132  -9.3341    155.2268     77.2829   3.5217398983e+01   3.5381090079e+01    0.1313358    0.1117092  -7.77 0.0002470847    1.436    0.304
       133 -11.0208     99.9423     76.4634   4.8144117590e+01   4.8392098021e+01    0.2852819    0.2245564 -48.84 0.0003058412    1.249    0.200
       134 -10.0293     88.0456     77.2579   5.2293721407e+01   5.0871200739e+01     0.213592    0.2000241  74.93  0.000216494    1.072    0.067
       135 -10.0447     36.9539     76.8502   7.4253675032e+01   6.0130964599e+01    0.2371197    0.1951224 -33.05 0.0004960295    1.291    0.226
       136 -12.3602    244.5498     73.5698   2.3042498670e+01   1.8541663494e+01    0.3292564    0.1316238 -26.86  0.001536252    2.455    0.593
       137 -11.9143    167.7513     73.4429   3.2000874933e+01   3.3220165632e+01    0.2561474    0.2114438 -51.43 0.0002979567    1.087    0.080
       138  -9.9828     44.7517     74.6085   6.9642422844e+01   5.9637200633e+01    0.2113235    0.1364133  43.39 0.0007746709    1.604    0.377
       139 -11.3423     21.8423     74.9167   8.1885579777e+01   6.2338514423e+01    0.2735997    0.1958144 -75.88  0.001339449    1.364    0.267
       140 -11.1455      7.2167     73.5805   8.9930417382e+01   6.3799992328e+01    0.4249724    0.1815458   8.39  0.001496617    2.664    0.625
       141 -10.0092      1.7051     72.9417   9.3017902464e+01   6.4249261898e+01     0.227099    0.1751045 -53.11   0.00122915    1.213    0.176
       142 -14.2094     16.7136     67.3402   8.3125601424e+01   6.4848194139e+01    0.5619813    0.4663737 -43.99  0.001213834    1.166    0.142
       143 -12.0507     29.7721     62.5002   7.3988737406e+01   6.4797991745e+01    0.7883123    0.4475021  44.08  0.003176617    1.917    0.478
       144  -9.8051     91.1189     70.0851   4.8743625690e+01   5.1756463611e+01    0.2055275     0.177857 -86.53            0    1.254    0.202
       145 -11.3797     50.2548     68.2215   6.4822170338e+01   6.0390164905e+01    0.2979766    0.2388524 -40.49  0.000516657    1.274    0.215
       146 -10.5346      6.8496     68.6957   8.9344547197e+01   6.5162247363e+01    0.3104622    0.2064292  76.69  0.001097743    1.627    0.385
       147 -10.9669    122.6937     67.4189   3.8899985169e+01   4.4810789080e+01    0.2671226     0.228466 -59.83 0.0002548254    1.135    0.119
       148 -12.4833    146.9428     65.5345   3.3230650945e+01   3.9304585349e+01    0.2796849    0.2444363 -63.12 0.0003317812    1.072    0.068
       149  -9.5442     93.5764     66.4964   4.6635251550e+01   5.1942043939e+01    0.1553349    0.1478739 -76.83  8.48295e-05    1.026    0.026
       150 -11.7467      3.0006     63.5036   9.0851981675e+01   6.6770748525e+01     0.443296    0.3383869  75.99  0.002003687    1.372    0.271
       151 -12.6386    231.4412     58.0770   2.0785205605e+01   2.2703030664e+01    0.5030312    0.1816172 -40.44  0.002435254    1.976    0.494
       152  -9.8578     81.3392     64.9891   5.0271426232e+01   5.5033373287e+01    0.2108601    0.2041406 -70.58  0.001119341    1.019    0.019
       153  -9.7339    110.5839     64.7999   4.1037007472e+01   4.8234214805e+01    0.2191772     0.137293 -52.30 0.0005196856    1.645    0.392
       154 -10.8778    202.0128     62.5094   2.4601955994e+01   2.7632924564e+01    0.2339581      0.15884 -36.11 -0.0001510048    1.252    0.201
       155 -10.1112    155.4487     62.6040   3.0858739036e+01   3.7773901431e+01    0.2460262    0.1904699 -32.11  0.001281711    1.299    0.230
       156 -10.3686     51.7719     62.1245   6.1854594738e+01   6.1608905487e+01    0.2955622    0.2041659 -34.50  0.001336362    1.621    0.383
       157 -11.6456      6.1525     58.5759   8.7895418488e+01   6.7934229316e+01     1.002138    0.2444566  39.10  0.003052086    4.465    0.776
       158 -13.1956     12.5176     47.3791   8.0559531366e+01   7.0416848052e+01    0.5767434     0.438338 -79.80 0.0007327191    1.398    0.285
       159  -9.5997      7.1408     41.1275   8.2737075191e+01   7.2386510631e+01    0.3004066    0.2170197 -31.39  0.001071108    1.346    0.257
       160 -12.3240      3.2034     50.1266   8.8157130631e+01   7.0317017295e+01    0.8503661    0.5562503 -64.52  0.004412646    1.364    0.267
       161 -10.1926     15.4604     58.4409   8.1708730285e+01   6.7322623515e+01    0.2304116    0.1748346 -33.26 0.0001716225    1.329    0.248
       162 -11.2473     12.0219     57.0170   8.3615293640e+01   6.7967081108e+01    0.4316269    0.2745834  58.77  0.001256336    1.887    0.470
       163  -9.6654    150.6059     60.8040   3.1123686279e+01   3.9206048408e+01    0.1998932    0.1228621 -46.15 0.0002585876    1.494    0.331
       164 -10.0153     90.0506     61.0334   4.5725459806e+01   5.3867156338e+01     0.239375    0.1837121 -84.49 0.0003751006    1.613    0.380
       165 -11.4639     46.5603     60.4701   6.3887122876e+01   6.2891025728e+01    0.3751189    0.2771107 -19.73 0.0007662349    1.691    0.408
       166  -9.5284    109.2791     60.2782   3.9755848592e+01   4.9394388439e+01    0.1444511    0.1218298  17.59            0    1.503    0.335
       167  -9.6554     97.9938     60.0209   4.2838671314e+01   5.2182826871e+01    0.1891592    0.1656599  60.58 0.0003908632    1.132    0.117
       168  -9.6305    168.9813     59.4943   2.7879288518e+01   3.5126968883e+01    0.1888337    0.1372484  68.99 0.0003736732    1.477    0.323
       169 -10.7467    135.4908     58.3801   3.3113546606e+01   4.3259842692e+01    0.3334567     0.226077  88.92  0.001508854    1.769    0.435
       170 -10.4387    127.1653     58.8470   3.4979919020e+01   4.5234122839e+01    0.2174305    0.1882834 -70.02 0.0002533832    1.126    0.112
       171  -9.7992    120.0000     58.9309   3.6611890925e+01   4.6992646813e+01    0.2465166   0.08455913 -36.58 0.0005323864    2.874    0.652
       172 -10.7805     79.9973     56.7960   4.7534418990e+01   5.7032011799e+01    0.4334828    0.3132081   0.80  0.001813827    2.214    0.548
       173 -10.1835     58.7979     58.3474   5.6978748465e+01   6.1185366261e+01    0.2350044    0.1904153  60.81 0.0006557258    1.357    0.263
       174  -9.2244     50.6287     56.3106   6.0138518910e+01   6.3166969324e+01     0.156404    0.1174592  73.67 0.0007034177    1.773    0.436
       175 -12.4927     38.8699     50.5092   6.4172208527e+01   6.6479818102e+01    0.6383976     0.603932 -75.23  0.003424607    1.132    0.116
       176 -10.3305     27.5406     53.7642   7.2412051871e+01   6.7280276645e+01    0.2567957    0.1998569  20.93 0.0008254123    1.335    0.251
       177 -11.0960    128.4805     50.0551   3.1655087911e+01   4.6342820744e+01    0.3142286    0.2483833  33.18 0.0009801215    1.578    0.366
       178  -9.8524    120.8109     51.2511   3.3679830889e+01   4.8083622955e+01    0.1914799    0.1673402  36.57 0.0009954411    1.324    0.245
       179  -9.9848     89.5725     50.7347   4.1749694910e+01   5.5944655908e+01    0.2189721    0.1396175 -50.22 0.0009510648    1.636    0.389
       180 -11.3474     51.7645     47.0994   5.5539142812e+01   6.4984957907e+01    0.6356494    0.2883523 -56.60  0.002270268    2.801    0.643
       181  -9.6040    164.1694     48.4025   2.5302284934e+01   3.7854149752e+01    0.1832303    0.1262128 -88.13 0.0002952747    1.569    0.363
       182 -11.3670     44.8589     43.9462   5.7758782709e+01   6.6932314622e+01    0.5740408     0.337528 -58.58  0.002480488    1.989    0.497
       183 -11.6025     44.9832     38.1928   5.4814218194e+01   6.8096603964e+01    0.2794358    0.2546221  53.80  0.001572138    1.165    0.142
       184 -10.1854     77.6895     46.0425   4.3765826557e+01   5.9625923962e+01    0.4441878    0.2037405 -56.41   0.00118512    3.355    0.702
       185  -9.4739     62.4221     47.4379   5.0583080182e+01   6.2768241992e+01    0.1451144    0.1440691  48.06 8.780354e-05    1.006    0.006
       186 -12.3060    112.3098     45.4934   3.3434046712e+01   5.1159414133e+01    0.2649555    0.2506056 -75.32 0.0002703904    1.022    0.022
       187  -9.6784    104.4812     46.4493   3.5719048582e+01   5.2992028312e+01    0.1498614    0.1425741  88.52 9.769251e-05    1.017    0.016
       188 -10.3694    153.0251     45.0882   2.5830976364e+01   4.0985931246e+01    0.2102005    0.1863349 -75.18 0.0003238441    1.056    0.053
       189 -10.2251    142.0232     45.3279   2.7596441900e+01   4.3660692447e+01    0.4331728    0.1429131  70.88  0.001355381    3.751    0.733
       190 -10.8390     23.5182     41.9817   7.0507999770e+01   7.0619689054e+01    0.3170373    0.2872348 -85.01   0.00115965    1.256    0.204
       191 -10.4206    121.8459     42.9810   3.0422716399e+01   4.9108392076e+01    0.2278862    0.2038531 -65.79 0.0006227067    1.054    0.051
       192 -10.8335     97.4333     41.4869   3.5533639555e+01   5.5572020719e+01    0.4048964    0.2650999  26.29 0.0009244031    2.250    0.556
       193 -10.4235     72.9732     43.0183   4.4139212880e+01   6.1270318874e+01    0.2207557      0.21268 -88.39 0.0003361336    1.053    0.050
       194 -12.4723    105.0365     52.5312   3.7968079046e+01   5.1826664234e+01    0.2856447    0.2730647 -88.47 0.0003205007    1.015    0.015
       195 -10.6711     17.5471     42.9703   7.5288278939e+01   7.1051550818e+01    0.2747769    0.1870366  -4.68  0.001359349    1.673    0.402
       196  -9.8055    163.0301     42.0107   2.3531213075e+01   3.9002263186e+01    0.1643169    0.1426377 -60.53            0    1.003    0.003
       197  -9.9395    130.8132     41.7895   2.8289327725e+01   4.6993766323e+01    0.2071199    0.1566928 -64.81 0.0004591577    1.309    0.236
       198 -10.8261     89.0554     41.0893   3.7762447900e+01   5.7735220571e+01    0.3286385    0.2715828 -81.41  0.001167215    1.324    0.245
       199 -10.7161     83.6964     36.7127   3.7427260669e+01   5.9764623263e+01    0.3428423    0.3092083 -27.40  0.001390797    1.187    0.158
       200 -10.1824     78.2967     41.0756   4.1273061613e+01   6.0360324741e+01    0.2052897      0.18652 -46.53 0.0003598194    1.124    0.111
       201  -9.4334     67.6364     41.3199   4.5446942228e+01   6.2795670879e+01    0.1547708    0.1173047 -85.23 0.0007040823    1.777    0.437
       202  -9.7350     60.4690     41.4988   4.8633458418e+01   6.4338857646e+01    0.1450587    0.1424979  63.02 0.0003055357    1.034    0.033
       203 -10.7505    235.9101     39.9039   1.6428376195e+01   2.4113282945e+01    0.1639391    0.1414535 -30.95 0.0005365052    1.278    0.217
       204 -10.7727    226.1727     39.9566   1.7087460650e+01   2.5867276881e+01     0.230811    0.1347129 -33.88  0.001359968    1.394    0.283
       205 -10.5683    109.5394     38.4106   3.1267371011e+01   5.2946015924e+01    0.2861921    0.1841819 -23.96  0.001020696    1.787    0.440
       206 -10.9711    111.1642     34.7572   2.9436464387e+01   5.3047123349e+01      0.29565    0.2148669  60.24 0.0009127421    1.339    0.253
       207 -10.4379    247.4984    249.5258   5.3698793339e+01  -3.6995539809e+00   0.09752402   0.06273314  -5.58 0.0008101144    1.008    0.007
       208 -11.4283     24.5048     34.5796   6.6330918916e+01   7.2178083777e+01    0.2760701    0.2231335 -17.86 0.0006097323    1.278    0.218
       209 -10.3132      1.3722     37.4097   8.6423108867e+01   7.3650380214e+01    0.2397889    0.1091217 -64.81  0.001067153    1.913    0.477
       210 -11.7857    247.9978     36.4222   1.4957808310e+01   2.2431402332e+01    0.2069425     0.152008 -47.55 0.0002650511    1.045    0.043
       211  -9.7814    202.0087     37.2906   1.8260502454e+01   3.0919245712e+01    0.1721728    0.1379044 -58.34 0.0003597381    1.069    0.065
       212 -11.0758     65.1235     36.8721   4.4278821015e+01   6.4153250922e+01    0.2394473    0.1993278  54.46 0.0003039117    1.178    0.151
       213 -10.1538     97.2242     36.1668   3.3299125793e+01   5.6440847076e+01     0.207956    0.1984316  53.37 0.0005070744    1.097    0.088
       214 -11.0797     74.7493     35.8800   4.0045489128e+01   6.2076211165e+01    0.3934126     0.301565 -10.14   0.00131147    1.633    0.388
       215 -10.1010     73.3834     31.7957   3.8485077865e+01   6.3051827905e+01    0.2637093    0.2453107  -8.87  0.001114596    1.166    0.143
       216 -11.1902     18.1753     31.4012   6.9694114089e+01   7.3681162071e+01    0.5492799    0.3031942  10.38  0.002103996    2.233    0.552
       217 -11.1265     10.0639     34.7402   7.8037873355e+01   7.3726227314e+01    0.3652778    0.2523457  31.27  0.001604914    1.525    0.344
       218 -11.1456      7.0962     29.9632   7.8714067656e+01   7.5096008203e+01    0.3289868    0.2587941  84.54 0.0009325898    1.574    0.365
       219 -12.0516    241.4477     34.5849   1.4935193214e+01   2.3750425589e+01    0.2893811    0.1838351  60.50  0.001499551    2.077    0.519
       220  -9.7992    146.4188     33.9453   2.3145411551e+01   4.4114720944e+01    0.2005284    0.1316609 -32.19 0.0003580833    1.501    0.334
       221  -9.5194    134.7942     34.6043   2.5069621294e+01   4.6966937217e+01     0.198162    0.1287603  89.32 0.0006734947    1.631    0.387
       222 -10.2486    122.5145     33.3519   2.6671042453e+01   5.0292700737e+01    0.2877508    0.1497783  54.99  0.001132341    1.926    0.481
       223  -9.5493     34.4546     33.5400   5.8758495602e+01   7.0897354326e+01     0.138646    0.1321914  -3.14 0.0001785652    1.011    0.011
       224 -10.3299      2.3506     32.4316   8.4014052560e+01   7.4823729411e+01    0.3371112    0.1740305  58.04  0.001418715    2.830    0.647
       225  -9.2964    221.3607     31.6855   1.5496208285e+01   2.7729569273e+01    0.1338751   0.06558181 -55.78 0.0007042424    1.754    0.430
       226 -10.4163    101.1908     28.3002   2.8890684966e+01   5.6511682349e+01    0.2686812    0.1908643 -68.84 0.0004908718    1.545    0.353
       227 -10.0445     49.7842     28.1681   4.6626892687e+01   6.8997283186e+01    0.3514299    0.2046867 -11.05  0.001286785    3.276    0.695
       228  -9.5441     11.8322     29.3706   7.4142343446e+01   7.4819965469e+01    0.1667179    0.1208903  -0.18 0.0001850963    1.441    0.306
       229 -11.4864    248.3149     26.9267   1.2949054760e+01   2.3414258279e+01    0.3233202   0.07064445 -45.05   0.00102326    2.683    0.627
       230 -10.6874    198.6330     28.3700   1.6245171984e+01   3.2676237467e+01    0.2300868    0.1138385  86.24  0.001132148    2.248    0.555
       231 -10.8180    156.8968     28.1813   1.9982556534e+01   4.2234658944e+01    0.2218347    0.1792669 -83.76 0.0003239666    1.162    0.139
       232 -11.0225    160.0794     25.0150   1.8648609217e+01   4.1829754548e+01     0.231215    0.1973628 -44.93 0.0003645272    1.128    0.114
       233 -11.1551    112.3733     26.9220   2.5997550300e+01   5.3763222413e+01    0.3648058    0.2630888  -3.41  0.001355928    1.842    0.457
       234 -10.4612    238.9754     27.6792   1.3576476072e+01   2.4943214351e+01    0.1600849    0.0648289  50.24 0.0007049644    4.365    0.771
       235 -10.1479    234.4056     27.2231   1.3718195619e+01   2.5807102122e+01    0.1672207   0.07553194 -40.90 0.0002797787    1.555    0.357
       236  -9.9459    176.7639     26.9550   1.7634132776e+01   3.7663591714e+01    0.1665352    0.1006697 -31.61  0.000382416    1.543    0.352
       237  -9.4602    144.6590     27.2659   2.1135288061e+01   4.5382176752e+01    0.1484544   0.09270331 -65.75 0.0004546501    1.599    0.375
       238 -11.0804    216.2036     25.4463   1.4346453297e+01   2.9426038064e+01    0.2647076     0.184982  63.65  0.001089486    1.761    0.432
       239 -11.1516    224.5868    247.5595   5.6815494657e+01  -1.5944743486e+00    0.2562436   0.07999542 -36.28  0.001408134    2.997    0.666
       240 -12.3134    132.9947     18.8867   1.9668081644e+01   4.9311502493e+01    0.2765636    0.2569014  77.78 0.0003615575    1.135    0.119
       241  -9.9773     79.9782     26.2278   3.3464496058e+01   6.2234436922e+01    0.2096336    0.1604604  14.99  0.000679792    1.652    0.395
       242 -12.7889     27.6299     37.6888   6.5600641070e+01   7.1061111435e+01     0.288982    0.2815328  27.70 0.0003718871    1.100    0.091
       243  -9.6008     70.9445     25.7133   3.6151193432e+01   6.4542721128e+01    0.2451697   0.07968238  42.51 0.0007019826    4.108    0.757
       244 -11.7027      9.3327     24.8104   7.4205775780e+01   7.6086565430e+01     1.118443    0.2455047  27.64   0.00375363    3.935    0.746
       245  -9.6670    160.4913    249.0237   6.7982709176e+01   4.4184500762e+00    0.1495901    0.0761371 -19.51 0.0008086374    2.415    0.586
       246 -10.0001     91.0113    249.2679   8.2149999299e+01   1.1909043609e+01    0.1671208    0.1234751  28.66 0.0004026506    1.050    0.048
       247 -10.0325     54.2897     23.1927   4.1427755948e+01   6.8814654623e+01    0.2667838    0.1862696 -52.63  0.001313769    1.683    0.406
       248 -10.8435     22.4545     24.0389   6.2016806627e+01   7.4681751336e+01    0.2495949    0.2257764  -2.48 0.0003941084    1.036    0.034
       249  -8.6133     33.2484     15.0638   4.7655981276e+01   7.4458500107e+01    0.6759098    0.2203663  37.42  0.002214338    3.805    0.737
       250 -10.7522    219.1272    247.6782   5.7679197019e+01  -1.1271029076e+00    0.1641016    0.1079425 -39.84  0.001203874    2.088    0.521
       251 -12.4117     28.5030     19.6979   5.4391333867e+01   7.4548146755e+01    0.2991341    0.2356028  27.62 0.0002283761    1.231    0.187
       252 -10.6131     24.2617     20.0305   5.7919843882e+01   7.5184975989e+01    0.2081642    0.1900301   8.74 0.0005576556    1.029    0.028
       253 -10.2959     82.8502     22.0613   3.0510296545e+01   6.2050251775e+01    0.2631867    0.2008877  68.68  0.001235689    1.248    0.198
       254 -10.3186     63.4942     22.4804   3.7094097115e+01   6.6790019689e+01    0.2223291     0.142338 -28.99 0.0001074433    1.670    0.401
       255  -9.6668     64.6891     19.3380   3.4804151694e+01   6.6926348692e+01    0.1473203    0.1356928  44.48 0.0003158325    1.047    0.045
       256 -10.3999     34.7838     22.0480   5.1565952334e+01   7.3015673271e+01     0.307431     0.218535  32.24   0.00133514    1.393    0.282
       257 -11.1454    249.0643     20.9791   1.1673799020e+01   2.3913489194e+01    0.1719868    0.1196153 -46.41 0.0003317781    1.005    0.005
       258 -10.6657    118.6098     27.7493   2.5194706300e+01   5.2028886560e+01    0.2695146    0.1839319  68.23  0.001275671    1.397    0.284
       259 -10.3464     59.0674     21.0940   3.8052947211e+01   6.8026220071e+01      0.21032    0.1967936  60.18 0.0004450415    1.058    0.054
       260 -10.3878    161.8529     19.6334   1.6807849582e+01   4.2000518140e+01    0.2771946    0.1609418  -4.47  0.001218973    2.693    0.629
       261 -10.5447     87.0593     20.0275   2.8378972366e+01   6.1214337072e+01    0.2085019    0.1931119  63.53 0.0002871339    1.048    0.046
       262 -12.2537    238.2209     17.7577   1.1461257248e+01   2.6126841830e+01    0.2339841    0.1935922 -54.92 0.0002716438    1.165    0.142
       263 -11.1897    233.4877     14.9831   1.1061320075e+01   2.7263793316e+01    0.1696991    0.1478638 -71.77 0.0006971825    1.273    0.214
       264 -10.7842     97.4082     18.3061   2.5194713929e+01   5.8709438595e+01    0.2978668      0.20192 -62.98  0.001446575    1.590    0.371
       265 -10.0544     41.2268     19.2107   4.5631899442e+01   7.2227890972e+01    0.1777142    0.1622451 -67.19 0.0006158301    1.305    0.234
       266 -11.0915    142.3835     17.0711   1.7918854304e+01   4.7100579132e+01    0.3542795     0.193242  56.84 0.0009013796    1.935    0.483
       267 -10.0344     83.2740    248.3917   8.3753184057e+01   1.2886598682e+01    0.1771342   0.08024995  34.96 0.0009459287    1.670    0.401
       268 -10.2893    193.2128     16.3400   1.3484872212e+01   3.5155104019e+01    0.2116206    0.1352427 -78.45 0.0008152213    1.487    0.328
       269 -10.5209     72.8243     16.0869   3.0208861510e+01   6.5314108855e+01    0.2916923    0.2324892  84.31  0.000867424    1.312    0.238
       270 -10.7191     72.8826    244.8533   8.5760735996e+01   1.4599910248e+01    0.2544131    0.1956745  23.69  0.001370171    1.119    0.106
       271 -11.8339     75.6304    238.9591   8.4683316680e+01   1.5344842020e+01    0.4370914    0.4058034 -51.62  0.003217185    1.335    0.251
       272 -11.0041    249.5175     15.0761   1.0430927789e+01   2.4439572103e+01    0.1626623    0.1191982 -56.96 0.0006269079    1.141    0.123
       273  -9.8334     76.5463     15.5942   2.8849504591e+01   6.4427111973e+01    0.1403967    0.1287739  68.16 9.584172e-05    1.014    0.014
       274 -12.1605      8.1436    248.7947   1.0021557829e+02   2.0029556934e+01    0.6035739    0.1945309  28.33  0.003043234    2.191    0.544
       275 -10.3974     60.1848     13.7568   3.3067670829e+01   6.8707200077e+01    0.1913601    0.1519986  28.91 0.0006132908    1.334    0.250
       276 -10.0350     54.1101     14.0908   3.5708084999e+01   7.0109589272e+01    0.2044464    0.1725181  36.61 0.0004329059    1.149    0.130
       277 -10.6719    169.3725     17.1951   1.5422454080e+01   4.0465343744e+01    0.1981926   0.09806895 -39.71 0.0009542165    1.693    0.409
       278 -10.1741    195.3456    238.4367   6.0327836533e+01   2.2015672348e+00    0.1886357    0.1189492 -33.24  0.001226726    1.613    0.380
       279 -11.0618     18.1839    236.6460   9.7659914312e+01   2.1459940343e+01     0.419034   0.08300588  40.46  0.001780118    2.734    0.634
       280 -11.1229    183.2415    234.3613   6.1893493157e+01   3.9711202284e+00    0.2111394    0.1483534  23.04  0.001255599    1.314    0.239
       281 -10.6904    160.3036    235.4080   6.6305674960e+01   6.3199853249e+00    0.2166888   0.09284493  23.34  0.000798635    2.058    0.514
       282 -11.6336     30.1464    234.0600   9.4819964677e+01   2.0887771280e+01    0.3768252    0.1661633  53.08  0.001961516    1.951    0.487
       283 -11.2252    184.9577    228.1866   6.0725308338e+01   4.6112238145e+00    0.3595978    0.1753677 -20.20  0.001921332    2.343    0.573
       284 -10.3233    165.4508     17.4358   1.5818940355e+01   4.1371194168e+01    0.1352176    0.1109901 -62.33 4.743896e-05    1.022    0.021
       285 -10.3911     39.5125    229.4906   9.2401814109e+01   2.0890000780e+01    0.2431674    0.1183589  48.90  0.001286077    1.724    0.420
       286  -9.5904    151.5284    228.5107   6.7124810677e+01   8.3342416469e+00    0.1183232   0.09525198  10.99 0.0001600444    1.033    0.032
       287 -10.4014    191.3187    226.4353   5.9345399455e+01   4.1600466209e+00    0.1653784    0.1371141 -46.25  0.001193446    1.831    0.454
       288 -10.7128      3.6813    225.9042   1.0067657580e+02   2.4784321637e+01    0.1654307    0.1422905 -71.38  0.001143315    1.451    0.311
       289  -9.4888    230.0000    221.9671   5.2367583158e+01   7.9586873547e-01    0.1582417   0.04818901 -36.16 0.0007939836    2.884    0.653
       290 -10.0109    211.7462    218.4094   5.4700983777e+01   3.0452850448e+00    0.1811914    0.1168351 -37.55  0.001129907    1.692    0.409
       291 -10.8111     48.4890    218.7647   8.9570177315e+01   2.2145845349e+01    0.3962151    0.1853212   7.33  0.001579181    3.349    0.701
       292  -9.6329    176.3657    218.7239   6.0936885544e+01   6.8952866589e+00    0.1049605   0.08602725  40.96 0.0004716015    1.673    0.402
       293  -9.6457    135.5657    216.4977   6.8831861225e+01   1.2192714180e+01    0.1241402     0.103806  10.82 0.0001959604    1.013    0.013
       294 -10.5237     24.1083    216.1339   9.5444630841e+01   2.5080766457e+01    0.1808127    0.1153017  52.78 0.0004337212    1.309    0.236
       295 -10.5481     29.6895    215.5566   9.4033183004e+01   2.4686678373e+01    0.2330853    0.1125633  19.73  0.001105029    2.027    0.507
       296 -11.3913     14.3049    215.4167   9.7830287411e+01   2.6093482788e+01    0.2925024    0.1255898  32.94  0.001096088    1.778    0.438
       297 -12.4293     12.0670    210.7679   9.8218490956e+01   2.7279905652e+01    0.4685694    0.2196853  67.18  0.001744078    2.001    0.500
       298 -12.8670      4.8124    208.2065   9.9950058323e+01   2.8422478609e+01    0.6305997    0.2955721  84.23  0.003200951    2.122    0.529
       299 -10.6136    217.4594    210.4716   5.2565471081e+01   3.4588693283e+00    0.2205932   0.09010842 -36.29  0.001213943    2.191    0.544
       300  -9.8098    147.4827    206.4704   6.4866213461e+01   1.2370251506e+01    0.1267797    0.1053529   5.17 0.0007289969    1.034    0.032
       301 -11.4705     20.1980    200.8378   9.5725271942e+01   2.8785869582e+01    0.4900667    0.1688646 -63.83  0.002045418    3.099    0.677
       302 -11.0032    175.3868    202.3134   5.8616461733e+01   9.4703710459e+00    0.2195781     0.176865   3.93 0.0005035972    1.045    0.043
       303  -9.9145     67.2771    202.9862   8.3505114002e+01   2.3388365158e+01    0.1781563    0.1628907  56.39 0.0004219543    1.099    0.090
