#   1 NUMBER                 Running object number                                     
#   2 MAG_AUTO               Kron-like elliptical aperture magnitude                    [mag]
#   3 X_IMAGE                Object position along x                                    [pixel]
#   4 Y_IMAGE                Object position along y                                    [pixel]
#   5 X_WORLD                Barycenter position along world x axis                     [deg]
#   6 Y_WORLD                Barycenter position along world y axis                     [deg]
#   7 A_WORLD                Profile RMS along major axis (world units)                 [deg]
#   8 B_WORLD                Profile RMS along minor axis (world units)                 [deg]
#   9 THETA_WORLD            Position angle (CCW/world-x)                               [deg]
#  10 FWHM_WORLD             FWHM assuming a gaussian core                              [deg]
#  11 ELONGATION             A_IMAGE/B_IMAGE                                           
#  12 ELLIPTICITY            1 - B_IMAGE/A_IMAGE                                       
         1 -13.7438    212.7134      3.5236   5.3318505638e+01   3.2271234074e+01     1.574035    0.5683571  64.28  0.005806965    2.385    0.581
         2 -15.1660    190.8208     30.5708   6.1257159425e+01   3.4041589356e+01     2.395544      1.68355  27.47   0.01275518    2.401    0.584
         3 -13.1881     42.7168      4.5333   8.5337998009e+01   6.7094094077e+01    0.5621992    0.2956395  40.10  0.002398269    1.646    0.393
         4  -9.8774    166.8909     33.8224   6.5308367973e+01   3.9123451043e+01    0.1881189    0.1580678  63.05 0.0003840486    1.130    0.115
         5  -9.2773    159.2954    250.3018   1.1480644649e+02  -1.6327244781e+00     0.128373   0.09763546   1.55 0.0004167709    1.576    0.365
         6 -18.0781     25.6475    243.3459   1.4123809055e+02   1.9587430067e+01     9.186852     9.019116   6.89   0.06900202    1.567    0.362
         7 -12.6521     40.1532    213.2876   1.3572575366e+02   2.4536423202e+01    0.2979265     0.188689  58.74  0.001457227    1.473    0.321
         8 -10.5776     44.2511    210.3463   1.3453063349e+02   2.4719935350e+01    0.3803325     0.170042  57.61  0.001302859    2.402    0.584
         9 -12.6091     55.8797    211.7315   1.3211304337e+02   2.2892692162e+01    0.6734242    0.3927612  54.45 0.0007973615    1.648    0.393
        10 -12.3272     63.9204    207.8276   1.2983188692e+02   2.2715183945e+01    0.4720586    0.4326013 -35.41  0.002402687    1.404    0.288
        11 -12.9558     60.1462    204.9530   1.3034023651e+02   2.3923713106e+01     0.483732    0.3186378 -48.00  0.001416047    1.774    0.436
        12 -13.7194    106.6086    207.5209   1.1984998125e+02   1.6143400690e+01     1.171825    0.7493338 -70.17  0.005472748    1.714    0.416
        13  -9.4200     51.2464    208.3057   1.3275618234e+02   2.4312036751e+01    0.1227373   0.09603201 -50.53 0.0001706183    1.500    0.333
        14 -10.5676    159.0130    205.0645   1.0730804428e+02   7.3230987396e+00    0.4481913    0.2773332  74.82  0.001593645    3.444    0.710
        15 -19.1841     14.6937    109.5843   1.2848157282e+02   5.2066647003e+01     17.02109    0.8710418 -64.36   0.02823698   15.683    0.936
        16  -9.6418    163.4972    204.1674   1.0614051046e+02   6.6934126536e+00    0.2115801    0.1432882 -47.82 0.0005608287    1.508    0.337
        17 -11.0566     45.0676    201.9770   1.3343064755e+02   2.6604070658e+01    0.4039986    0.2253121  73.71  0.001452508    2.020    0.505
        18 -12.3880     69.4753    218.4790   1.2988556756e+02   1.9428595090e+01    0.4001732    0.2820766  68.75  0.001774007    1.369    0.269
        19 -14.0080    113.4825    197.6237   1.1660122274e+02   1.7281788308e+01    0.8312401    0.6485732  69.13  0.003836964    1.383    0.277
        20 -12.0167    121.0397    198.1588   1.1488102224e+02   1.5813926301e+01    0.3595963    0.2233884 -49.51 0.0007798488    1.653    0.395
        21 -10.6884     95.1313    200.2063   1.2143376463e+02   1.9788343866e+01    0.3136115    0.2189595 -88.15 0.0005485091    1.645    0.392
        22  -9.2159     75.2307    200.6265   1.2624721084e+02   2.2807742425e+01    0.1446474   0.09863884  82.46 0.0006897448    1.605    0.377
        23 -10.7926    204.4923    197.9070   9.6234863390e+01   6.2590605643e-01     0.291052    0.1298889 -41.34  0.001188915    2.144    0.534
        24 -10.1956    155.6754    197.2953   1.0661238870e+02   9.6244310338e+00    0.2374264    0.1530373 -55.28 0.0006181973    1.649    0.393
        25 -10.5040    153.3022    195.3000   1.0677681416e+02   1.0510053448e+01    0.2268053    0.2139904   7.30 0.0004700203    1.101    0.091
        26 -10.3602     82.4660    195.0149   1.2369687727e+02   2.3070071712e+01    0.3109523     0.240777  27.71  0.001616216    1.501    0.334
        27 -13.1294     69.7978    191.1134   1.2620685886e+02   2.5930386604e+01    0.8788704    0.6667007 -55.48  0.003274044    1.335    0.251
        28 -10.1387     71.7416    179.7882   1.2402465316e+02   2.8462876227e+01    0.2877355    0.1958146  78.93 0.0006455986    1.700    0.412
        29  -9.2661     25.9901    195.5333   1.3703752898e+02   3.0343428568e+01    0.1660552     0.116528  47.13 0.0009708132    1.462    0.316
        30 -12.2247     73.1609    212.4502   1.2830893185e+02   2.0295732566e+01    0.2848414    0.2281498  79.94 0.0004334243    1.161    0.139
        31  -9.7819    209.8988    199.8342   9.5533809798e+01  -6.6409968006e-01    0.1745999    0.1653871 -72.76 0.0003197866    1.308    0.235
        32  -9.8908    166.7376    187.9455   1.0229163965e+02   9.5840969338e+00    0.2205876      0.18964 -43.72  0.001148916    1.155    0.134
        33 -12.2438    193.6276    192.9742   9.7482752155e+01   3.5171091275e+00    0.9168569    0.4974425 -54.76  0.003502571    2.177    0.541
        34 -10.1714     76.8634    207.1069   1.2675445263e+02   2.1008798298e+01    0.4555086    0.2576432 -59.10  0.001371671    1.725    0.420
        35 -11.5635     99.2984    180.8262   1.1719083418e+02   2.3819397090e+01    0.3068842    0.2903015  42.60 0.0006015799    1.126    0.112
        36 -11.0168    207.3656    179.6636   9.2021704512e+01   3.7111076190e+00    0.5005125    0.3306871  15.71  0.002264295    2.078    0.519
        37  -9.1534     53.2740    181.2082   1.2887972316e+02   3.0650380765e+01    0.1179551    0.1031739 -34.52            0    1.405    0.288
        38 -11.7845    195.0029    168.2606   9.2135395492e+01   8.3572332261e+00    0.6854007    0.4349873 -64.75  0.001301868    2.155    0.536
        39 -13.3448    111.7017    185.7221   1.1495527338e+02   2.0452437652e+01     1.273525    0.8043753 -24.32  0.004913494    2.701    0.630
        40 -10.3511      2.4116    169.9698   1.3989775989e+02   3.8635236796e+01    0.2269923     0.150684  77.05  0.001114259    1.437    0.304
        41 -10.9273    145.9937    168.4613   1.0312075198e+02   1.8074449556e+01    0.3086643    0.2168461 -34.26 0.0008117144    1.595    0.373
        42  -9.2512    141.9918    158.9587   1.0205466994e+02   2.1115208992e+01    0.1878676    0.1778697 -56.76 0.0003599092    1.033    0.032
        43 -12.9381     97.3760    154.9208   1.1276673546e+02   3.0611197589e+01    0.8333915    0.5785769 -25.97  0.003618733    1.955    0.488
        44 -10.8857    189.5334    155.2604   9.0461204291e+01   1.2187915049e+01    0.3931101      0.30657 -55.50  0.001573118    1.290    0.225
        45 -11.9967    133.8978    145.0288   1.0095508060e+02   2.6060333578e+01     1.241408    0.3295915 -54.50  0.002956121    5.125    0.805
        46 -10.0058    113.1762    151.2974   1.0775373203e+02   2.8637654322e+01    0.3500019    0.1896631 -74.63  0.001099232    3.421    0.708
        47 -10.2990    174.9072    149.1323   9.2206237368e+01   1.6530313918e+01     0.239749    0.2113895 -84.32 0.0005999805    1.257    0.204
        48 -12.0499    145.2109    146.4511   9.8465117013e+01   2.3385628065e+01    0.5063916    0.4517944  75.35  0.002552972    1.205    0.170
        49 -12.1242    108.0538    140.4747   1.0673515073e+02   3.2241099375e+01    0.6150862    0.3608374 -33.64  0.002404026    2.156    0.536
        50 -12.6272     96.3307    140.5365   1.0999979898e+02   3.4355072246e+01     0.316419    0.2865863 -31.52 0.0006879976    1.162    0.140
        51 -11.9572    115.9856    130.2423   1.0217491431e+02   3.3158647446e+01    0.6714038     0.429744  23.29  0.001603961    2.085    0.520
        52 -11.3360    119.8058    124.7720   9.9806161504e+01   3.3666175713e+01    0.4026697    0.2657989 -20.06    0.0015866    2.282    0.562
        53 -11.1599    105.9804    130.8207   1.0506795632e+02   3.4948339692e+01    0.3888382     0.333799 -70.28  0.001136411    1.227    0.185
        54 -11.3849    103.1131    126.5752   1.0485770361e+02   3.6487797479e+01    0.3349803    0.2756444 -14.57 0.0007281853    1.444    0.308
        55 -10.5228    160.8220    127.9284   9.0400360777e+01   2.4215331759e+01     0.310883     0.219808 -66.13  0.001360732    1.656    0.396
        56 -10.6204    125.8690    127.6420   9.8901968504e+01   3.1771135633e+01    0.3940669    0.2575786  86.41  0.001417362    2.829    0.646
        57 -11.4066    135.6405    122.0818   9.5002952503e+01   3.0980477559e+01    0.5767486    0.2050321 -52.75  0.001734012    3.279    0.695
        58 -11.5503     67.6693    117.3097   1.1319986039e+02   4.4546004761e+01     0.251033    0.2086391 -62.74 0.0006934784    1.206    0.171
        59 -12.2430     65.3801    114.2241   1.1319452275e+02   4.5591524822e+01     0.358622    0.3214576 -45.59 0.0007198641    1.021    0.021
        60 -10.2866    167.8396    112.6638   8.5125266455e+01   2.5885350617e+01    0.3040777    0.2333879 -66.90 0.0008050873    1.425    0.298
        61 -10.4451    110.4891    119.4599   1.0102925861e+02   3.6731450284e+01    0.2525413    0.2447632 -38.00  0.000279567    1.017    0.017
        62 -11.3212    119.9450    110.8920   9.6234304148e+01   3.6743227461e+01    0.4788548    0.2900829  70.02  0.001726596    2.870    0.652
        63 -10.2682    205.6546    110.1270   7.7243170530e+01   1.8021478522e+01    0.2586294    0.2117569  50.80 0.0006460046    1.339    0.253
        64 -13.6568    119.0296    212.3243   1.1771591412e+02   1.2908934680e+01    0.6961929    0.6545117 -29.53   0.00309312    1.211    0.174
        65 -10.3352     41.9009     91.9680   1.1556215646e+02   5.3514104279e+01    0.1961282    0.1725443 -34.69 0.0004804944    1.030    0.029
        66 -10.6743     53.1410     90.5126   1.1130272888e+02   5.2487493412e+01    0.2364787    0.1670141 -31.17  0.001279064    1.354    0.262
        67 -11.4648    167.4091     67.4632   7.3781881794e+01   3.4285814121e+01    0.6219944    0.3452482 -83.75  0.002147347    3.658    0.727
        68 -13.8827    126.7592    208.0763   1.1522683848e+02   1.2510413494e+01    0.7360806    0.6437911  69.93  0.004031065    1.171    0.146
        69 -11.9328    101.4481    198.0616   1.1957435484e+02   1.9251479838e+01    0.5319129     0.370923 -20.09  0.001954508    2.344    0.573
        70 -13.7425    175.7239     45.9271   6.6966078396e+01   3.5526333167e+01    0.7628479    0.6021723 -28.65  0.000891089    1.531    0.347
        71 -10.1683    172.1901    238.6667   1.1028951673e+02  -1.6325550232e+00    0.2240775    0.1864294 -59.83  0.001306453    1.460    0.315
        72 -13.7025     50.4460    218.3906   1.3403740971e+02   2.2059054597e+01     0.683686    0.2773491  58.64  0.002723337    2.878    0.653
        73 -10.3914    175.5451    236.5441   1.0923890720e+02  -1.7960800073e+00    0.3130198    0.1343357 -53.10  0.001256077    2.920    0.658
