#   1 NUMBER                 Running object number                                     
#   2 MAG_AUTO               Kron-like elliptical aperture magnitude                    [mag]
#   3 X_IMAGE                Object position along x                                    [pixel]
#   4 Y_IMAGE                Object position along y                                    [pixel]
#   5 X_WORLD                Barycenter position along world x axis                     [deg]
#   6 Y_WORLD                Barycenter position along world y axis                     [deg]
#   7 A_WORLD                Profile RMS along major axis (world units)                 [deg]
#   8 B_WORLD                Profile RMS along minor axis (world units)                 [deg]
#   9 THETA_WORLD            Position angle (CCW/world-x)                               [deg]
#  10 FWHM_WORLD             FWHM assuming a gaussian core                              [deg]
#  11 ELONGATION             A_IMAGE/B_IMAGE                                           
#  12 ELLIPTICITY            1 - B_IMAGE/A_IMAGE                                       
         1 -11.5283     24.0267     46.3895   8.6763960695e+01   6.4757489735e+01    0.7242467    0.3992841 -26.24  0.003131689    1.719    0.418
         2  -9.4445     42.5189     30.8028   7.2543650966e+01   6.5421969547e+01    0.5397294    0.2393367 -39.38  0.002661749    2.154    0.536
         3 -11.3667     28.4946     30.3248   7.8835878581e+01   6.7143570734e+01     0.770259    0.3770436 -18.60  0.003677144    2.488    0.598
         4  -9.8879     30.3798     20.8053   7.3951742582e+01   6.8398690483e+01    0.4466251     0.241198 -35.45  0.002313127    1.698    0.411
         5  -7.8468     49.3821     24.0017   6.6710233935e+01   6.5458972036e+01     1.101146    0.4208598 -27.44  0.004667068    3.006    0.667
         6 -10.8563     37.4715     26.6794   7.3115543930e+01   6.6685496640e+01    0.3087898    0.2530276 -29.55 0.0002283063    1.311    0.237
         7 -10.5282     41.0531     21.3316   6.9184403938e+01   6.6992570403e+01    0.3679923    0.2881763 -54.51  0.001626173    2.135    0.532
         8  -9.7347     30.9867     12.3042   6.9796486623e+01   6.9495643763e+01    0.3033425    0.2020207  23.71  0.001584398    1.365    0.268
         9 -10.3473     35.5893     17.4314   6.9959201051e+01   6.8239089101e+01    0.4797465    0.2532529 -39.21  0.001704849    1.997    0.499
        10 -12.5281    105.1064     20.7600   4.6916446083e+01   5.5487747802e+01    0.2792685    0.2566177  35.96 0.0004132122    1.068    0.064
        11 -11.0899     24.0122      6.6886   7.0594662003e+01   7.1047100236e+01    0.4577557     0.248146  39.48  0.001152309    2.272    0.560
        12 -11.1703      8.1148     15.2857   8.3180568452e+01   7.1375388829e+01    0.4863383    0.2744029  -5.00  0.001074962    1.685    0.406
        13 -12.3929     14.4259     11.3472   7.7939714241e+01   7.1422113671e+01    0.2937537    0.2319874   4.85 0.0002113538    1.227    0.185
        14 -10.1682     18.2105      1.8594   7.1245648179e+01   7.2299697935e+01    0.2542409    0.1372101  18.91 0.0008100492    1.670    0.401
        15 -10.1404    131.6077     22.0108   4.1473911597e+01   4.9368885139e+01    0.3753964    0.2565755  -4.97  0.001988255    1.877    0.467
        16 -10.3804     85.0007     21.4810   5.2744871918e+01   5.9589110741e+01    0.3382618     0.308099 -73.47 0.0009973301    1.533    0.348
        17 -10.6024    153.6436     22.8719   3.7808327942e+01   4.4077422605e+01    0.2807769    0.2473841 -32.38 0.0003171589    1.276    0.216
        18 -10.0554    146.1310     12.6909   3.6025115764e+01   4.6899204926e+01    0.7893429    0.2934191  64.32  0.003350476    2.276    0.561
        19  -9.9638    148.6168     16.7981   3.6843821959e+01   4.5908380467e+01    0.2663941    0.2067182 -58.33 0.0007487888    1.418    0.295
        20  -9.6849     79.0205     11.2000   5.0402278322e+01   6.1845025277e+01    0.2618518    0.2107944  -8.86 0.0007207203    1.284    0.221
        21  -8.8396     75.5637     12.4560   5.2005145905e+01   6.2385258840e+01     0.262887    0.1843171 -22.32 0.0001480674    1.518    0.341
        22  -9.9215     69.8378     11.6454   5.3536239835e+01   6.3538019198e+01     0.216538    0.1761496  18.10 0.0003724351    1.046    0.044
        23 -11.6567     69.0760     16.4009   5.5836610517e+01   6.3169131977e+01     0.553264    0.3347416  42.14  0.002800919    1.469    0.319
        24 -11.7096     62.0536     17.0058   5.8624080755e+01   6.4331977481e+01    0.4444138    0.2598144  26.20 0.0003316518    1.619    0.382
        25  -9.7830    116.9274     15.0926   4.2176223961e+01   5.3441347498e+01    0.2868148    0.2272805 -19.17 0.0008590014    1.426    0.299
        26 -10.3706    219.7675     18.9751   2.8714015063e+01   2.9260567817e+01    0.5054244    0.2862152  83.71  0.002788665    1.678    0.404
        27  -9.2313    225.5475     16.0404   2.7576530411e+01   2.8357025156e+01    0.2446348    0.1491444 -40.43 0.0009390985    1.591    0.371
        28 -10.6317    230.7517     14.6116   2.6845368482e+01   2.7422798895e+01     0.362184    0.2133071 -89.01  0.001480305    1.581    0.367
        29 -10.7482    166.2825     17.9840   3.4537109486e+01   4.1598537914e+01     0.340667    0.2820401  10.56  0.001168414    1.576    0.365
        30  -9.2215    125.2975     17.3040   4.1191134107e+01   5.1315443674e+01    0.4747967    0.2367186  41.27  0.002214737    2.021    0.505
        31 -11.1834    133.0126     12.3952   3.8141226518e+01   5.0003242585e+01     0.269177     0.259276 -46.78 0.0004568253    1.185    0.156
        32  -9.1460    128.2028     11.0816   3.8593861421e+01   5.1240372126e+01    0.2804109    0.1740445 -22.30 0.0007039487    1.871    0.466
        33  -9.5913    127.9175      8.0000   3.7647285746e+01   5.1581607684e+01    0.3422952    0.1661779  62.47   0.00110555    1.739    0.425
        34  -9.2591    210.7270     14.1247   2.8494616791e+01   3.1779708540e+01    0.2775012    0.1403701 -39.46  0.001119873    1.904    0.475
        35  -9.0288    218.5089     11.5212   2.7227371306e+01   3.0365350434e+01     0.213672    0.1579272 -59.75 0.0009169701    1.195    0.163
        36 -10.6020    218.2528      3.2414   2.5496847881e+01   3.1291255774e+01    0.4157587    0.3298949   5.76  0.002676856    2.064    0.516
        37  -9.5602    211.6999      9.1345   2.7307944563e+01   3.2101544328e+01    0.3139472    0.1899801 -75.47  0.001801703    1.558    0.358
        38 -10.7870    208.9482      3.9122   2.6407323170e+01   3.3241994694e+01    0.4369783    0.2892945 -72.64  0.001469018    1.347    0.257
        39  -9.5358    166.0162      9.5456   3.2294253219e+01   4.2508072412e+01    0.5019711    0.3492162  33.84  0.002839865    1.809    0.447
        40 -12.0135    177.6192      3.0990   2.9245621163e+01   4.0402920177e+01    0.4887659    0.2104428  57.88 0.0004473128    2.077    0.519
        41 -10.3261    153.1390      5.0149   3.2760559834e+01   4.5952015030e+01    0.2835825    0.2332354  30.46 0.0007642922    1.425    0.298
        42 -12.0046    160.8088      2.6126   3.1085259377e+01   4.4362822676e+01    0.4556475    0.2926077  63.35 0.0007837248    1.330    0.248
        43 -10.9094    175.3919     13.1525   3.2063599934e+01   3.9950860120e+01    0.5554416    0.3418351  80.38  0.003017784    1.509    0.337
        44 -10.2919    183.5931     12.7922   3.0997833123e+01   3.8075117503e+01    0.4415026    0.2114546  68.10  0.001422535    1.814    0.449
        45 -11.1029     97.8050     12.2733   4.5602849214e+01   5.7909608589e+01    0.5391241    0.2630018  46.32  0.001300089    1.718    0.418
        46  -9.6249     92.9400      8.0076   4.5208225080e+01   5.9326326378e+01    0.3384747    0.1811171  52.51  0.001334185    1.571    0.363
        47 -11.9348     91.8948      2.8860   4.3474943223e+01   5.9978878706e+01    0.2632388    0.2339011 -54.49 0.0008527777    1.465    0.317
        48  -9.1511     98.1834      6.5884   4.3356923522e+01   5.8340530319e+01    0.2313178    0.1549287  25.90  0.001332469    1.516    0.340
        49 -10.0428     15.1810      4.4124   7.4201193155e+01   7.2295397394e+01    0.2235426    0.1781172 -24.78 0.0006498686    1.382    0.276
        50  -9.4998    245.0991     10.6176   2.4962499911e+01   2.4945764021e+01    0.1975421    0.1493889 -48.39 0.0006047337    1.278    0.218
        51  -9.8140    202.2721      7.5140   2.7806609131e+01   3.4356528161e+01    0.2912583    0.1652188 -61.68  0.001602512    1.713    0.416
        52 -10.2562    191.6141      9.0270   2.9207447940e+01   3.6611876913e+01    0.3398643    0.3021647 -38.74   0.00170963    1.311    0.237
        53 -10.8443    195.5470      3.6510   2.7555987730e+01   3.6250785090e+01    0.5293975    0.2579266  69.72  0.002250997    1.767    0.434
        54  -8.5209    159.3777     10.9563   3.3565212641e+01   4.3937442641e+01    0.2361245     0.102929 -37.27  0.001097317    2.394    0.582
        55  -8.7640     55.9594     10.6120   5.8088350481e+01   6.6071242893e+01    0.2015083    0.1407582   3.00 0.0007042886    1.342    0.255
        56 -10.8780     18.7535     26.6251   8.2181442436e+01   6.8690116452e+01     1.082545    0.4287215 -55.71   0.00443977    4.077    0.755
        57  -8.2040     43.4540      9.5310   6.2720679819e+01   6.8146822083e+01    0.1192106   0.09312128   8.61  0.000193052    1.011    0.011
        58  -9.1135    237.7773     10.4396   2.5459995772e+01   2.6439708822e+01    0.1622489    0.1294405 -87.41 0.0004824767    1.128    0.114
        59 -10.5776    236.9046      5.0948   2.4474281728e+01   2.7198184352e+01    0.3351452    0.2928548   5.33  0.001508283    1.845    0.458
        60 -10.9275      6.8598      8.9799   8.1105744504e+01   7.2419906219e+01    0.2625337    0.1794164 -13.84 0.0008338563    1.109    0.098
        61  -8.6117      1.3445      9.6795   8.4631359589e+01   7.2727463448e+01    0.1501769   0.07866393 -35.54 0.0008619715    1.488    0.328
        62  -8.9052    229.5512      9.2220   2.5842812073e+01   2.8270217238e+01    0.1422627    0.1126855 -27.15 0.0005658039    1.621    0.383
        63  -8.7924    119.7958      9.2258   3.9585059374e+01   5.3334496504e+01    0.1830393     0.133606  33.82  0.001073444    1.377    0.274
        64  -8.4653     69.5448      1.5356   4.9216927324e+01   6.4538959503e+01    0.1952145    0.1396215  37.88 0.0008201809    1.140    0.123
        65 -11.6137     73.9820      4.3981   4.9075954402e+01   6.3449822168e+01     0.470856    0.3001565  -0.40  0.002689617    1.700    0.412
        66  -9.5187     80.2517      3.7303   4.6931406658e+01   6.2284632471e+01     0.362815    0.1720921  32.25  0.001778742    2.107    0.525
        67  -9.3336     52.3122      7.2823   5.7977150037e+01   6.7022578461e+01    0.3190871    0.2342831  35.84  0.001581322    1.271    0.213
        68  -8.6968    184.5253      5.7493   2.9159119449e+01   3.8560163637e+01    0.2834013    0.1744836  37.54  0.001497732    2.248    0.555
        69 -10.2302    106.6697      6.2430   4.1275750513e+01   5.6528957993e+01     0.358807    0.3134131  67.79  0.001132193    1.189    0.159
        70  -9.6141     62.9332      6.6215   5.3701637224e+01   6.5284418886e+01    0.2897737    0.2031501  58.84  0.001733381    1.822    0.451
        71  -9.6402    247.9949      4.7625   2.3655922260e+01   2.5016651484e+01     0.182469    0.1370264 -86.63 0.0002167996    1.154    0.134
        72 -10.9305    250.0176      1.5804   2.2935726435e+01   2.4962182268e+01    0.1948346    0.1427428 -76.42 0.0003914272    1.067    0.063
        73  -8.3945    116.6983      5.3001   3.8859008141e+01   5.4372375410e+01    0.1303999    0.1078447  50.28 0.0002545321    1.034    0.033
        74 -10.6815    115.6839      1.9235   3.7898174609e+01   5.4872987269e+01    0.2273461    0.1800754  50.45 0.0002859723    1.068    0.064
        75  -9.1487     38.0527      4.1562   6.2516906226e+01   6.9529882296e+01    0.2082844     0.139411 -17.21  0.001106707    1.385    0.278
        76  -9.9626    127.0500      2.0311   3.5869938111e+01   5.2278776137e+01    0.4146283    0.1588172  45.99  0.001723349    2.417    0.586
        77 -10.5393     30.5112      2.2209   6.5088848340e+01   7.0775807815e+01    0.2138522    0.1668349 -25.51  0.001534505    1.472    0.321
        78  -8.5210      6.9341      4.1819   7.8799810373e+01   7.3093579885e+01    0.1307604   0.07043712  19.69 0.0008259583    1.746    0.427
        79  -9.3696    120.0139      2.6091   3.7314000939e+01   5.3840205034e+01    0.2168983    0.1801731  -9.04  0.001407651    1.403    0.287
        80  -8.7683    144.3850      2.1438   3.3169188231e+01   4.8247831371e+01    0.1653135    0.1090373 -42.10 0.0009443049    1.701    0.412
        81  -9.9080    135.4368      1.6254   3.4364625419e+01   5.0374247157e+01    0.2549006    0.1519629  74.64 0.0009888723    1.561    0.359
        82  -8.6848    185.7846      1.3559   2.7964985925e+01   3.8685017283e+01    0.1767334   0.09223396  64.59 0.0006445224    1.667    0.400
        83  -9.2544     87.8096      6.4605   4.5948899744e+01   6.0525078762e+01    0.2002925    0.1481098  52.13 0.0006410316    1.223    0.183
        84  -8.5862     51.2157      1.3539   5.5594999135e+01   6.7790866349e+01    0.2618463    0.0920555  45.21  0.000898127    2.462    0.594
        85  -8.4686      4.3175      1.4432   7.9010344185e+01   7.3687044548e+01     0.204006   0.08156554   8.44 0.0009565472    3.277    0.695
        86  -9.2426     34.0328    114.3160   9.9387453240e+01   4.8913155785e+01    0.2295789    0.1591709 -53.60 0.0004779668    1.232    0.188
        87  -9.6969    201.4460    249.5832   8.0445074945e+01  -6.0118503241e+00    0.2445701    0.1762062   7.07 0.0005748809    1.261    0.207
        88 -10.3305    115.9062    248.5112   9.7630460303e+01   6.8493538740e+00    0.2551355    0.2275246  56.44 0.0009555695    1.097    0.088
        89 -11.5797     21.6857    107.1561   1.0221642520e+02   5.1668274360e+01     1.141322    0.3698502 -69.50  0.004284609    2.942    0.660
        90 -10.5135     16.1292    107.9961   1.0419517965e+02   5.1858295841e+01    0.2986356    0.2233212 -61.20 0.0003000589    1.089    0.082
        91 -10.9589     21.9504    120.8050   1.0430193611e+02   4.8332724838e+01    0.3588175    0.2326812 -53.52 0.0003332826    1.324    0.245
        92 -10.7422     19.5387    117.4660   1.0455702138e+02   4.9328988289e+01    0.3130239    0.2422751   6.93 0.0005525359    1.573    0.364
        93  -9.8188    221.4263    119.3856   5.1165672717e+01   1.3499049707e+01    0.3153155    0.2588013  33.77 0.0007311684    1.405    0.288
        94  -9.2125     93.7937    119.2738   8.1319015863e+01   3.9823476607e+01    0.2892849    0.2376693 -37.42  0.001012411    1.206    0.171
        95  -9.1969     55.3936    117.8555   9.3114814845e+01   4.5788605332e+01    0.2699582    0.1760236  55.80 0.0006859964    1.939    0.484
        96 -10.7189     44.9212    119.5026   9.6809762803e+01   4.6565683337e+01     0.362745    0.2460769  30.39  0.001196611    1.643    0.391
        97  -9.8653     13.9821    113.5007   1.0572766186e+02   5.0675519099e+01    0.2390326    0.1832273 -71.83 0.0005761609    1.125    0.111
        98 -10.4307     11.3319    116.6083   1.0700184777e+02   5.0095215210e+01     0.504882    0.2432589 -89.10  0.002226457    2.530    0.605
        99 -10.5622      3.5988    109.1732   1.0842138629e+02   5.2324544332e+01    0.3317835    0.2589847  79.99  0.001733741    1.385    0.278
       100 -10.1649      3.2496    116.7377   1.0950530069e+02   5.0537854997e+01    0.3289235    0.1776156 -69.53  0.001784897    1.459    0.315
       101  -9.6843     70.2504    116.3458   8.8001747564e+01   4.4217423105e+01    0.2586198    0.2024252  68.77 0.0003952864    1.599    0.375
       102 -10.2706     47.9968    114.0845   9.4764373488e+01   4.7566861988e+01    0.4108581    0.3300729   3.36   0.00149834    1.442    0.306
       103 -10.2056     30.7886    111.7370   9.9992655149e+01   4.9830127112e+01     0.293847    0.1599897 -41.50  0.001424479    1.792    0.442
       104  -8.5953     80.4408    115.5178   8.4563512630e+01   4.2908406349e+01    0.1481242    0.1385393 -48.13 9.022022e-05    1.019    0.019
       105  -9.1441     61.9133    113.4673   9.0064569352e+01   4.6048358436e+01    0.2263925    0.1769219 -56.09 0.0005583254    1.171    0.146
       106  -8.4612    162.4162    113.5406   6.1380584192e+01   2.7202750306e+01     0.153279     0.148002 -38.98 3.320965e-05    1.013    0.013
       107  -9.3803     76.0822    111.9007   8.5097490116e+01   4.4443701192e+01    0.2054055    0.1927301 -85.89  0.001145191    1.172    0.147
       108  -8.8946    233.8217    111.6098   4.7458251623e+01   1.2473740851e+01    0.1786651    0.1315332  72.28 0.0009428586    1.704    0.413
       109  -8.1833     35.6214    110.7399   9.8210844082e+01   4.9639293376e+01     0.138938   0.09046148 -31.48 0.0006976476    1.668    0.400
       110  -8.3708     79.8454    108.3490   8.3019730632e+01   4.4713283628e+01    0.1929458    0.1385421  16.15 0.0009098798    1.630    0.387
       111  -8.0058     57.7216    107.7456   9.0182192165e+01   4.7965818000e+01    0.1371596    0.1000194 -28.50 0.0006841507    1.464    0.317
       112  -9.4289     37.3914    106.2361   9.6748927658e+01   5.0562876968e+01    0.3070074     0.157566 -52.41 0.0009621894    1.627    0.385
       113  -9.6653     39.9538    102.7275   9.5156533005e+01   5.1155476885e+01    0.3896737    0.2936501 -87.02 0.0007515862    1.593    0.372
       114 -10.0557     44.5157     99.8535   9.2949602566e+01   5.1371097904e+01    0.3880287    0.2120814  28.53  0.001091172    2.013    0.503
       115  -9.3684     40.0893     99.1274   9.4344783075e+01   5.1997352340e+01      0.22488    0.1973572  17.60 0.0004720312    1.277    0.217
       116  -9.7056      8.5217    105.9588   1.0638069458e+02   5.2818264876e+01    0.2754491    0.1043294 -54.25 0.0008622664    1.996    0.499
       117  -8.4759     43.3591    106.1171   9.4692938775e+01   4.9997519802e+01    0.1898485    0.1205453 -72.42 0.0004375272    1.685    0.407
       118 -11.3024     69.8789    103.4104   8.5074017195e+01   4.7369695218e+01     0.864776     0.296263 -42.66  0.002885439    3.061    0.673
       119 -11.0924     80.0291     96.3404   7.9850072480e+01   4.7461164107e+01    0.6690726    0.3977293 -46.11  0.003040127    1.575    0.365
       120  -9.4804    132.2408    104.0279   6.6317364409e+01   3.5821128073e+01    0.2599709    0.2191437  45.66 0.0004531201    1.203    0.169
       121  -9.8486    108.0459    104.0379   7.3122142789e+01   4.0764434178e+01    0.2330183    0.2174496 -39.47 0.0004923051    1.047    0.045
       122 -10.6811    101.2066    102.7042   7.4819354163e+01   4.2358248991e+01     0.403282    0.3307142  16.00 0.0007055731    1.338    0.252
       123 -10.6144     52.9576    102.8740   9.0698150936e+01   4.9708693029e+01    0.4344669    0.2982047   8.86 0.0004899629    1.745    0.427
       124  -9.1082     50.7393     99.3347   9.0653499994e+01   5.0804921063e+01    0.2256422    0.1774541 -55.50 0.0005356111    1.164    0.141
       125  -8.9811     33.7803    103.0906   9.7363227865e+01   5.1652628395e+01    0.2619188    0.1454209 -46.42 0.0009835636    1.576    0.365
       126 -10.4709    118.9542    102.9812   6.9672976246e+01   3.8829950337e+01    0.4370806    0.3150432   4.52            0    1.952    0.488
       127  -9.8670    113.7140    101.3404   7.0722919153e+01   4.0247020698e+01    0.3479869    0.2561001  70.40  0.001539119    1.877    0.467
       128 -11.7453    117.6802     97.9357   6.8637510745e+01   4.0179724747e+01    0.3563332    0.3015403 -17.57 0.0003397632    1.275    0.215
       129  -8.7851    127.2622    101.9790   6.7094421262e+01   3.7318741155e+01    0.2133497    0.1983642 -37.28 0.0002605823    1.061    0.058
       130  -9.2979     95.0527    100.3282   7.6078496130e+01   4.4014171694e+01    0.2953902    0.2092771 -53.61  0.001045732    1.439    0.305
       131  -9.1596     85.4585    102.2235   7.9640138731e+01   4.5237694407e+01    0.3578998    0.1963319  45.27 0.0009609374    2.036    0.509
       132  -9.0209     18.2774     90.9059   1.0046316130e+02   5.5747562291e+01    0.2411756    0.1618925 -11.97  0.000686253    1.711    0.415
       133  -9.2792     16.7913     98.7093   1.0242478100e+02   5.4023999861e+01    0.2270442    0.1400559 -54.74  0.001118034    1.299    0.230
       134  -9.5821     13.3525     95.0326   1.0298132040e+02   5.5107689109e+01    0.3430323    0.3093297 -36.81   0.00234438    1.153    0.133
       135 -10.8338      2.1580     79.2714   1.0425056748e+02   5.9311204239e+01    0.4162542    0.2425958 -84.15  0.002035893    2.013    0.503
       136 -10.8517      6.9603     98.3004   1.0573698433e+02   5.4713155474e+01    0.5760791    0.4690492  82.65  0.003751661    1.381    0.276
       137 -10.1508      2.2352     92.2668   1.0641916257e+02   5.6355639390e+01     0.250868    0.1995041  42.51  0.001400721    1.572    0.364
       138 -10.2931      2.1465     87.0806   1.0561187100e+02   5.7549182887e+01     0.482096    0.1311286 -63.06  0.002021369    2.528    0.604
       139  -8.5862    177.0120    101.2885   5.5069321005e+01   2.6392666318e+01    0.2024601    0.1902522  60.94 0.0003485062    1.093    0.085
       140  -8.2015     63.2153     98.9486   8.6228580540e+01   4.9337915873e+01    0.1843831      0.10803 -54.61 0.0003595816    1.588    0.370
       141  -9.2637    149.8760     97.2629   6.0023465596e+01   3.3334885292e+01     0.248636     0.205571 -53.86 0.0002817375    1.248    0.199
       142 -10.0256    125.6592     96.7716   6.6085470673e+01   3.8759993303e+01    0.2982484    0.2782988 -18.19 0.0008691589    1.082    0.076
       143  -8.6819    111.5371     96.8382   7.0103778566e+01   4.1657383351e+01    0.2246351    0.1475808 -44.60 0.0007368072    1.498    0.333
       144  -9.2966     86.9409     96.5115   7.7624454233e+01   4.6283750891e+01    0.2349657    0.1947909 -42.17  0.001227512    1.146    0.128
       145  -8.4031    184.3386     96.7039   5.2439689715e+01   2.5609175685e+01    0.1527197     0.115109 -78.33 0.0007031065    1.655    0.396
       146  -8.3084    154.6370     96.2565   5.8629308093e+01   3.2457238787e+01    0.1536728    0.1207206  87.47 0.0006591523    1.627    0.385
       147 -10.0732     23.0251     94.7069   9.9491467346e+01   5.4523508496e+01    0.3124798    0.1832748 -67.96   0.00110052    1.579    0.367
       148 -11.2036     27.0702     87.3818   9.6507180660e+01   5.5904279258e+01    0.7237474    0.3653657 -35.25  0.001272877    1.985    0.496
       149 -10.0156     31.7133     94.2140   9.6274835158e+01   5.3934218057e+01    0.3421467    0.2360318 -88.89  0.001073867    1.910    0.477
       150  -9.7374     34.1550     90.7949   9.4644351151e+01   5.4509988127e+01    0.3326011    0.1881262 -38.09 0.0009624104    1.670    0.401
       151 -10.6815     46.6005     90.9972   9.0147107069e+01   5.3209365220e+01    0.4660112    0.3306094 -87.20  0.001299845    2.038    0.509
       152  -8.7396    114.0003     90.7191   6.7637506175e+01   4.2451524004e+01    0.2161624    0.1948745  39.28 0.0006024192    1.119    0.106
       153  -8.9296    104.8195     90.9439   7.0423485773e+01   4.4235377725e+01    0.2666363    0.1969539  41.03  0.000583667    1.375    0.273
       154 -10.6584     64.9965     76.0132   7.9305620617e+01   5.4162127237e+01    0.5589806    0.4937312  66.49  0.002638733    1.510    0.338
       155 -11.6918     80.6810     83.4620   7.5989801148e+01   5.0171531963e+01    0.4618217    0.3237285  20.77 0.0004436538    1.563    0.360
       156 -10.0489     71.4029     88.7862   8.0711870500e+01   5.0482745126e+01    0.5244142    0.2325194 -53.91  0.001542636    2.286    0.563
       157 -11.1032     72.9125     79.6128   7.7537604638e+01   5.2226345969e+01    0.6743774    0.4676534 -28.88  0.002601787    1.457    0.314
       158  -8.7734     52.5820     90.7553   8.7920491850e+01   5.2576437882e+01    0.1898639    0.1273325 -65.71 0.0009374346    1.646    0.392
       159 -10.4206     86.5695     88.8918   7.5603395420e+01   4.8020352783e+01    0.3870798    0.3390589  -1.09  0.001323559    1.162    0.139
       160  -9.4314     38.3396     81.2878   9.0816464699e+01   5.6266121767e+01    0.3637285    0.2188229   9.61  0.001509543    1.953    0.488
       161  -9.1305     59.6187     90.2918   8.5274770651e+01   5.1799658815e+01    0.2366863    0.1340369  34.53    0.0007203    1.897    0.473
       162  -9.8108     57.9598     87.0529   8.5011599817e+01   5.2741784509e+01    0.3751214    0.2577395  52.27 0.0004090514    1.935    0.483
       163 -10.6740     51.4298     83.1049   8.6349393464e+01   5.4430280599e+01    0.4621981    0.4062333  32.67  0.002242696    1.293    0.227
       164 -10.1891     44.6507     81.7290   8.8529156813e+01   5.5510570741e+01    0.4628331    0.3620484  25.84  0.002697527    1.404    0.288
       165  -9.0336     97.5606     88.4971   7.1951523939e+01   4.6134143474e+01     0.266802    0.2135353 -69.36 6.215352e-05    1.579    0.367
       166  -9.1986     95.8917     85.1325   7.1485914563e+01   4.7148450979e+01     0.273315    0.2163015 -54.36 0.0003044934    1.375    0.273
       167  -9.3804     39.6236     88.3145   9.2058418179e+01   5.4556565740e+01    0.2663682    0.2000024 -35.17 0.0008461458    1.213    0.176
       168  -9.5450      6.9843     89.1175   1.0421637707e+02   5.6842700383e+01    0.2570162    0.1530498  32.49 0.0009826369    2.042    0.510
       169 -10.7065    129.0044     85.2436   6.1879645126e+01   4.0370000010e+01    0.6420307    0.4054968  16.28  0.002449323    2.605    0.616
       170 -10.5989    123.7015     86.5273   6.3682485093e+01   4.1268089616e+01     0.396487    0.3114769  -6.71  0.001458394    1.547    0.354
       171 -10.6987    119.2274     84.5004   6.4323547069e+01   4.2623435837e+01    0.5160565    0.3001121  46.10  0.002215384    1.721    0.419
       172  -9.2395     14.4131     87.3241   1.0118509812e+02   5.6825122775e+01    0.3644046    0.1466016 -38.21  0.001627202    2.411    0.585
       173  -8.2328    182.2761     87.3424   5.0443243279e+01   2.7794845735e+01    0.1446686    0.1177867   4.15 0.0003970338    1.621    0.383
       174  -9.6139    104.8136     85.8864   6.8941761202e+01   4.5288241137e+01    0.3416846    0.2991747 -54.74  0.001145311    1.237    0.191
       175  -8.6787    105.5951     81.2260   6.7304907051e+01   4.6074446418e+01     0.269062    0.1385338 -43.12 0.0005767503    1.935    0.483
       176 -10.3799    155.1851     85.0993   5.5441961557e+01   3.4472118321e+01    0.3116061    0.2877605  18.23 0.0003118443    1.175    0.149
       177 -10.5970    150.8717     80.5745   5.5148360723e+01   3.6303880679e+01    0.6116568    0.3758827  70.02  0.001763679    2.177    0.541
       178  -9.3384    146.0706     70.3505   5.3297084625e+01   3.9228491016e+01    0.2632941    0.2344558 -73.45 0.0008270948    1.227    0.185
       179 -10.1134    145.8079     74.9756   5.4705890711e+01   3.8483436858e+01     0.334451    0.2764724 -58.05  0.001717418    1.308    0.236
       180  -9.4131    141.5126     75.4781   5.5862949198e+01   3.9384609025e+01    0.2493632    0.2092197  42.20 0.0005550128    1.184    0.155
       181  -9.4108     65.2266     85.6781   8.2021728664e+01   5.2063920844e+01    0.3233494    0.2263136 -10.21  0.001198243    1.707    0.414
       182 -10.5165    141.4622     83.4118   5.8179205726e+01   3.7937487907e+01    0.6390506    0.3534942  53.99  0.001965233    1.869    0.465
       183  -9.6384    136.9288     79.1486   5.8057744259e+01   3.9761882700e+01    0.2894581    0.2329008 -82.28 0.0009563389    1.589    0.371
       184  -9.5138     86.8279     83.5691   7.3958672639e+01   4.9105448597e+01    0.2502866    0.2239204 -57.03 0.0003135344    1.243    0.195
       185  -9.0484     18.6232     71.8371   9.6245643148e+01   6.0006238694e+01    0.2848214      0.18795 -55.57  0.001164089    1.288    0.223
       186 -10.0958     18.0165     81.0333   9.8556057433e+01   5.8017191388e+01    0.4087024    0.2494793  32.75  0.001555157    1.958    0.489
       187 -10.5137     18.2740     77.0219   9.7579476786e+01   5.8894074923e+01     0.262176    0.2382222 -40.83  0.001337983    1.129    0.114
       188 -10.0987    122.9608     79.0440   6.1661089351e+01   4.2880140067e+01    0.4290963    0.2942322  66.53  0.001896171    1.901    0.474
       189  -9.4838    119.6920     76.2993   6.1723677723e+01   4.4102544855e+01    0.4131205    0.2780232 -85.45  0.001433209    3.000    0.667
       190  -9.5618     93.6967     79.1131   7.0366478053e+01   4.8783746803e+01    0.3117254    0.2251622 -16.13  0.000997488    1.615    0.381
       191 -10.8293    168.0568     78.4426   5.0870302342e+01   3.2675736450e+01    0.2708213    0.2574676 -57.02 0.0003430044    1.041    0.039
       192 -10.3356    169.5113     74.0687   4.9393823492e+01   3.3090074205e+01    0.3381482    0.2606085 -25.42 0.0009349373    1.459    0.315
       193  -9.5332    160.0376     78.9674   5.2676692646e+01   3.4459696236e+01    0.2375358      0.18034  23.12  0.001119923    1.669    0.401
       194  -9.4613    111.4412     77.6104   6.4465919905e+01   4.5594449087e+01    0.3508633     0.183111 -46.35  0.001434172    2.009    0.502
       195  -9.3999     77.4288     62.1640   7.0388847124e+01   5.4928183247e+01    0.3056123    0.1923236  42.06 0.0009995007    1.664    0.399
       196 -10.5593     88.8214     74.9570   7.0663441163e+01   5.0500991054e+01    0.7466292    0.3304447 -37.20  0.002895678    2.353    0.575
       197 -10.9049     94.3731     71.4219   6.7736062881e+01   5.0158789911e+01    0.8700262    0.4182663 -38.24  0.003386738    2.095    0.523
       198 -10.4708     82.7998     63.2274   6.8881232364e+01   5.3803673250e+01    0.5290726    0.3020036 -52.02  0.002351634    2.146    0.534
       199  -9.6221     86.9063     68.1376   6.9116964957e+01   5.2159741145e+01    0.2818352    0.2141066  24.81 0.0002874996    1.324    0.244
       200  -9.4170     89.7819     65.9439   6.7445088173e+01   5.2041530875e+01    0.2433364    0.2068255 -27.35 0.0008007315    1.145    0.127
       201 -13.0876     52.9311     74.5142   8.3378589560e+01   5.6099650830e+01    0.6820558    0.3647146 -58.95   0.00110708    2.129    0.530
       202 -11.5128     45.2082     68.7433   8.4693723738e+01   5.8226521508e+01    0.2972914    0.2124437 -31.61 0.0002194882    1.251    0.200
       203  -9.0987     12.7524     76.8745   9.9707009932e+01   5.9283119222e+01    0.4018482    0.1411124 -64.75  0.001712157    2.523    0.604
       204 -10.2506    178.9803     74.7418   4.7775714978e+01   3.0756314807e+01    0.3568273    0.3210956  11.59   0.00162044    1.330    0.248
       205  -9.6407    175.2256     75.0166   4.8548917390e+01   3.1587865603e+01    0.2174246    0.2071343  84.48  0.000217466    1.024    0.023
       206  -9.3975     37.2830     76.2619   8.9928313477e+01   5.7474648390e+01     0.228487    0.1560489 -35.85  0.000620703    1.295    0.228
       207 -10.6005     45.1412     47.8165   7.7906839622e+01   6.2269523732e+01     1.032096    0.5088729   2.76  0.003810752    3.966    0.748
       208 -10.7092     45.6643     54.4148   7.9975466805e+01   6.0998792847e+01    0.9113813    0.2789221  27.02   0.00332532    3.749    0.733
       209 -11.0179     14.5118     39.6730   8.9027765982e+01   6.6767141269e+01    0.4409796    0.3781401  61.88  0.002707848    1.911    0.477
       210  -9.9654     28.9561     74.9513   9.2872218431e+01   5.8526702916e+01    0.3971306    0.2305597 -49.95  0.001658078    1.422    0.297
       211 -11.7149     28.9582     65.5529   9.0391241767e+01   6.0530344512e+01    0.8336115    0.6814473 -24.41  0.001621875    1.084    0.077
       212  -8.8149     31.7986     47.7879   8.3712654092e+01   6.3769284757e+01    0.1771758    0.1543976 -17.96 0.0005020942    1.125    0.111
       213  -9.2312     34.0697     42.0106   8.0668901536e+01   6.4577748978e+01    0.3408364    0.1992312   4.08  0.001815499    1.907    0.476
       214  -8.2451     57.0208    249.0045   1.0951916451e+02   1.4859271380e+01     0.133939    0.1077981  68.83 0.0009185073    1.053    0.050
       215 -10.5628     36.4596     48.5507   8.1910562182e+01   6.3143106633e+01    0.8282539    0.3477954 -29.65  0.002946776    2.797    0.643
       216 -11.0856     54.1300     61.0319   7.8741507833e+01   5.8667027827e+01     0.473828    0.3619226  75.72 0.0002567995    2.484    0.597
       217 -11.2832     56.2469     56.7129   7.6460076441e+01   5.9197315966e+01     0.352395    0.2665738  38.44 0.0002841673    1.507    0.337
       218 -11.5479     24.8527     55.8955   8.9367605987e+01   6.2850020137e+01     0.531423    0.2771777 -46.37  0.001727677    1.571    0.364
       219 -10.6691     28.6240     52.2108   8.6574317541e+01   6.3238446173e+01    0.2561297    0.2188639  -2.60 0.0008266694    1.172    0.147
       220  -9.9579     14.2583     53.7547   9.3437763561e+01   6.4079047582e+01    0.2406831    0.1610127 -38.20  0.000788394    1.183    0.154
       221  -9.7464     10.8044     68.5445   9.8657289009e+01   6.1218516535e+01    0.4705307    0.1781489 -45.50  0.001621915    2.016    0.504
       222 -10.1295     15.4790     60.3473   9.4688493617e+01   6.2655774043e+01    0.4456167    0.2559688 -48.28   0.00180157    1.377    0.274
       223 -12.4484      2.3790     66.1953   1.0159578939e+02   6.2162766062e+01    0.4130307    0.2084632 -61.68 0.0003751128    1.613    0.380
       224 -10.5151      6.4451     51.8618   9.6435730200e+01   6.4934736470e+01     0.313163    0.2336465 -21.70 0.0008122306    1.213    0.176
       225 -10.2813     10.7062     50.9560   9.4256160051e+01   6.4866289649e+01    0.5095649    0.2101758 -56.67  0.002540082    2.058    0.514
       226 -11.2333      9.1094     62.8180   9.8027055269e+01   6.2534368579e+01    0.3933073      0.24466  27.56   0.00095274    1.927    0.481
       227 -11.0531      5.1877     58.7991   9.8741690680e+01   6.3585572220e+01    0.6250783    0.2823861 -38.72  0.002583324    1.807    0.447
       228 -10.0921     37.4076     69.9202   8.8154915111e+01   5.8819003843e+01    0.3759086    0.2252104 -50.98  0.001361216    1.480    0.324
       229 -10.8749    135.0073     64.7697   5.4221542520e+01   4.2730717461e+01    0.6605977    0.3322114  46.27  0.002250571    1.927    0.481
       230 -10.4079    140.7212     68.2576   5.3914478648e+01   4.0827314230e+01    0.4049402    0.2746957 -52.69  0.001064477    1.659    0.397
       231 -10.1394    143.5333     65.5069   5.2445313006e+01   4.0636111580e+01    0.2890789    0.2443183 -76.71 0.0006575768    1.367    0.268
       232  -8.8841    111.5291     70.9414   6.2362222271e+01   4.6824448393e+01     0.222777    0.1432226 -37.01 0.0009787689    1.578    0.366
       233  -9.8041    103.0573     69.8941   6.4536461699e+01   4.8752063166e+01     0.398044    0.3451652   3.30  0.002176102    1.175    0.149
       234  -8.7819    106.9393     66.2878   6.2212742833e+01   4.8615146100e+01    0.2473542     0.170004  47.14 0.0004091691    1.451    0.311
       235 -10.2702     80.0897     70.1096   7.2074732539e+01   5.2977590435e+01    0.2357027    0.2286416   9.25  0.001411011    1.144    0.126
       236 -10.4810    173.4466     68.8673   4.7235384035e+01   3.3032269014e+01    0.2725705    0.2421814  65.30 0.0003558334    1.104    0.094
       237  -9.6656    157.1492     68.6393   5.0387001360e+01   3.6919005219e+01    0.3343529    0.2370059 -39.37  0.001388296    1.435    0.303
       238  -8.3981    160.3178     69.6429   5.0014553938e+01   3.6003749646e+01     0.155015    0.1118629 -72.99 0.0007044903    1.754    0.430
       239  -8.7044     63.9631     69.0511   7.7542947952e+01   5.5729538688e+01    0.3254399    0.1769013  23.00   0.00146706    2.085    0.520
       240  -9.0096    119.4138     67.2806   5.8998936999e+01   4.5794306615e+01    0.2883568    0.2122537  13.36  0.001367107    1.693    0.409
       241  -9.2175     75.3700     65.9413   7.2375759302e+01   5.4566781718e+01    0.2119966    0.1903869  33.81 0.0005482938    1.212    0.175
       242 -10.1881    152.7249     60.9333   4.9096716263e+01   3.9216245335e+01    0.5749105     0.318969  37.42  0.002359512    2.196    0.545
       243  -9.9346     71.5204     60.3432   7.1891404955e+01   5.6239108556e+01    0.3942466    0.2339557  36.71  0.001507555    1.700    0.412
       244  -9.2304     65.4785     62.0390   7.4698708573e+01   5.6866356997e+01    0.2654732    0.2105556  -0.20 0.0009875481    1.242    0.195
       245  -8.6564     62.2685     62.3287   7.6008894911e+01   5.7286968542e+01    0.2045891    0.1669689 -16.59 0.0004929166    1.122    0.108
       246  -9.8522    193.8587     60.6830   4.1644369322e+01   2.9551515436e+01    0.3896228    0.1894603 -39.59  0.001040011    1.978    0.494
       247  -8.9141    175.3322     62.3604   4.5143069484e+01   3.3628931429e+01    0.2145818    0.1681894  20.42 0.0005751863    1.700    0.412
       248  -8.5217    110.2744     62.6276   6.0054578180e+01   4.8557504574e+01    0.1959191    0.1284255  37.85 0.0005394309    1.504    0.335
       249  -8.5238    101.6829     62.6929   6.2608409857e+01   5.0318393523e+01    0.1473798    0.1081066   8.52 0.0004450213    1.631    0.387
       250  -9.9362    161.3560     60.2704   4.7167344068e+01   3.7272380139e+01    0.3111891    0.2256218  29.36 0.0007407791    1.724    0.420
       251 -10.3880    131.3068     59.7685   5.3576121113e+01   4.4396637264e+01    0.4697993    0.3915605  71.04  0.002506957    1.317    0.241
       252  -9.4079    124.9424     56.9592   5.4268871955e+01   4.6287636259e+01    0.3593005    0.2502357  75.00  0.001318405    1.928    0.481
       253 -10.7324    142.9279     58.8748   5.0597031709e+01   4.1848050661e+01    0.6154909    0.2803625  45.48  0.002433373    2.197    0.545
       254  -8.7666    114.2751     60.5778   5.8260772520e+01   4.8050842494e+01    0.1948391     0.129581  37.89  0.000237847    1.486    0.327
       255 -10.2213    167.8862     56.7564   4.4956180648e+01   3.6257472564e+01    0.3721777    0.2115623 -34.75  0.001272316    1.835    0.455
       256  -9.7217     39.9131     58.8977   8.3840908996e+01   6.0800419208e+01    0.2565529    0.1821911 -33.44  0.001498877    1.210    0.174
       257  -8.7070    250.0299     58.3863   3.4026843505e+01   1.7846717518e+01    0.1636323    0.1375325 -73.34  0.001080452    1.091    0.083
       258  -9.1505    181.6311     56.9743   4.2636675757e+01   3.2966465473e+01    0.4310426    0.2062255 -54.30  0.001712756    2.497    0.600
       259  -9.6805    136.9181     55.6894   5.0983978246e+01   4.3745058987e+01    0.3608796    0.2121499 -29.32  0.001110446    1.882    0.469
       260  -9.9451     92.3500     54.7409   6.2819120664e+01   5.3511658083e+01    0.5509807    0.3255973  38.60  0.002631294    1.631    0.387
       261  -9.7484     93.1512     51.1144   6.1298151311e+01   5.3944520887e+01    0.4053282    0.2425913  53.33  0.001142666    1.880    0.468
       262  -9.5951    161.5366     54.5896   4.5527330800e+01   3.8095305781e+01    0.2684647    0.2310448  80.95 0.0007682953    1.163    0.140
       263  -9.6627    127.1329     39.9458   4.8241757324e+01   4.8263353329e+01    0.3762196    0.2491615  57.00  0.001913142    1.413    0.292
       264 -10.7147    122.5056     50.4161   5.2770794465e+01   4.7841013033e+01    0.8674367    0.4136196  40.02   0.00320084    2.215    0.549
       265 -11.4405    127.0457     46.6991   5.0453490790e+01   4.7353809925e+01    0.5546116    0.3755871 -65.13  0.002410011    2.121    0.528
       266 -10.0179    131.0039     45.9893   4.9300142616e+01   4.6545090962e+01     0.241977    0.2122898   0.47            0    1.255    0.203
       267  -8.2686    217.5334     54.4708   3.6868153133e+01   2.5141826057e+01    0.1305295    0.1175869 -70.84 9.461016e-05    1.054    0.051
       268  -9.4649     55.9118     45.4985   7.2603677318e+01   6.1230687835e+01    0.2338637    0.2005472  27.34 0.0007926431    1.270    0.213
       269 -11.4943     68.7756     48.0062   6.8546391555e+01   5.8837898857e+01    0.4302922     0.301478 -49.48 0.0003604696    1.747    0.428
       270 -12.5053     62.0472     44.2492   6.9709578269e+01   6.0523274998e+01    0.3619879    0.3233652   3.58 0.0004690152    1.106    0.096
       271  -9.7152     16.1836     46.8616   9.0534116767e+01   6.5295421899e+01    0.2103766    0.1493044  -9.57 0.0004207512    1.332    0.250
       272  -9.1404    197.3624     59.8106   4.0896379211e+01   2.8877437114e+01    0.2125789    0.2004447  64.65 0.0002361053    1.151    0.131
       273  -9.8184    146.0947     52.6475   4.8040508618e+01   4.2053339503e+01    0.3600694    0.2422162  67.53  0.001116678    1.563    0.360
       274  -8.8700    106.7838     52.8578   5.7803791197e+01   5.0895855186e+01    0.2078008     0.176888  17.64  0.000375399    1.165    0.142
       275  -9.6782     61.2902     52.3624   7.2967632462e+01   5.9260846307e+01     0.242424    0.2109757  -8.51 0.0005133378    1.024    0.024
       276  -8.6603    232.5656     51.5049   3.4444198787e+01   2.2352798922e+01    0.1290507    0.1074471 -65.17 8.003841e-05    1.015    0.015
       277  -9.3342    175.2504     49.9729   4.1829997453e+01   3.5500461643e+01     0.343175    0.2447086   0.07  0.001640139    2.159    0.537
       278 -10.2754    159.9701     50.0340   4.4527399122e+01   3.9135056113e+01    0.4042434    0.2111756  43.58  0.001692114    2.105    0.525
       279  -8.7801    164.4931     46.5101   4.2713567177e+01   3.8551983660e+01     0.217626    0.1178749  51.06 0.0009793675    1.787    0.440
       280  -9.4871     86.4639     49.2209   6.2782310183e+01   5.5529680620e+01    0.4355866    0.1950609  34.78  0.001777559    2.370    0.578
       281 -10.0621    201.8396     47.1978   3.7178788972e+01   2.9682677244e+01    0.2327712    0.2072581  10.80  0.001394985    1.502    0.334
       282  -9.1448    182.2183     48.4787   4.0318493458e+01   3.4062118760e+01     0.234711    0.1935018 -43.32 0.0007112545    1.237    0.192
       283 -10.6622    153.6622     47.7163   4.5054041256e+01   4.0969489875e+01    0.3367014    0.2911893  73.13 0.0007245766    1.122    0.109
       284  -8.2746    142.4827     49.4724   4.7846296176e+01   4.3369631656e+01    0.1413804     0.131403  48.52 -0.0001021872    1.037    0.036
       285 -10.0792    114.7760     46.9476   5.3608433492e+01   5.0070089863e+01    0.3281876    0.2431562 -22.90 0.0009703509    1.457    0.314
       286 -10.8668     79.7859     43.5120   6.2943671600e+01   5.7653429467e+01    0.4393308    0.4036493 -59.18   0.00204814    1.450    0.310
       287  -8.6031    234.8938     47.1174   3.3253300597e+01   2.2480496505e+01    0.1863336    0.1394105 -67.63 0.0002950874    1.182    0.154
       288  -8.3453    207.0251     46.0628   3.6234657685e+01   2.8664322649e+01    0.1582896    0.1356483 -57.93 0.0004733531    1.098    0.089
       289  -9.8377    145.9002     45.7328   4.6001968605e+01   4.3091846649e+01    0.3191243    0.2327414 -38.74 0.0007438324    1.449    0.310
       290  -8.9088    144.5045     41.5070   4.5005185622e+01   4.3997421455e+01    0.3225029    0.1209498  55.96 0.0009476609    2.370    0.578
       291  -9.0855    245.0049     44.6960   3.1730845614e+01   2.0752307484e+01    0.1712384    0.1411259 -81.07 0.0008366515    1.115    0.103
       292 -11.0455    106.8020     43.7697   5.4675414389e+01   5.2254967329e+01     0.442367    0.3365166  34.44 0.0004208027    1.242    0.195
       293  -9.8866    103.8995     38.3181   5.3563723814e+01   5.3629164794e+01    0.3371139    0.1930654 -28.97  0.001278885    1.870    0.465
       294  -9.0968    186.2060     44.1188   3.8589874691e+01   3.3726584098e+01    0.3818397    0.1221165  60.85  0.001411614    2.855    0.650
       295  -9.2227    178.1775     44.0351   3.9777261825e+01   3.5632071021e+01    0.3167877    0.1693146  75.69  0.001316235    2.112    0.526
       296  -8.8383      2.1082     43.2628   9.6100575131e+01   6.6855831347e+01    0.2775972    0.1552636 -74.71  0.001314102    2.634    0.620
       297  -8.8877    197.0492     48.4853   3.8143245588e+01   3.0600792809e+01    0.2461469    0.1576962  80.17 0.0007723268    1.644    0.392
       298  -9.9850     91.3523     41.8347   5.8534773253e+01   5.5709540441e+01    0.3430111    0.3159373 -56.87  0.001881957    1.374    0.272
       299  -8.7562     93.0285     38.2177   5.6690630684e+01   5.5887920427e+01    0.2203032    0.1628003  20.25 0.0005102707    1.371    0.271
       300  -9.5355     94.4299     35.1428   5.5134014921e+01   5.6021249592e+01    0.4185245    0.1972452  50.93  0.001611796    2.029    0.507
       301  -8.7173     86.1373     43.5337   6.0824466696e+01   5.6469596751e+01    0.1979343    0.1242753  41.79 0.0004567417    1.505    0.336
       302  -8.9012     71.0159     42.9874   6.5853242836e+01   5.9272875295e+01    0.2173429    0.1455506   1.96 0.0007222657    1.726    0.421
       303 -11.6590    235.0590     29.7512   2.9589546020e+01   2.4726457001e+01    0.3032805    0.2261275  59.69 0.0005045506    1.540    0.351
       304  -9.5309    232.7692     23.5047   2.8502445853e+01   2.5966731497e+01     0.410351    0.1934896 -83.55  0.001533372    2.568    0.611
       305 -10.8385    227.8658     40.1001   3.2483686746e+01   2.4904701002e+01    0.4562595    0.3207812 -36.61  0.001687169    1.471    0.320
       306 -10.1459    222.6628     40.5183   3.3129504357e+01   2.5963278530e+01    0.2458233    0.1951256 -70.65 0.0005405261    1.101    0.092
       307  -9.4463    223.6115     34.2355   3.1650041446e+01   2.6578157942e+01    0.2610885    0.1937416 -73.47 0.0007992591    1.204    0.170
       308  -9.8532    227.0691     33.0430   3.1043286361e+01   2.5990336135e+01    0.2160411    0.1625203  85.05  0.000299355    1.233    0.189
       309  -9.1776    113.0911     41.3613   5.2152784565e+01   5.1230490939e+01    0.2165936     0.181326  -2.94 0.0005821956    1.281    0.219
       310  -9.7982    158.1602     39.1729   4.1748402215e+01   4.1051826124e+01    0.2402072    0.2141515  63.76            0    1.046    0.044
       311 -11.2411     40.1617     39.4866   7.7006671053e+01   6.4319938866e+01    0.2292248    0.1668919 -18.47 0.0002628925    1.192    0.161
       312  -9.6499     12.0700     32.3177   8.7711615890e+01   6.8267142729e+01     0.193717    0.1567548  -1.63 0.0007393128    1.225    0.184
       313  99.0000      8.0366     30.7529   8.9213589853e+01   6.8823729502e+01    0.3730272    0.2138896  -2.68  0.002269558    1.736    0.424
       314  -9.6516      7.5085     39.4585   9.2362275382e+01   6.7278011529e+01    0.2232091    0.1683164 -14.57 0.0007322842    1.192    0.161
       315 -10.9314      4.4254     36.3304   9.2900406352e+01   6.8041277874e+01    0.4514292    0.2852112 -10.14  0.002064005    1.498    0.333
       316  -8.8742    203.0456     38.9961   3.5056176948e+01   3.0516077989e+01    0.2043746    0.1343483 -67.42 0.0003505926    1.552    0.356
       317  -9.4599    121.1486     38.9040   4.9304425192e+01   4.9764959513e+01    0.2969344    0.2349409 -63.61  0.001506403    1.593    0.372
       318 -10.4514    178.2417     37.1974   3.7961383081e+01   3.6519279365e+01    0.3516103    0.2400126  59.90  0.001040724    1.379    0.275
       319 -10.0215    137.4715     37.1977   4.5108757811e+01   4.6218374316e+01    0.5936733    0.3165263  29.35  0.001020262    2.832    0.647
       320 -10.3345    146.1293     29.0497   4.0924238781e+01   4.5166976399e+01    0.3540261    0.2755792  57.78 0.0008043812    1.155    0.134
       321  -8.5928     71.2295     36.9788   6.3473906946e+01   6.0143573040e+01    0.2295124     0.214628  62.10 0.0006724686    1.466    0.318
       322 -10.2019     74.5011     34.5062   6.1342543420e+01   5.9922417190e+01    0.4034969    0.2161555 -30.62   0.00200016    1.905    0.475
       323 -10.8057     80.5713     31.6330   5.8149443437e+01   5.9199985423e+01    0.6833057    0.3979694  52.73  0.002649198    1.886    0.470
       324 -10.3764     71.6791     28.2555   5.9850269472e+01   6.1270574408e+01    0.4890083    0.3316117  20.29  0.001255955    1.433    0.302
       325  -9.8592     56.0874     34.5068   6.8295040465e+01   6.2957994760e+01    0.4090159    0.2484628 -49.53  0.002093375    2.260    0.558
       326 -10.7265     50.5171     34.9539   7.0768406881e+01   6.3701348804e+01    0.4155955    0.4056768 -29.79  0.001571783    1.457    0.314
       327  -8.8461     52.9842     16.5149   6.1932402883e+01   6.5875643144e+01    0.2124155    0.1497174 -11.04 -8.517956e-05    1.327    0.247
       328  -8.8202    163.3222    246.3253   8.7553977132e+01   6.5935173297e-02     0.129496   0.09124093   2.02 0.0007047596    1.684    0.406
       329  -8.1441     44.3475    244.2688   1.1160257137e+02   1.7319038627e+01   0.09928424    0.0921893 -17.71 0.0006990233    1.618    0.382
       330  -9.1377     26.5208     22.5389   7.6594811515e+01   6.8570794114e+01    0.2618588    0.1365539 -34.65  0.001002444    1.684    0.406
       331  -8.7133      1.3719    244.2026   1.1945409097e+02   2.1849874043e+01    0.1498935   0.07732949  82.53 0.0004603349    1.608    0.378
       332  -9.5032    244.7015    242.0152   7.1197418159e+01  -1.0647867915e+01    0.1847064    0.1245048  -0.00   0.00054214    1.264    0.209
       333 -10.1553     34.4767     31.5790   7.6510037880e+01   6.6284751518e+01    0.2429496    0.1841692  11.65  0.001326226    1.219    0.180
       334  -8.5804    145.7801    242.0351   9.0576694052e+01   3.4819015465e+00    0.1531628    0.1077391 -51.26 0.0005910881    1.655    0.396
       335  -9.1438    127.7917    240.5798   9.4165457165e+01   6.5146902783e+00    0.1969501    0.1023896  45.17 0.0009523336    1.737    0.424
       336  -8.6386    188.6874    239.6764   8.1401442410e+01  -2.6677475290e+00    0.1312752   0.08851187   0.44 0.0007040132    1.658    0.397
       337  -9.7740    186.5440    235.3048   8.1135665336e+01  -1.6436990932e+00    0.3547542    0.1053569  31.25  0.001227452    3.592    0.722
       338 -10.9067     42.4887     15.7109   6.6022945049e+01   6.7539062263e+01    0.2850868    0.1688805  27.12 0.0003817593    1.516    0.340
       339  -9.6455    248.9466     36.5160   2.9719125072e+01   2.1053652649e+01    0.2457587    0.1309637 -52.83  0.001368674    1.580    0.367
       340  -9.6408    239.8577     37.5352   3.0752350291e+01   2.2745133871e+01      0.28272    0.1148199  72.40  0.000972577    2.593    0.614
       341  -8.9718    186.0048     36.1054   3.6570377925e+01   3.4829095324e+01    0.2717192    0.1458041 -59.50  0.001231168    2.146    0.534
       342  -8.2902    150.1330     38.0000   4.2862978286e+01   4.3119000923e+01    0.2354059   0.07276557  60.42 0.0002656591    2.973    0.664
       343 -10.2644    115.8559     34.9669   4.9261730005e+01   5.1463025656e+01    0.4820798    0.3466641  45.16  0.001690539    1.257    0.204
       344  -9.2698    131.0548     35.7261   4.6000576430e+01   4.7903345160e+01    0.2982153    0.1997611 -48.65   0.00117824    1.728    0.421
       345 -10.4930     87.6478     34.0209   5.6786455333e+01   5.7524307406e+01    0.4729276    0.2892093  19.09  0.002072905    1.961    0.490
       346  -9.9458     61.5943     32.6189   6.5356062849e+01   6.2379380152e+01    0.4903661    0.2633017 -20.18  0.002207318    2.129    0.530
       347  -8.1642     64.5877     28.2972   6.2453383846e+01   6.2489707109e+01    0.1167278    0.1027789  77.24 8.598711e-05    1.851    0.460
       348  -8.7307    208.7226     33.4687   3.3085190526e+01   2.9946547865e+01    0.2910563    0.1212166 -48.70  0.001292172    2.289    0.563
       349  -8.8205    145.8339     34.0556   4.2489276615e+01   4.4637282722e+01    0.2094768    0.1756285 -78.33 0.0009614269    1.306    0.234
       350  -8.2615    228.3713    234.3027   7.2851727182e+01  -7.4856606254e+00    0.1311687   0.07993151   0.93 0.0007031834    1.751    0.429
       351  -9.4365    112.1017     20.0235   4.4968336522e+01   5.4027371790e+01    0.2685819    0.1578358  53.67 0.0007496092    1.472    0.321
       352 -12.4203    107.8140     28.9500   4.9180083377e+01   5.3975558763e+01    0.4796469     0.349407  39.11  0.002697671    1.247    0.198
       353  -9.6658    101.0608     26.1064   4.9920021280e+01   5.5763048382e+01    0.3437801    0.1635648  53.55  0.001054779    1.912    0.477
       354  -9.8510    247.8847     30.7521   2.8668144819e+01   2.2000298983e+01    0.2604566    0.2275362 -18.65  0.001412785    1.618    0.382
       355  -9.5605    184.2224     31.6881   3.5686897884e+01   3.5799527529e+01    0.3127478    0.1566059  68.17  0.001436312    1.863    0.463
       356  -9.3522    183.1830     27.6497   3.4794462428e+01   3.6529701279e+01    0.3296683    0.1691569 -43.60  0.001601532    1.940    0.485
       357  -8.6683    159.9787     32.0000   3.9390764696e+01   4.1516742648e+01    0.2264189   0.07061107  63.03 0.0007991922    2.920    0.658
       358  -9.7475    133.8888     29.4299   4.3391295383e+01   4.8007800822e+01    0.4021246    0.2523969  16.01  0.001859675    2.339    0.572
       359  -9.3066     93.8954     29.9731   5.3364956555e+01   5.6794037600e+01    0.2166187    0.1652752  38.59 0.0003472494    1.164    0.141
       360  -9.0900    222.0042    233.3181   7.3871757914e+01  -6.4767909595e+00    0.1770577    0.1378003  13.92 0.0005106564    1.106    0.096
       361  -8.8422     32.0237    232.4899   1.1315380535e+02   2.1099775134e+01    0.1752713    0.1328832  83.79 0.0003458411    1.130    0.115
       362  -9.4122    186.5261    230.9736   8.0436599490e+01  -9.2824714518e-01    0.1811306    0.1019603 -18.87 0.0008091186    2.463    0.594
       363  -8.3176      3.3305    230.2735   1.1844948938e+02   2.4432365817e+01   0.09518034   0.08086033 -58.08 0.0002621714    1.591    0.372
       364  -8.6071    189.9335     28.4770   3.4134228784e+01   3.4854796805e+01    0.1955628    0.1174755  71.99 0.0007475021    1.541    0.351
       365  -8.1351    173.2847     28.6379   3.6414731030e+01   3.8748839927e+01      0.13919   0.09158701 -66.34 0.0007020021    1.684    0.406
       366  -9.0249    222.8395     26.8542   3.0124528612e+01   2.7665445550e+01    0.1779664    0.1616681  85.96 0.0007816253    1.199    0.166
       367  -9.4610    204.8541     24.8028   3.1509111453e+01   3.1875324885e+01    0.2385746    0.2039222  53.69 0.0005770999    1.366    0.268
       368  -9.3981    208.6603     23.0322   3.0698715984e+01   3.1230251038e+01    0.1894014    0.1459351  84.49 0.0002975863    1.156    0.135
       369  -9.4345     75.0318     22.9577   5.6536194184e+01   6.1325242400e+01    0.1938793    0.1613908  -0.63 0.0003228619    1.138    0.121
       370 -10.2128    213.1230     25.8486   3.0873351077e+01   2.9905902189e+01    0.2491512     0.178856  64.18 0.0006028788    1.404    0.288
       371  -8.5785    161.4774     26.5247   3.7604999383e+01   4.1803525780e+01    0.1330071    0.1183474  67.36 0.0001476169    1.048    0.046
       372 -10.8934      2.0704     25.2532   9.0396103822e+01   7.0155493041e+01    0.2123372    0.1417381 -39.34 0.0003224879    1.193    0.162
       373  -9.0678    163.0094    226.2109   8.4570994390e+01   3.6003293852e+00    0.3419809    0.2460618  84.26  0.001624853    2.608    0.617
       374  -8.9450     88.5559     25.3245   5.3174369543e+01   5.8437717646e+01    0.1715378    0.1192676  -6.71 0.0009404736    1.582    0.368
       375  -8.2234    207.4420    226.4985   7.5503073545e+01  -3.3525660959e+00    0.1288375    0.1083196   3.95 0.0001123824    1.017    0.017
       376  -9.8543    247.0409     23.9289   2.7395538898e+01   2.3010188010e+01    0.2019995    0.1436892 -51.21 0.0004918332    1.219    0.180
       377 -10.1204    174.5990     23.0641   3.4753062732e+01   3.9079271934e+01    0.4229718     0.239589  73.72    0.0015932    1.657    0.396
       378  -9.0113    223.9928    225.0420   7.2075555408e+01  -5.5114085061e+00    0.1922474    0.1556375   2.59 0.0005816538    1.023    0.022
       379  -9.0119    144.2261     19.9586   3.8517184109e+01   4.6622282637e+01    0.2034346     0.166038 -78.76 0.0007283972    1.329    0.248
       380  -8.7055    144.2607     16.3510   3.7423364308e+01   4.6982769545e+01     0.202329    0.1707382  27.80 0.0006129738    1.334    0.250
       381  -8.1739    143.3408    225.7246   8.8739806317e+01   6.8631458982e+00    0.1351183   0.09817482  59.07 0.0003303895    1.616    0.381
       382  -9.7938    151.7750     18.0101   3.6695567685e+01   4.5036644703e+01    0.2224126    0.1789227 -31.02 0.0003873582    1.404    0.288
       383  -8.8515    132.1481    225.2223   9.1117435151e+01   8.7597791143e+00    0.1824486    0.1487584  61.63 0.0004302926    1.329    0.248
       384  -8.9029     83.8658     14.1218   5.0142551609e+01   6.0601381772e+01    0.2096217    0.1714458  68.03  0.001295874    1.523    0.344
       385  -8.3815    125.3282    225.6646   9.2681715205e+01   9.7585867452e+00    0.1397904   0.09765224  64.98 0.0007051901    1.724    0.420
       386  -8.9290    196.8231    222.0148   7.6841231191e+01  -1.0171038479e+00    0.2284961    0.1398495 -11.66  0.001093892    2.080    0.519
       387  -9.5218     89.3351    220.7070   1.0001900468e+02   1.6283349597e+01    0.2361031    0.2234727  26.33 0.0007881665    1.216    0.177
       388  -8.3573    243.5426    219.5045   6.7529276626e+01  -7.3508994744e+00    0.1237346   0.09852275  -7.11  6.52866e-05    1.022    0.021
       389 -11.1871     62.0557     22.4816   6.0979011994e+01   6.3669914895e+01    0.2880663    0.2478784  -5.23  0.001694451    1.146    0.127
       390  -8.6310    117.5158    211.9983   9.2479125797e+01   1.3817895277e+01    0.1947394    0.1375418 -59.65  0.000516357    1.528    0.346
       391  -8.5471    169.4922     23.1057   3.5472407853e+01   4.0283443774e+01    0.1735416    0.1292467 -34.08 0.0003409219    1.476    0.322
       392  -7.9977    123.2839     23.3917   4.3631449548e+01   5.1143296833e+01    0.1396367   0.09192172  27.12 0.0002261825    1.755    0.430
       393 -10.0420    117.0714     22.0482   4.4538047030e+01   5.2700128079e+01     0.284763    0.1954136   1.48 0.0004777165    1.818    0.450
       394  -9.0663    242.8049    210.0743   6.5961836254e+01  -5.8401691463e+00    0.1788176    0.1553335 -27.00 0.0008286453    1.303    0.233
       395  -9.1205     11.3605     23.1856   8.4657971603e+01   6.9868873763e+01    0.1515501    0.1067013 -30.52  0.001035514    1.137    0.120
       396  -8.5987    194.4876    209.4703   7.5099001389e+01   1.5141992294e+00    0.1381429    0.1180047   2.38 0.0004195011    1.054    0.051
       397  -9.7829    123.9982    205.9848   9.0071092660e+01   1.4044349199e+01    0.1974659    0.1859768  40.97            0    1.018    0.018
       398  -8.3761     35.2965    201.3313   1.1003573927e+02   2.7528856973e+01    0.1198442   0.09014904 -47.96 0.0007027724    1.639    0.390
       399  -9.3646      7.5265    195.1222   1.1558139212e+02   3.1614842101e+01      0.35156    0.1878619  51.93  0.001934545    1.724    0.420
       400  -8.9698    199.4779     19.3756   3.0824384124e+01   3.3716610009e+01    0.2422329    0.1204308 -32.51  0.001203937    2.144    0.534
       401  -9.3272    193.1073     19.9775   3.1672572520e+01   3.5105103398e+01    0.2542436    0.1796645  37.49 0.0009393916    1.897    0.473
       402  -8.6884    195.3491     16.2886   3.0540200391e+01   3.4997879385e+01    0.2235396    0.1512083  64.07  0.001255653    1.394    0.283
       403 -10.8878    182.0502     18.5679   3.2630027946e+01   3.7824142597e+01    0.3556356    0.2098058  59.92  0.001192122    1.564    0.360
       404  -8.9035    139.9573     18.8209   3.8914429170e+01   4.7746927917e+01     0.201551    0.1846292 -29.71 0.0006467978    1.237    0.192
       405  -8.6133     96.4164    195.4886   9.5032464553e+01   2.0832473612e+01    0.1384007     0.130637  74.08 0.0001125233    1.022    0.021
       406  -8.7820    241.9836    193.7606   6.3067134599e+01  -3.1640516539e+00    0.1537851      0.10293  30.44 0.0003993364    1.561    0.360
       407 -10.1430     18.1450    174.5706   1.1158758394e+02   3.5480582249e+01    0.2278841    0.1748291 -42.25  0.001403081    1.596    0.373
       408 -10.9140     16.2440    165.0260   1.1116816118e+02   3.7934081732e+01    0.4053346    0.2274194  14.25  0.001330947    2.454    0.593
       409  -8.6362     80.0337     22.9733   5.4895383324e+01   6.0382783656e+01    0.3742635    0.2557822 -65.97  0.001749919    3.118    0.679
       410  -9.5924    238.3507     16.9608   2.6709186389e+01   2.5585352405e+01    0.1895985    0.1526684  56.61 0.0008505615    1.572    0.364
       411 -10.0753     24.2511    162.7866   1.0893174242e+02   3.7789852419e+01    0.2083198    0.1772769  35.65 0.0006401996    1.355    0.262
       412  -9.3653     20.5159    161.0098   1.0969806383e+02   3.8550187270e+01     0.213658     0.156859  67.80  0.001007715    1.341    0.254
       413 -10.3642      7.1937    166.3566   1.1349428736e+02   3.8327797644e+01    0.2092236    0.1782913  32.50  0.001088304    1.420    0.296
       414 -12.2654     40.6227    161.7408   1.0455818814e+02   3.6452635520e+01     0.830243    0.3710822  55.34  0.001121768    2.724    0.633
       415 -12.1587     30.6930    154.9183   1.0635757949e+02   3.9137445343e+01    0.6786015    0.4464172  60.28  0.003571498    1.621    0.383
       416  -8.4532    111.5388     15.1493   4.3377246493e+01   5.4643912189e+01    0.1580583    0.1173878  10.76 0.0003917164    1.528    0.345
       417 -10.0117      8.1352    161.8796   1.1288097431e+02   3.9326949285e+01    0.1866118    0.1397416  81.33 0.0003526195    1.184    0.155
       418 -10.9922      2.0547    156.6702   1.1393061669e+02   4.1002835010e+01    0.5966961    0.1657147 -72.90  0.002424128    2.735    0.634
       419 -10.1408     10.3393    158.4446   1.1202206952e+02   3.9988534520e+01    0.3009263    0.1386907  69.71  0.001340433    2.589    0.614
       420  -9.4764    248.9061    153.8692   5.4025853086e+01   2.4367081566e+00    0.2074438    0.1610865 -14.82  0.000607457    1.285    0.222
       421  -9.4230     45.8859    151.6703   1.0177903376e+02   3.8402883992e+01     0.238499    0.1761778 -75.03 0.0003058738    1.226    0.185
       422 -10.5032     15.7845    142.9064   1.0898980529e+02   4.3365167798e+01    0.3268052     0.228349   7.48 0.0002292134    1.883    0.469
       423 -10.7217     19.9330    150.5762   1.0873097464e+02   4.1154892097e+01    0.4029278    0.1891084 -66.02  0.001957233    1.730    0.422
       424 -11.3753     14.4310    150.5797   1.1019157574e+02   4.1588767467e+01    0.3772964    0.2519426  16.95 0.0003633265    1.900    0.474
       425 -10.2872      9.2262    147.5777   1.1125588622e+02   4.2701383937e+01    0.3162014    0.2039885 -25.27  0.001439198    2.117    0.528
       426  -8.2793     63.0522    148.9852   9.6525061918e+01   3.7029244437e+01    0.1624747    0.1562941  82.60 0.0003307586    1.075    0.070
       427  -9.5825     35.8231    149.1620   1.0422800967e+02   4.0077917162e+01    0.1999199    0.1647091  85.81 0.0004249758    1.164    0.141
       428 -10.4227      2.7490    146.6583   1.1286418254e+02   4.3358151373e+01    0.3208892    0.2159287 -52.46  0.000875662    1.460    0.315
       429  -9.1289     38.1633    143.1635   1.0273902888e+02   4.1347813194e+01     0.198863    0.1640505 -53.79 0.0003400361    1.169    0.144
       430 -10.1660     21.1468    140.1879   1.0717576674e+02   4.3618144878e+01    0.3060979    0.2270911 -60.47  0.001825139    1.183    0.155
       431  -9.6589      1.4997    139.0304   1.1246541863e+02   4.5272392309e+01    0.3089194    0.1000348 -74.55 0.0009874247    2.469    0.595
       432 -10.2601     41.5092    138.6993   1.0110754036e+02   4.2128602794e+01    0.3369556    0.2318345  58.89  0.001310012    1.651    0.394
       433 -10.5729     41.5838    132.9465   1.0018030492e+02   4.3563805102e+01    0.5389516    0.2098037 -61.45  0.002033268    2.132    0.531
       434  -9.1650    230.6836    136.9913   5.3483970594e+01   8.5339987601e+00    0.2031248    0.1622679 -36.19 0.0005641115    1.101    0.091
       435 -10.3391      6.4812    128.3567   1.0993846644e+02   4.7550985877e+01    0.4340521    0.1961107  49.60  0.001505453    2.686    0.628
       436  -9.8816      2.6050    134.1428   1.1166961296e+02   4.6384871575e+01    0.3050182     0.179986  32.27  0.001745625    1.968    0.492
       437 -10.6300      8.2271    133.1114   1.0998377991e+02   4.6287116145e+01    0.3868861    0.2436999 -26.16  0.002139919    2.033    0.508
       438 -10.1829     15.1022    135.4909   1.0831198275e+02   4.5235576639e+01    0.2634358    0.2122804  34.47 0.0008371913    1.452    0.311
       439  -8.9316    235.9466    136.5237   5.2512142928e+01   7.6673142812e+00    0.1869222    0.1375297  44.40 0.0006204066    1.553    0.356
       440  -9.2648     55.6770    126.0633   9.4641886849e+01   4.3718995326e+01    0.2870384    0.1640343 -76.62  0.001229261    2.076    0.518
       441  -8.8059     58.7055    135.4631   9.5455016586e+01   4.0992087163e+01    0.2397824    0.1920591 -25.94 0.0008674621    1.436    0.304
       442 -10.2331     60.6339    131.0004   9.4046704380e+01   4.1871761033e+01     0.455406    0.3423143  52.26  0.001519905    1.487    0.328
       443  -8.9965    249.1607    133.8517   4.9873717688e+01   5.8263615781e+00    0.1855902     0.141821 -21.01 0.0005676771    1.337    0.252
       444  -9.4126     46.9357    133.1363   9.8597463012e+01   4.2949904681e+01    0.2134618    0.1775543  81.14 0.0006110885    1.281    0.219
       445  -8.3899     29.4652    132.4622   1.0373210056e+02   4.4836566537e+01    0.1337834    0.1143162 -72.64 0.0001135291    1.029    0.029
       446  -9.0058     20.4872    131.0562   1.0619121169e+02   4.5924226374e+01    0.2064042    0.1077107 -67.46  0.001021939    1.569    0.363
       447  -9.8035     18.2842    127.2087   1.0632785536e+02   4.7036746075e+01    0.5103871    0.1366325 -55.78  0.001972638    2.744    0.636
       448  -9.2508      2.3007    129.8981   1.1130506369e+02   4.7426367389e+01    0.1845029    0.1598084  62.40 0.0004779862    1.288    0.224
       449 -10.0568     34.6317    127.7359   1.0145680588e+02   4.5544891288e+01    0.2799843    0.1895628 -84.91  0.001367302    1.545    0.353
       450 -10.3088     38.5026    123.5437   9.9567211873e+01   4.6217334085e+01    0.3772743    0.2326619  -6.29  0.001777202    2.323    0.569
       451  -9.6864     50.9791    126.6875   9.6223686149e+01   4.4113749614e+01    0.1807181    0.1775181  31.74 0.0004187301    1.139    0.122
       452  -8.5984     12.5315    126.9216   1.0799862169e+02   4.7511897984e+01    0.2041707    0.1046662 -69.98  0.001027913    1.582    0.368
       453 -10.0509     34.7110    136.1409   1.0271924940e+02   4.3441330887e+01     0.414566     0.157123 -52.89  0.001073355    2.276    0.561
       454  -9.0033    241.4941    124.0511   4.8977184836e+01   8.8691389641e+00    0.2207651    0.1168613 -40.63   0.00104051    1.618    0.382
       455 -10.0465     71.9467    123.1944   8.8967044694e+01   4.2296167181e+01    0.2455312    0.1948939 -51.47 0.0002381272    1.161    0.139
       456 -10.3715     61.7081    121.1247   9.1761019171e+01   4.4195516201e+01    0.4079521    0.2196517 -47.07 0.0005084177    1.730    0.422
       457 -10.2520      6.7271    122.8044   1.0920608579e+02   4.8879901737e+01    0.3170008    0.2333751 -29.82   0.00142484    1.555    0.357
       458  -8.3539    131.1136    123.0106   7.1569419500e+01   3.1856575948e+01    0.1868613    0.1698473  38.90 0.0004760469    1.120    0.107
       459  -9.5582    236.4972    121.4877   4.9196069394e+01   1.0234085560e+01    0.2413508    0.1846476  -4.52  0.001013572    1.702    0.412
       460  -8.8294     84.5429    121.7136   8.4724124168e+01   4.0761175376e+01    0.3119832    0.1293548 -48.89  0.001142897    2.240    0.554
       461  -9.7908     29.2841    120.9367   1.0202986021e+02   4.7706252241e+01      0.23292    0.1640443 -76.43 0.0006290081    1.338    0.253
       462 -10.3915     32.9116    118.0234   1.0039680351e+02   4.8105236332e+01    0.2880138    0.1996932 -29.08  0.001200096    1.620    0.383
