#   1 NUMBER                 Running object number                                     
#   2 MAG_AUTO               Kron-like elliptical aperture magnitude                    [mag]
#   3 X_IMAGE                Object position along x                                    [pixel]
#   4 Y_IMAGE                Object position along y                                    [pixel]
#   5 X_WORLD                Barycenter position along world x axis                     [deg]
#   6 Y_WORLD                Barycenter position along world y axis                     [deg]
#   7 A_WORLD                Profile RMS along major axis (world units)                 [deg]
#   8 B_WORLD                Profile RMS along minor axis (world units)                 [deg]
#   9 THETA_WORLD            Position angle (CCW/world-x)                               [deg]
#  10 FWHM_WORLD             FWHM assuming a gaussian core                              [deg]
#  11 ELONGATION             A_IMAGE/B_IMAGE                                           
#  12 ELLIPTICITY            1 - B_IMAGE/A_IMAGE                                       
         1 -14.4738     68.4211    144.7435   9.7791964527e+01   3.7336780976e+01     4.594851     2.404569  78.44  0.003007293    4.552    0.780
         2 -12.7741      2.2296     83.0822   1.1147719048e+02   5.9454707689e+01     1.185227    0.1547297 -69.59  0.003330414    5.221    0.808
         3 -13.8471    235.0191     19.8538   3.2414890443e+01   2.6004052331e+01     1.118843    0.8643454  44.65  0.005234277    1.872    0.466
         4 -13.8038    207.2089     42.6407   3.9765235274e+01   2.8924929621e+01     1.399377     1.152169  -0.37  0.005747957    1.717    0.418
         5 -13.5169    215.0138     38.2154   3.7965116862e+01   2.7848672269e+01     1.021653    0.6653521 -54.63   0.00393185    1.342    0.255
         6  -9.6507    250.5763      2.1869   2.8090900445e+01   2.4963622296e+01    0.2006626   0.07591023 -38.84  0.001128455    2.057    0.514
         7 -10.2971      2.4820      2.9793   8.6165852973e+01   7.6110142780e+01    0.1710563   0.09832729 -40.10  0.001041814    1.618    0.382
         8 -10.4193     17.0053      2.4759   7.5290572901e+01   7.4588004387e+01    0.1760876    0.1001152  28.82 0.0005599487    1.583    0.368
         9  -9.7126    111.2084    204.1923   9.5525867249e+01   1.6886279341e+01    0.3161335    0.1812587 -89.86    0.0010958    4.211    0.763
        10 -13.3627     44.8214    217.0056   1.1309560427e+02   2.2795088985e+01     1.221412    0.6776172  13.48  0.005872026    2.409    0.585
        11 -14.6132      5.0054    177.9028   1.2001876217e+02   3.5533779980e+01     6.001725    0.9102213 -79.58    0.0159356    6.601    0.849
        12 -13.3227     84.6887    219.7819   1.0394044772e+02   1.7338516530e+01     1.674845    0.9306204  71.50  0.001650192    2.800    0.643
        13 -14.9344      9.1859    207.8677   1.2073026614e+02   2.8285373385e+01     1.975052     1.413031  84.00  0.006488274    1.242    0.195
        14 -16.1837     32.8089    186.7318   1.1349494278e+02   3.0993679823e+01     10.41776     3.774446  64.90   0.03325948    4.537    0.780
        15 -12.1192     55.8848    176.6025   1.0621726246e+02   3.0916540027e+01    0.4664993    0.3176111 -24.48  0.002236435    2.020    0.505
        16 -12.1275     61.7636    171.2684   1.0388246364e+02   3.1507619537e+01    0.3799804    0.3008503 -23.92  0.001104028    1.541    0.351
        17  -9.8752     86.5768    173.1853   9.7209620256e+01   2.7613675707e+01    0.3801628    0.2345724   5.94   0.00155205    2.415    0.586
        18 -11.7607     72.1404    161.9606   9.9536746085e+01   3.2453612317e+01    0.3595771     0.318941  58.86  0.000424451    1.129    0.114
        19 -13.2738     79.2442    155.8548   9.6441359516e+01   3.2967279524e+01     1.419138     1.006746  76.24  0.001310593    1.789    0.441
        20  -9.8723    171.6720    241.7685   8.7573488044e+01   1.4209950944e+00     0.217943    0.1174722 -48.75 0.0007405954    2.313    0.568
        21  -9.4800     72.8723    172.8965   1.0098155519e+02   2.9638669541e+01    0.1985299    0.1855461 -29.43            0    1.168    0.144
        22  -8.5851    110.7037    167.3746   8.9621153410e+01   2.5191407596e+01    0.1534768     0.116322  74.46 0.0007026023    1.743    0.426
        23 -11.5297     36.7081    160.8324   1.0979753894e+02   3.7010596654e+01    0.4408977    0.2686839  59.93  0.001234926    1.754    0.430
        24 -11.6429     32.7078    157.1383   1.1055429817e+02   3.8348402630e+01    0.3459133    0.2753689 -85.44 0.0007785986    1.179    0.152
        25 -13.5115     59.1255    157.6620   1.0272724407e+02   3.5267163871e+01    0.6401693    0.3997054 -38.49  0.001596604    1.883    0.469
        26 -10.7265    192.3178    193.3367   7.5458498606e+01   6.4886793297e+00    0.5497584    0.3065953 -62.38  0.001924453    4.862    0.794
        27 -10.0135    134.1077    147.2457   7.9379618745e+01   2.5656290600e+01    0.5774955   0.09834559 -50.21  0.001247468    6.632    0.849
        28 -11.2106     54.6796    148.2035   1.0265670940e+02   3.8244520206e+01    0.3787966    0.1521091 -58.03  0.001455515    2.259    0.557
        29 -10.3737     95.0620    141.9935   8.9103103585e+01   3.3921934188e+01    0.3342091    0.3130965   3.47 0.0008459727    1.106    0.096
        30  -9.7769     98.7685    138.8042   8.7330356032e+01   3.4071688827e+01     0.363474    0.2521336 -21.57  0.001058112    1.889    0.471
        31 -13.7978     11.1249    232.7141   1.2153105376e+02   2.2849511523e+01    0.8833218    0.5403709  76.44  0.005573124    1.473    0.321
        32 -12.3848     83.0448    140.2140   9.2390999647e+01   3.6319454103e+01    0.3318483    0.3175912 -39.17 0.0005758033    1.047    0.045
        33 -15.7166     23.7166    247.8013   1.1967728178e+02   1.8692128157e+01     10.73422     2.745745  21.13   0.02893182    9.040    0.889
        34 -10.9408    106.7741    130.7742   8.3182205950e+01   3.4581675554e+01     0.432131     0.363322  17.49  0.001287228    1.273    0.214
        35 -12.0669     67.0203    128.2410   9.5138986514e+01   4.1758611153e+01    0.5924705    0.4389098  77.13  0.001800394    1.699    0.411
        36 -13.2734     25.9802    203.0502   1.1650066136e+02   2.7850163958e+01    0.5438872     0.452517 -47.74  0.001042554    1.448    0.309
        37 -10.7878     94.2670    127.1130   8.6110353685e+01   3.7708806233e+01    0.2990581    0.2608347 -38.75 0.0004434647    1.147    0.128
        38  -9.2263    114.5122    125.4412   7.9684121256e+01   3.4380047788e+01    0.1554747    0.1481482  -6.62 0.0001391036    1.056    0.053
        39  -9.7237    105.2017    119.3677   8.0927125814e+01   3.7575409836e+01    0.2342424    0.2006579 -31.57 0.0004590388    1.196    0.164
        40  -9.9004    205.4206    110.5260   5.5815573626e+01   1.8960689316e+01    0.2449169    0.2233407 -11.66 0.0005904768    1.160    0.138
        41  -8.5536    156.3137    111.7072   6.5537795272e+01   2.8772256763e+01     0.148139     0.119719 -83.19  0.000329627    1.594    0.373
        42  -9.0776     65.3400    102.6561   9.0007482397e+01   4.8421974714e+01    0.1544429    0.1163927  71.21 0.0007048282    1.779    0.438
        43 -10.1342     41.5083     92.0205   9.6632159885e+01   5.4155575139e+01    0.2572809     0.206144   0.44 0.0004232925    1.337    0.252
        44 -10.5319     44.3484     90.6770   9.5152000796e+01   5.4154931470e+01    0.3537357    0.2169629  46.65  0.001623737    1.949    0.487
        45 -10.6265     53.0639     90.8324   9.1684181804e+01   5.3019553418e+01    0.2780461    0.2009893 -38.99 0.0009617772    1.332    0.249
        46  -8.8293     81.2691    183.6770   1.0022895614e+02   2.5869452974e+01    0.1434098    0.1040301  66.96 0.0003554313    1.568    0.362
        47  -9.7416     57.7280     76.6971   8.5819429653e+01   5.5636334349e+01    0.2819556    0.1608128  51.36 0.0009469626    2.391    0.582
        48 -10.2529     50.4340     71.9153   8.7412290871e+01   5.7742292822e+01    0.5038503    0.2063613  49.38  0.001567749    4.482    0.777
        49 -10.9418     13.4722     60.1767   1.0145222273e+02   6.4230492552e+01    0.2370804    0.2030455 -34.58 0.0004198444    1.024    0.023
        50 -11.5925    177.7033    222.5194   8.3419262848e+01   3.6704125798e+00    0.3368931    0.2457892  18.42 0.0006379115    1.194    0.162
        51  -9.1497     99.6444    181.0085   9.4921419735e+01   2.3785300495e+01    0.1940536    0.1856637 -54.54 0.0004475172    1.093    0.085
        52  -9.1795    111.6611    218.2968   9.7385867365e+01   1.3919041249e+01    0.1374077   0.09484112  55.77 0.0003594955    1.657    0.397
        53 -12.8183    222.4818     31.0406   3.5710404398e+01   2.7193381271e+01    0.5697804     0.433478  54.08  0.001447197    1.623    0.384
        54  -9.6309    162.0235     83.4718   5.6923375988e+01   3.2829226326e+01    0.2207166    0.1427069  54.06 0.0007532702    1.576    0.366
        55 -10.7159    128.1817     35.8301   4.9514557971e+01   4.8159539354e+01    0.3446055    0.2340942 -73.37 0.0008857598    1.906    0.475
        56  -9.8812     28.6378     52.8538   9.1481602986e+01   6.4503253802e+01    0.2176129    0.1779296  23.00 0.0004806186    1.295    0.228
        57  -9.2930    130.6401     30.0511   4.7121617697e+01   4.8274944110e+01    0.1747079    0.1686862 -52.97  0.000438202    1.117    0.105
        58  -9.7470      2.3214     22.3284   9.5732046615e+01   7.2812170941e+01    0.1313253   0.06933207 -27.20   0.00035171    1.690    0.408
        59 -10.1546    189.8331     15.3725   3.4991634131e+01   3.5894613414e+01    0.2102366    0.1479852 -51.76 0.0007693563    1.298    0.229
        60 -12.7387     57.2863    240.0126   1.1211645347e+02   1.6626528880e+01    0.5121744    0.3731165  60.49  0.001060343    1.270    0.213
        61  -8.9433     89.4647    212.2087   1.0190313501e+02   1.8292168919e+01    0.1743693    0.1286546 -89.05 0.0009338052    1.650    0.394
