#   1 NUMBER                 Running object number                                     
#   2 MAG_AUTO               Kron-like elliptical aperture magnitude                    [mag]
#   3 X_IMAGE                Object position along x                                    [pixel]
#   4 Y_IMAGE                Object position along y                                    [pixel]
#   5 X_WORLD                Barycenter position along world x axis                     [deg]
#   6 Y_WORLD                Barycenter position along world y axis                     [deg]
#   7 A_WORLD                Profile RMS along major axis (world units)                 [deg]
#   8 B_WORLD                Profile RMS along minor axis (world units)                 [deg]
#   9 THETA_WORLD            Position angle (CCW/world-x)                               [deg]
#  10 FWHM_WORLD             FWHM assuming a gaussian core                              [deg]
#  11 ELONGATION             A_IMAGE/B_IMAGE                                           
#  12 ELLIPTICITY            1 - B_IMAGE/A_IMAGE                                       
         1 -16.3455    181.3926    211.6283   1.1717875837e+02   5.1216130027e+00      3.49812     3.038529 -20.32   0.01986227    1.334    0.250
         2 -14.5190      6.7785     24.5124   1.2574955920e+02   7.0209677368e+01     1.336708    0.6235657 -47.78   0.00746815    1.564    0.361
         3 -12.2008     83.3614     22.5555   9.2218968451e+01   6.0785138724e+01    0.3881389    0.3264275 -38.07  0.001575234    1.340    0.254
         4 -11.9509     63.6408     17.6446   9.6958630037e+01   6.4952344130e+01    0.3240007    0.2714431  55.02   0.00128835    1.612    0.379
         5 -12.4001    104.1929      5.2076   7.8640890528e+01   5.8379269930e+01    0.5396323    0.4692865 -68.62   0.00325801    1.476    0.323
         6 -12.7829     73.5883      2.2072   8.5913883249e+01   6.5018807782e+01     0.455823     0.294914 -37.48 0.0006341944    1.814    0.449
         7 -12.4315     75.6229     13.4112   9.0648904689e+01   6.3403868047e+01    0.3665404    0.2524307  40.43  0.001268355    1.393    0.282
         8 -13.4695     85.7898     11.7327   8.6591861006e+01   6.1638137174e+01    0.8729285    0.4764115  47.53  0.004301363    1.713    0.416
         9 -13.4693     84.3050      5.3121   8.4061526383e+01   6.2617509438e+01    0.7421448    0.3618131  41.89  0.003616985    1.852    0.460
        10 -12.8754     96.2126      3.6311   7.9960360727e+01   6.0287358501e+01    0.5700749    0.3768566  39.12  0.002108257    1.348    0.258
        11 -11.8460     90.4684      1.7444   8.0635242296e+01   6.1687309062e+01    0.3649289    0.2578144  52.59  0.001316773    1.352    0.261
        12 -12.1973    124.0473     10.0052   7.6133658261e+01   5.3276799825e+01    0.2746731    0.2613029   7.45 0.0004087928    1.099    0.090
        13 -11.1243    137.8746      5.6939   7.1847025658e+01   5.0253355235e+01    0.3259823    0.1616548  69.81  0.001410058    1.972    0.493
        14 -12.0711    111.9150      4.9464   7.6723124632e+01   5.6635931524e+01    0.4133013    0.1946696  37.19  0.001795302    2.157    0.536
        15 -11.0675     33.6546      4.1115   1.0308615231e+02   7.1078410274e+01    0.1807075    0.1477649  22.28 0.0007491954    1.354    0.261
        16 -12.1914    153.7100    219.6944   1.2365238514e+02   8.7477280336e+00     0.398022    0.2951838  17.67  0.002317233    1.730    0.422
        17 -13.3408    130.5668    248.2537   1.3139578684e+02   8.1640527564e+00    0.6160811    0.2739238  54.69  0.003172405    2.092    0.522
        18 -11.9877     74.3271    158.5897   1.3188872530e+02   3.3949810265e+01    0.2646824    0.1528658 -63.26  0.001350514    1.635    0.388
        19 -14.3821     83.6323    211.0035   1.3617929657e+02   2.1676809374e+01     1.281353    0.9474698  39.31  0.008188186    1.464    0.317
        20 -10.6526     91.7116    152.3743   1.2675453650e+02   3.2705863952e+01    0.2294215    0.1497667  72.88  0.001106354    1.761    0.432
        21 -13.2395     76.9133    141.9780   1.2871824167e+02   3.7358307295e+01    0.7822304    0.4555521  89.52  0.003479754    2.251    0.556
        22 -11.9630    113.9105    145.7379   1.2013205516e+02   3.0356184744e+01    0.5436819    0.3199161  19.16  0.001961784    3.456    0.711
        23 -12.0025     58.9036    145.7262   1.3381983481e+02   3.8955243934e+01     0.531114    0.2834713  60.69  0.002554988    2.074    0.518
        24 -13.9291     91.1095    143.4729   1.2538023086e+02   3.4823670705e+01    0.6376352    0.4593879  59.49   0.00336603    1.392    0.282
        25 -11.3629     51.8846    143.6251   1.3527711045e+02   4.0299637106e+01    0.2498236    0.1971316 -77.46  0.001000586    1.095    0.087
        26 -11.5632     40.6716    144.0368   1.3810252304e+02   4.1473593637e+01    0.2034241    0.1706464  56.30 0.0002152282    1.252    0.201
        27 -11.9272    112.1480    141.1473   1.1966813830e+02   3.1705214914e+01     0.198118    0.1597064  73.64  0.001030123    1.289    0.224
        28 -13.5839    100.7527    134.4426   1.2122308272e+02   3.5267379489e+01    0.4713265    0.3079699 -80.71  0.002141133    1.901    0.474
        29 -13.5736     88.5754    133.6342   1.2423235670e+02   3.7494309983e+01    0.7223293    0.2514317 -56.71  0.001592974    2.695    0.629
        30 -12.2095     10.0780    130.0719   1.4414275907e+02   4.7392649422e+01     0.466417    0.2308949  51.76  0.002643487    2.095    0.523
        31 -14.2034     79.5300    201.3580   1.3598651898e+02   2.4138691055e+01     1.421136    0.6302252  45.56  0.007140852    1.925    0.480
        32 -13.8960     95.5736    127.5096   1.2117824573e+02   3.7750135642e+01    0.7220719    0.2866071 -45.52  0.002619821    2.815    0.645
        33 -11.3589     48.9881    129.5144   1.3402443493e+02   4.3896983855e+01    0.1798532    0.1260861  37.32 0.0005662347    1.601    0.375
        34 -11.4157     54.4999    125.4956   1.3191724305e+02   4.4186774572e+01    0.1315327    0.1129612 -75.36 7.670439e-06    1.034    0.033
        35 -11.7451     73.0203    124.4873   1.2667944793e+02   4.1986041142e+01    0.1952185    0.1355508  38.09 0.0005800612    1.571    0.364
        36 -11.3366     57.0235    119.9539   1.3029055724e+02   4.5173844569e+01    0.1939834    0.1666525 -77.48  0.001196428    1.012    0.012
        37 -10.9744      3.2228    110.8475   1.4397360727e+02   5.2149074479e+01    0.1618782     0.120185 -88.42 0.0002910816    1.122    0.109
        38 -13.3828     17.3972    100.8817   1.3869999602e+02   5.3450923926e+01    0.4019545    0.3855818  75.50   0.00220123    1.245    0.196
        39 -12.5551     55.1329     95.0009   1.2598474591e+02   5.1194185572e+01    0.4735142    0.3067283 -34.59  0.002444259    1.809    0.447
        40 -10.1531    104.4952    101.4779   1.1269023138e+02   4.2075354384e+01    0.1470217    0.1405899 -62.43 0.0003911266    1.003    0.003
        41 -11.0524    188.7139     94.3193   9.0403008019e+01   2.4361679713e+01    0.2700177    0.2350838 -70.48  0.000563936    1.256    0.204
        42 -11.1762     35.7823     94.7982   1.3205530846e+02   5.3312102663e+01    0.1703655    0.1330953  87.57 0.0004788185    1.341    0.254
        43 -11.4991     58.8451     98.8397   1.2565929413e+02   4.9856777481e+01    0.2302202    0.2242347 -44.72  0.001492275    1.142    0.125
        44 -10.0599    129.0083     83.2571   1.0081590038e+02   4.0871622803e+01    0.1862666    0.1322137  48.18 0.0003406141    1.422    0.297
        45 -10.6996     67.9574     81.2929   1.1849967312e+02   5.2600299688e+01    0.1756742    0.1711747  29.10  0.000362606    1.142    0.124
        46  -9.9237    143.7180     76.7423   9.5107886988e+01   3.8713079709e+01    0.1488925    0.1203796  17.38 -0.0001541599    1.475    0.322
        47 -12.4969     96.5152     72.1147   1.0662428878e+02   4.9840449438e+01    0.4313091    0.3236477  13.74 0.0007347566    1.670    0.401
        48 -10.0345    144.7241     73.6976   9.3922101429e+01   3.9035363320e+01    0.1525424      0.12188  11.48 0.0002722408    1.541    0.351
        49 -10.8590     83.1163     68.3343   1.0968105631e+02   5.2995782664e+01    0.1831391    0.1793634  20.32 0.0005000974    1.105    0.095
        50 -10.5219    130.4288     65.4867   9.4844956096e+01   4.3931219135e+01    0.1500301    0.1460091  -0.27 2.108856e-05    1.021    0.021
        51 -12.5684    125.6346     57.5609   9.3427535401e+01   4.6439697566e+01    0.3170278    0.2715866  43.37 0.0005150519    1.155    0.134
        52 -11.9696     68.3214     55.1803   1.1040117785e+02   5.7965355949e+01    0.3357786    0.2907509 -81.16  0.001169783    1.540    0.351
        53 -11.0606    210.4493     54.4682   7.5676588507e+01   2.5390113382e+01    0.2329917    0.1831522  45.66 0.0006497503    1.382    0.276
        54 -10.7233    132.8814     53.8506   9.0311579902e+01   4.5356769045e+01    0.2330821    0.1949152  27.48 0.0005890694    1.256    0.204
        55 -11.1627    145.5009     51.0338   8.6384163084e+01   4.2710391562e+01    0.2360453    0.2032366  54.87 0.0006882765    1.132    0.117
        56 -12.9586      3.1947     47.1268   1.3385468425e+02   6.5994939289e+01    0.4354533     0.271687 -73.75 0.0008631817    1.568    0.362
        57 -13.9981     15.1137    204.5798   1.4852448112e+02   3.1279823595e+01     0.584038    0.2329449  67.72  0.003211696    2.196    0.545
        58 -12.5755     42.4306     47.6572   1.1770935061e+02   6.2800605308e+01    0.3075694    0.2887043   2.95 0.0006441382    1.208    0.172
        59 -12.3996     41.5350     42.9663   1.1646460868e+02   6.3801876215e+01    0.5707644    0.3244362  -1.12  0.002724415    2.706    0.630
        60 -10.2619    176.4979     45.5108   7.8457575710e+01   3.5515652783e+01    0.1499105    0.1439278  77.89 0.0008105898    1.005    0.005
        61 -11.5627    157.0003     43.8115   8.1543507769e+01   4.0860144192e+01    0.2297528     0.216257 -24.30 0.0005843415    1.108    0.098
        62 -11.1711    176.3396     33.3090   7.4698130656e+01   3.7208731037e+01    0.2356026     0.207062  59.18 0.0001964421    1.099    0.090
        63 -11.3840     41.4470     33.0244   1.1279794161e+02   6.5634711999e+01    0.2244702    0.1563685   0.79 0.0007055607    1.581    0.368
        64 -11.9871     78.4787     30.4834   9.7280161282e+01   6.0564529626e+01    0.3146406    0.2909071 -54.58  0.001965627    1.376    0.273
        65 -11.6963     69.5251    184.6198   1.3623336332e+02   2.8961836555e+01     0.316288    0.2224731 -75.71  0.001732898    1.342    0.255
        66 -10.4839    139.9811     21.0000   7.7034437092e+01   4.8167426166e+01    0.2411376   0.07695071  62.42 0.0008005496    2.929    0.659
        67 -10.8778    133.1628    183.2464   1.2234223469e+02   1.8910971696e+01    0.2677166    0.2069159  65.55  0.001483527    1.283    0.221
        68 -14.5680    140.4942    241.2309   1.2884902536e+02   7.6306502448e+00     0.501976    0.3540799  43.51  0.003298209    1.140    0.123
        69 -12.1569      5.3240    206.7899   1.5035744237e+02   3.1787485017e+01     0.175248    0.1274168  64.05  0.001385791    1.177    0.150
        70 -10.8534     82.0313    177.5323   1.3267929057e+02   2.8671678160e+01    0.1953847    0.1173257  43.47  0.001030392    1.589    0.371
        71 -12.8593    138.9232    166.5893   1.1821466544e+02   2.1148307277e+01    0.8335459    0.6689014 -30.43  0.004426786    1.552    0.356
        72 -11.4160     89.4324    167.1321   1.2958766103e+02   2.9789407261e+01    0.4081211    0.1607559 -66.67  0.001602838    2.815    0.645
        73 -11.7314    135.1730    212.0632   1.2619104806e+02   1.3226212937e+01    0.2991112    0.2304142  61.64  0.001323036    1.206    0.171
        74 -11.7362     47.9967    167.4944   1.3904702553e+02   3.5400376475e+01    0.1831436    0.0743969  56.57 0.0008104914    2.552    0.608
        75 -10.4959     96.4679    165.5244   1.2772321524e+02   2.9014980423e+01    0.1362239    0.1208336  77.05 0.0001150378    1.019    0.019
        76 -12.0013     78.1498    162.0622   1.3147856792e+02   3.2620148083e+01    0.4119956    0.1769109 -59.09  0.001826694    2.225    0.551
        77 -12.6870      8.1959    211.1061   1.5007012114e+02   3.0707161614e+01     0.226182    0.1171835  48.31  0.001542587    1.630    0.386
