#   1 NUMBER                 Running object number                                     
#   2 MAG_AUTO               Kron-like elliptical aperture magnitude                    [mag]
#   3 X_IMAGE                Object position along x                                    [pixel]
#   4 Y_IMAGE                Object position along y                                    [pixel]
#   5 X_WORLD                Barycenter position along world x axis                     [deg]
#   6 Y_WORLD                Barycenter position along world y axis                     [deg]
#   7 A_WORLD                Profile RMS along major axis (world units)                 [deg]
#   8 B_WORLD                Profile RMS along minor axis (world units)                 [deg]
#   9 THETA_WORLD            Position angle (CCW/world-x)                               [deg]
#  10 FWHM_WORLD             FWHM assuming a gaussian core                              [deg]
#  11 ELONGATION             A_IMAGE/B_IMAGE                                           
#  12 ELLIPTICITY            1 - B_IMAGE/A_IMAGE                                       
         1 -12.5551    156.4677     83.3206   4.7667591863e+01   3.4251293255e+01     1.339148    0.6866942 -56.60  0.005247556    2.511    0.602
         2 -12.9364      3.1638     61.5514   9.3919126258e+01   6.3730663915e+01     1.249336    0.3598946 -58.83  0.003162913    2.918    0.657
         3 -12.7612     26.5045     50.1986   7.9363309425e+01   6.4085376902e+01     1.685117    0.8893788 -63.65  0.006888448    3.904    0.744
         4 -13.1297     38.0726     49.5110   7.3786153544e+01   6.2876127377e+01      1.24211    0.7235721 -47.99  0.006508637    1.936    0.484
         5 -10.5152     30.8545     12.7021   6.1963233039e+01   6.9101351752e+01    0.2148868    0.1527097 -26.74 0.0007404199    1.528    0.346
         6  -9.8666     37.3199      6.8303   5.6254398983e+01   6.8770307470e+01    0.2728313    0.1549869  27.99  0.001402401    1.444    0.307
         7 -11.1834     41.8120     18.6598   5.9694804941e+01   6.6804839953e+01    0.5423517    0.2497146  32.11  0.002799963    1.898    0.473
         8 -11.0252     40.2069     11.8729   5.7343121894e+01   6.7806409141e+01    0.6163049    0.3899411   5.78  0.003769438    1.555    0.357
         9 -11.0702     29.8861     18.9998   6.5310664578e+01   6.8477414072e+01    0.3469999    0.1996182 -13.63  0.001045755    1.781    0.439
        10 -10.4123     34.3507     15.7289   6.1718162412e+01   6.8255869229e+01    0.4015402    0.2211967 -14.09  0.002240862    1.958    0.489
        11 -12.0328    129.3720     22.4216   3.6062972739e+01   4.8896793749e+01    0.5665179    0.3639236  -6.21  0.001968735    2.245    0.555
        12 -12.2615      4.1429     17.2858   7.8368263793e+01   7.1529916216e+01     0.427224    0.3934991 -76.65  0.002082579    2.212    0.548
        13 -10.3793      9.7348     15.7819   7.4469710782e+01   7.1235140651e+01    0.2785328     0.144224  -7.89  0.001528842    2.033    0.508
        14 -11.2743     18.3649     16.8015   7.0175474898e+01   7.0185631548e+01    0.4450167    0.2448961  -0.05  0.002496144    1.903    0.474
        15 -12.3389    160.3984     22.0080   3.1138280876e+01   4.1921028562e+01    0.4321033    0.3754404  21.36  0.001071571    1.521    0.342
        16 -11.7944    167.9256     20.6580   2.9836379015e+01   4.0381686388e+01    0.2402766    0.2300786  41.30  0.000800216    1.313    0.239
        17 -10.8724     61.3902     13.5537   4.9914676739e+01   6.4029892276e+01     0.456806    0.1749776  48.79  0.002145923    2.204    0.546
        18 -10.1244     83.9199     13.5382   4.3077202312e+01   5.9635901509e+01    0.3393684    0.1907448  -4.80  0.001759234    2.375    0.579
        19 -10.4422     75.7414     15.8607   4.6257654585e+01   6.1071039913e+01    0.5883721    0.2440288  55.68  0.002721579    2.243    0.554
        20 -10.2370     74.0405      6.9761   4.3294446563e+01   6.2191895558e+01    0.1972118     0.154158  12.58  0.000678011    1.306    0.234
        21 -11.4957     71.1591     12.9416   4.6497015689e+01   6.2241308073e+01    0.4645337    0.2541087   4.00  0.002079965    2.531    0.605
        22 -11.5706     77.6844     10.6659   4.3698216637e+01   6.1154554260e+01    0.6144457     0.153813  50.14  0.002171643    2.852    0.649
        23 -12.3728    237.9842     17.5872   2.2636312122e+01   2.6327575624e+01    0.2587679    0.1739487 -77.20 0.0003703016    1.188    0.158
        24 -11.0630     50.8159     16.1887   5.4910609257e+01   6.5627275019e+01    0.3396643    0.2204338 -32.12   0.00206962    1.794    0.442
        25 -10.0606     54.7666     13.3088   5.2168983637e+01   6.5242987315e+01    0.2095366    0.1874907  -5.79  0.001067327    1.298    0.229
        26 -11.3652     65.9987     19.7143   5.0865356205e+01   6.2559321352e+01    0.3738152    0.2860613 -57.52  0.002207711    2.147    0.534
        27 -11.7425    155.4900     11.2252   2.9078918161e+01   4.4083991625e+01    0.5666326    0.2205426 -27.25  0.002642893    3.107    0.678
        28 -12.0369    128.7929     11.1694   3.2897076091e+01   5.0083684206e+01    0.3836345    0.2690262 -74.68  0.002276941    1.670    0.401
        29 -11.4894    118.2995     10.1092   3.4374240201e+01   5.2521007161e+01    0.4847088    0.2210978 -23.00   0.00240627    2.704    0.630
        30 -11.8717    234.5384     10.5998   2.1640578189e+01   2.7736828213e+01    0.2481145    0.1743298 -50.67 0.0007981966    1.328    0.247
        31 -11.5833    234.2071      5.6730   2.0798544819e+01   2.8320279535e+01    0.2093783    0.1975501  79.16 0.0009969109    1.527    0.345
        32 -11.3163    237.1646      1.9258   1.9968225736e+01   2.8160788987e+01    0.2435382    0.1576123 -85.50  0.001322179    1.233    0.189
        33 -10.3488    138.1467     10.8907   3.1366063515e+01   4.8005357852e+01    0.2245589    0.1542978 -52.28  0.001304891    1.637    0.389
        34  -9.4767     96.0059     12.1308   3.9572217889e+01   5.7225246874e+01    0.1775625    0.1398664 -81.17  0.001091463    1.679    0.404
        35 -10.5632     15.1312     13.7770   7.0530570416e+01   7.0943815087e+01    0.2074521    0.1496858   3.22 0.0006996102    1.043    0.041
        36 -11.4249      5.4026     10.8981   7.4735476199e+01   7.2313710371e+01    0.2181857    0.1690422 -12.89 0.0007725839    1.197    0.165
        37 -11.1449      9.7468      9.1677   7.1371277556e+01   7.2112032536e+01    0.3231129     0.195305  31.94  0.002012739    1.807    0.447
        38 -11.6626    145.8879      7.4956   2.9369570783e+01   4.6564872577e+01    0.3297988    0.2674443  -1.31  0.001625794    1.674    0.403
        39 -10.5998    176.3650     10.1561   2.6425348347e+01   3.9583321797e+01    0.2435558     0.127657  52.66  0.001328169    2.036    0.509
        40  -9.7674    107.5820     10.3281   3.6475176133e+01   5.4870917737e+01    0.1461208    0.1146655  10.71 0.0009296562    1.512    0.339
        41 -12.3954    213.3618      5.3007   2.2164044578e+01   3.2362075380e+01     0.640824    0.3249147 -66.07  0.003813945    1.791    0.442
        42 -10.8361    164.7328      6.3508   2.6795002229e+01   4.2480154566e+01    0.3201291    0.1696584 -25.54  0.001537981    2.385    0.581
        43 -11.3669     10.9116      3.0866   6.7681864176e+01   7.2723178069e+01    0.2579238    0.1576556   8.61 0.0004116982    1.327    0.246
        44 -10.9787     27.6433      3.1813   5.8919103427e+01   7.0573220314e+01    0.2995867    0.2359078  57.97  0.001936843    2.361    0.576
        45 -10.9685     31.6459      1.1481   5.6040604965e+01   7.0181743477e+01    0.4113295    0.0821583  43.26  0.001550542    4.096    0.756
        46 -10.8840     23.0471      7.1804   6.3168682938e+01   7.0781771429e+01    0.3758857    0.2015616  47.23  0.001588552    2.896    0.655
        47 -11.3133     18.4126      4.1485   6.4076815835e+01   7.1711225441e+01    0.5933056      0.24588  29.50  0.003217459    2.054    0.513
        48 -11.1574    190.1598      6.2046   2.4231253608e+01   3.7015369816e+01    0.3214929     0.291674 -63.31  0.002463942    1.268    0.211
        49  -9.5341    113.5307      7.7291   3.4505672653e+01   5.3775108016e+01    0.1499874     0.110814 -45.69 0.0009369044    1.628    0.386
        50  -9.7016    100.4536      6.7559   3.6759257552e+01   5.6712105003e+01    0.1520824    0.1085998  14.84 0.0004444824    1.658    0.397
        51  -9.9756    150.9236      5.7174   2.8262836848e+01   4.5593753684e+01    0.1672077    0.1252796  76.14  0.000323523    1.094    0.086
        52  -9.7293    131.0702      5.6194   3.0957856122e+01   5.0040107593e+01     0.171663    0.1234882  65.61 0.0003786245    1.130    0.115
        53  -9.3408     91.6568      6.7455   3.8692907933e+01   5.8593259893e+01    0.1276789   0.07167345  40.39 0.0004822531    1.583    0.368
        54 -10.2743     68.7944      5.2505   4.4131697714e+01   6.3361800035e+01    0.1764654    0.1521841 -21.37 0.0007522996    1.412    0.292
        55  -9.3727    109.4217      5.4828   3.4561681746e+01   5.4858046417e+01    0.1221593   0.09809072  54.24 0.0001384118    1.045    0.043
        56  -9.4320     57.8738      5.3492   4.7646000930e+01   6.5415335256e+01    0.1803625   0.08017889  41.88 0.0008069593    1.760    0.432
        57 -10.3495    202.0671      3.2715   2.2633177962e+01   3.4832298944e+01    0.3256438    0.1734133  44.88   0.00135943    3.026    0.670
        58 -10.5060    178.5251      3.5350   2.4731538474e+01   3.9737601584e+01    0.2249369    0.1370622  84.52  0.000783444    1.391    0.281
        59 -10.7427    243.0793      2.6460   1.9740153416e+01   2.7011811142e+01    0.1793536     0.130072 -53.56 0.0006343029    1.291    0.225
        60 -10.0530    125.7176      2.7976   3.0968614152e+01   5.1457759794e+01    0.2167552    0.1262349  57.73 0.0008969383    1.392    0.282
        61  -9.4931     98.3733      2.8518   3.5875705824e+01   5.7457487798e+01    0.1440218    0.1077788  12.27 0.0004453812    1.564    0.360
        62 -10.7781      3.5111      1.6310   7.1323402420e+01   7.3675933501e+01    0.1838724     0.137794  24.88 0.0007666729    1.581    0.367
        63 -10.3258    195.1660      1.8873   2.2909972016e+01   3.6381333320e+01     0.183954    0.1206339 -75.93 0.0008099123    1.303    0.233
        64 -10.5173    148.8094      1.8529   2.7541689851e+01   4.6387184589e+01    0.1731263    0.1360337  61.51 0.0004753002    1.183    0.155
        65 -10.0314     73.9931      1.7743   4.1268020030e+01   6.2605416007e+01    0.1740481    0.1419455  64.87  0.000890164    1.341    0.254
        66 -10.5691     55.4043    161.1877   9.4718785053e+01   3.4863568135e+01    0.3217937    0.2591503 -88.33 0.0009083467    1.319    0.242
        67 -10.8507    247.6720    250.1060   6.4679455317e+01  -1.1895420909e+01    0.1870725    0.1404105  14.74  0.001320833    1.371    0.271
        68 -11.8693     89.1259    249.3250   9.7881764441e+01   9.0083425320e+00    0.3616963    0.2681052  29.32  0.000876892    1.264    0.209
        69 -10.3589     72.3974    250.1161   1.0170100216e+02   1.1072042056e+01    0.2295395     0.174813  11.86  0.001024503    1.584    0.369
        70 -11.9800     28.7726    246.7178   1.1078477314e+02   1.6986011885e+01    0.5935624    0.3076298  79.02  0.003046534    2.058    0.514
        71 -12.5066     19.0448    237.0455   1.1214539046e+02   2.0089089332e+01    0.5763161    0.3464743  45.94  0.003378599    1.469    0.319
        72 -12.7428      6.1226    245.7619   1.1529460747e+02   1.9465122729e+01       0.7447    0.4428177 -89.94  0.003501054    1.501    0.334
        73 -12.7456     15.3738    245.8063   1.1346003358e+02   1.8562841359e+01    0.7004627    0.3417729  58.33  0.002954287    1.826    0.452
        74  -9.1826    210.7795    165.9814   5.5989284047e+01   7.3238692627e+00    0.1871422    0.1019348 -41.75 0.0006055656    1.607    0.378
        75 -10.0531    186.8151    165.2097   6.0588168683e+01   1.1572964843e+01    0.2397002    0.1686729 -88.64  0.000957369    2.874    0.652
        76  -9.9397     66.9676    165.4613   9.1994331811e+01   3.2240135755e+01    0.2288316    0.1479446  30.47  0.001036694    1.615    0.381
        77  -9.4054    111.7817    164.0153   7.8777937781e+01   2.5576460071e+01    0.2137917    0.1265201 -53.14 0.0005625407    1.664    0.399
        78  -9.6158    221.3001    161.2817   5.3126585768e+01   6.5244299135e+00     0.133676   0.09784059 -13.71 0.0002096509    1.547    0.353
        79 -11.3866     23.9965    157.3497   1.0350003225e+02   3.9169949768e+01    0.4881091    0.2463164 -72.20  0.001518084    1.786    0.440
        80 -11.7525     19.2715    157.9121   1.0494773958e+02   3.9421400267e+01    0.4839739    0.2747865 -52.46 0.0002916336    1.604    0.377
        81  -9.8101    247.5046    157.5035   4.8093981539e+01   3.2347732704e+00    0.1297847    0.1037982 -38.06 -9.794599e-05    1.034    0.033
        82 -10.8991     10.1901    152.7345   1.0697952642e+02   4.1453002028e+01    0.3337486     0.214774  39.67 0.0009891831    1.724    0.420
        83  -9.4659    222.6468    152.1823   5.1054485288e+01   8.0265071262e+00    0.1975385    0.1101128 -35.36 0.0004301812    1.635    0.388
        84  -9.8232    176.8753    150.1088   5.9445752897e+01   1.6595109141e+01    0.2260115    0.2059096 -75.98 0.0006875728    1.271    0.213
        85 -10.3026    207.0619    146.6859   5.2676001145e+01   1.1739078057e+01    0.1917035    0.1814542 -11.09  0.001015526    1.116    0.104
        86 -10.6697    218.9573    144.4505   5.0103190259e+01   1.0105075505e+01    0.3690984    0.1696121  34.26  0.001485627    3.043    0.671
        87 -10.5176     10.9033    143.7857   1.0571012740e+02   4.3709580632e+01    0.2654111    0.2353668 -34.81  0.001651178    1.212    0.175
        88  -9.3896    204.5372    141.5245   5.2041909561e+01   1.3204972716e+01    0.1430452    0.1265216 -42.14 8.337911e-05    1.027    0.026
        89  -9.3597    240.3286    140.3120   4.5850951359e+01   7.3638842975e+00    0.1280978   0.09421701 -15.20 0.0007042492    1.668    0.401
        90  -9.8395     13.5427    139.9678   1.0441167273e+02   4.4509228800e+01    0.1948303   0.07820408 -48.87 3.136757e-05    2.200    0.545
        91  -9.4056    143.7674    137.0652   6.4179205199e+01   2.6003779568e+01    0.2042899     0.127898 -47.65 0.0004053907    1.557    0.358
        92  -9.4486     17.4847    137.3703   1.0281748553e+02   4.4892112938e+01     0.135266    0.1170005 -55.20 0.0007954133    1.051    0.049
        93 -10.9077      9.2060    136.2275   1.0528081744e+02   4.5763817817e+01    0.2295634    0.1790214 -69.09 0.0002691504    1.093    0.085
        94 -10.4535      2.8627    135.2785   1.0714421406e+02   4.6392727721e+01    0.3493687    0.1387421 -64.92  0.001538324    1.937    0.484
        95 -10.0398     21.2827    135.1391   1.0127561690e+02   4.5175446592e+01    0.2589654    0.1579825  54.21  0.001228959    2.029    0.507
        96 -10.4020    241.0577    134.1053   4.4525714636e+01   8.3510233550e+00    0.1981636    0.1633453 -46.37 0.0005563271    1.048    0.046
        97  -9.8730    249.1524    133.5360   4.3264498176e+01   7.1814194636e+00    0.1566155    0.1283435  49.84 0.0006709234    1.525    0.344
        98 -10.6520     79.6646    132.4351   8.1571151460e+01   3.8976961683e+01    0.2701584    0.2403369 -27.30 0.0003885701    1.107    0.097
        99 -10.9776     54.0118    132.4768   8.9995536157e+01   4.2565479153e+01    0.4102875    0.2804042  20.70  0.001073683    1.600    0.375
       100  -9.3025     59.2942    132.3052   8.8204449199e+01   4.1940167731e+01    0.1554008    0.1067579 -30.02  0.000305795    1.580    0.367
       101  -9.5749     47.9502    133.5135   9.2215067651e+01   4.3018165535e+01    0.2104053    0.1462689  23.64  0.001023083    1.562    0.360
       102 -11.1510     36.8785    129.7598   9.5227776157e+01   4.5174111942e+01    0.4843116    0.2408162 -44.52  0.002032142    1.879    0.468
       103 -11.1715     73.6683    129.0312   8.2748418068e+01   4.0757128490e+01    0.3530711    0.3382491  23.62  0.001928084    1.101    0.092
       104 -10.6799     15.9128    125.5155   1.0158863925e+02   4.8044721761e+01    0.3757516    0.1905032  20.76  0.001761412    2.224    0.550
       105 -11.3810     10.6747    123.0073   1.0297250395e+02   4.9032198124e+01    0.3609746    0.3074217 -85.39  0.002199349    1.221    0.181
       106 -10.3710      2.3002    123.8437   1.0587913150e+02   4.9311961290e+01    0.4176881     0.119358 -49.06  0.001611059    2.733    0.634
       107 -10.0301    219.9516    123.9809   4.5685317328e+01   1.3758437270e+01    0.2089103     0.178414 -46.73 0.0004767127    1.008    0.008
       108  -9.6813    243.5454    122.4837   4.1899298542e+01   9.9833394523e+00     0.129349    0.1049048 -45.92 0.0001089632    1.010    0.010
       109 -10.6519     19.8267    121.6303   9.9635596062e+01   4.8743706350e+01    0.2322093      0.16111 -52.75 0.0009041731    1.215    0.177
       110 -11.9853     15.6682    115.2912   1.0002708446e+02   5.0637286808e+01    0.4248225    0.2141657 -60.53 0.0003686296    1.623    0.384
       111 -10.0409      9.6340    111.6864   1.0157201215e+02   5.1923683602e+01    0.2412729    0.1198527 -44.68 0.0007287525    1.724    0.420
       112 -11.8759     14.1451    109.0229   9.9493956730e+01   5.2292486001e+01    0.5806923     0.356478  -7.31  0.002975318    1.884    0.469
       113 -10.5875      1.3776    118.5316   1.0546768999e+02   5.0687167084e+01    0.2432116    0.1053894 -68.88 6.356378e-05    1.898    0.473
       114 -10.3710     72.7459    116.7981   8.0184290244e+01   4.3929446112e+01    0.3674848    0.2450917 -76.17 0.0009522917    2.157    0.536
       115 -10.3246     23.9573    117.1718   9.7421534992e+01   4.9544035226e+01    0.3299068    0.1646836 -40.62  0.001475001    1.889    0.471
       116  -9.3483     32.6321    117.3240   9.4371084376e+01   4.8748727754e+01    0.1432448    0.1048239  64.30 0.0007036263    1.801    0.445
       117  -9.5735    179.4729    115.9604   5.1091599202e+01   2.3143723669e+01    0.2288621    0.1370467 -43.56  0.001023166    1.566    0.361
       118 -10.1161     86.1200    116.1374   7.5572714643e+01   4.1927704983e+01    0.2299277    0.1980819 -18.21 0.0002668273    1.175    0.149
       119 -10.5352     52.2200    103.5947   8.4200978788e+01   4.9966326208e+01    0.2484739    0.1983557 -31.12 0.0006517175    1.159    0.138
       120 -10.7514     52.1468    114.4846   8.6808698067e+01   4.7342374575e+01    0.4836699    0.2025019 -67.53  0.001211507    3.357    0.702
       121 -11.5767     54.8563    109.5593   8.4690063274e+01   4.8204112728e+01    0.4559501    0.2599622 -50.85 0.0004402465    1.593    0.372
       122 -10.2454    213.9772    115.1094   4.4762023076e+01   1.6478951469e+01    0.2063957    0.1822675 -47.98 0.0004782152    1.028    0.027
       123 -11.0611    249.5004    112.1871   3.9125344244e+01   1.0764936600e+01    0.2306303    0.1869146 -51.66 0.0005463391    1.028    0.027
       124 -10.4287     94.3110    112.4280   7.1983207991e+01   4.1358141687e+01     0.300924    0.2805867 -21.82 0.0009463106    1.027    0.026
       125  -9.8881    183.7864    114.4079   4.9887822430e+01   2.2559320016e+01    0.1979829    0.1381017  38.47 0.0009504465    1.645    0.392
       126 -11.3986     35.6235    108.9126   9.1572817864e+01   5.0547506393e+01    0.3541071    0.2574171 -89.25  0.001715276    1.841    0.457
       127 -11.2687      2.1569    107.2360   1.0354007014e+02   5.3428787250e+01    0.5601287    0.2247984 -59.89  0.002559304    1.869    0.465
       128  -9.2850     82.5551    107.5257   7.4512440513e+01   4.4550581898e+01    0.1514906    0.1423396 -19.33 0.0001493488    1.014    0.014
       129 -11.8108     26.0545    104.6908   9.4252268192e+01   5.2452749743e+01    0.5593201    0.3949538 -24.85  0.001922711    1.409    0.290
       130  -9.9941    112.0503    105.8425   6.4822244744e+01   3.9436557268e+01    0.2207987    0.2056708  66.32 -0.0006383859    1.196    0.164
       131  -9.7436     83.0361    103.9984   7.3405308790e+01   4.5275013990e+01    0.2844824    0.1703819   5.71  0.001046644    2.702    0.630
       132 -11.0643    143.8150     98.6116   5.4490047690e+01   3.4212468877e+01    0.4294582    0.3412311  85.44  0.001688214    1.584    0.369
       133 -10.7456     66.6800     93.0815   7.6097938043e+01   5.0359590031e+01    0.3758095    0.2261417  29.96 0.0002868067    1.683    0.406
       134 -11.4711     61.9240     98.6539   7.9360432226e+01   4.9811899771e+01    0.4541598    0.2785275 -42.55  0.001660515    1.521    0.343
       135 -11.5505     66.9748     97.9842   7.7348222804e+01   4.9222780280e+01    0.2576268    0.2282808   1.43            0    1.092    0.085
       136  -9.2955    107.5616     99.4968   6.4392655315e+01   4.1693584780e+01    0.1496592    0.1466577  -4.91 7.615951e-05    1.044    0.042
       137 -10.2980     37.9254    103.0375   8.9413489208e+01   5.1737980097e+01    0.2496401    0.2267268 -67.60 0.0009591547    1.227    0.185
       138 -10.5975     51.8586     97.5106   8.2795931480e+01   5.1433167593e+01    0.3320153    0.1878248 -37.97 0.0007456076    1.693    0.409
       139 -10.8932     10.0217     98.8811   9.9197097012e+01   5.5011374196e+01    0.2317961      0.16198 -60.64 0.0007304398    1.242    0.195
       140 -10.9414     14.6534     96.8673   9.7024589795e+01   5.5194501767e+01    0.2220753    0.1918012 -27.24  0.001386808    1.113    0.102
       141 -11.2235      1.9705     93.0399   1.0123386160e+02   5.6832482051e+01    0.6754097    0.1870121 -61.57  0.002685651    2.595    0.615
       142  -9.8347    101.0043     95.5232   6.5251856958e+01   4.3823318312e+01    0.2299057    0.1461904  39.23 0.0006057245    1.557    0.358
       143 -10.0540    109.4290    248.7417   9.3216326415e+01   6.2996910610e+00    0.1797637    0.1217354 -42.87 0.0009554715    1.676    0.403
       144 -12.5286     21.8267     86.0730   9.1802574154e+01   5.7170890968e+01     1.492598    0.2264418 -57.77  0.004435573    4.512    0.778
       145 -10.4422      6.9184     41.2778   8.6050581260e+01   6.7405797317e+01    0.5565677    0.1665899 -43.27  0.002241798    2.545    0.607
       146 -12.0123     12.1723     48.2597   8.5682932604e+01   6.5741174708e+01    0.8212349    0.4757345 -52.44  0.004639123    1.739    0.425
       147 -12.1713      6.9100     73.9376   9.5266344530e+01   6.0897484357e+01    0.7199152    0.3552826 -22.70  0.003541778    2.054    0.513
       148 -12.1576     14.3803     77.0573   9.2769465356e+01   5.9738320299e+01    0.6430403    0.4660198  15.40  0.002531873    1.486    0.327
       149 -14.0660     16.5941     67.4126   8.9300096761e+01   6.1634089852e+01    0.4751267    0.3769672 -27.91  0.001040898    1.015    0.015
       150 -12.0273     36.9229    242.7754   1.0877626893e+02   1.6941647580e+01    0.6062114     0.314727  87.09  0.002066208    2.147    0.534
       151 -12.1790     10.0884     61.1995   9.0579231374e+01   6.3378151996e+01    0.3705567    0.2643432  31.87  0.001117088    1.733    0.423
       152 -11.0094     12.0353     57.0933   8.8483846721e+01   6.4062192795e+01    0.2311216    0.2019805 -41.16 0.0003818622    1.256    0.204
       153 -10.6662     95.7339     89.1035   6.5034876966e+01   4.6165381045e+01    0.4111901    0.2056217  44.39  0.001656144    2.027    0.507
       154 -10.4592     83.2776     88.4772   6.8926424230e+01   4.8600426457e+01    0.2516549    0.2158621 -21.06 0.0005280111    1.132    0.117
       155 -10.7363     65.5250     87.4677   7.4914689325e+01   5.1750747524e+01    0.2650105    0.2306199  -1.55 0.0006683781    1.079    0.073
       156 -10.5652     67.9587     83.6767   7.2899364645e+01   5.2168597573e+01    0.3302826     0.215752   0.24 0.0009848201    1.952    0.488
       157 -10.0517     36.1427     91.8277   8.7424525900e+01   5.4548232311e+01    0.1944147    0.1868617 -48.31 0.0007310216    1.201    0.168
       158 -10.2683      9.5207     86.1882   9.6881285728e+01   5.8009309891e+01    0.2251326    0.1871853  54.10 0.0008772088    1.602    0.376
       159 -10.3227      7.5365     81.4516   9.6690227317e+01   5.9199802822e+01    0.3541529    0.1930296 -45.05  0.001475946    1.451    0.311
       160  -9.2808    120.7088     86.6551   5.7026329536e+01   4.1542540453e+01    0.1514304    0.1164912   2.66 0.0007027129    1.659    0.397
       161  -9.6068      4.8664     86.1337   9.8769607505e+01   5.8285810025e+01    0.1836889    0.1194542 -34.88 0.0006048242    1.323    0.244
       162  -9.2685    107.5101     84.4059   6.0067311901e+01   4.4745118587e+01    0.1465707    0.1387704  27.35 0.0001164085    1.029    0.029
       163 -10.2931     27.0000     84.0699   8.9179572863e+01   5.7181629660e+01    0.2056346    0.1665478 -29.96 0.0003258814    1.047    0.045
       164 -11.3266     30.4825     81.5334   8.7080444379e+01   5.7418827546e+01    0.3532498    0.2381157 -33.38 0.0009625186    1.305    0.234
       165  -9.9811     15.4571     83.5065   9.3838883039e+01   5.8230380117e+01    0.2468201    0.1253174  14.12  0.001200691    2.129    0.530
       166 -10.7369     47.7979     88.1041   8.1850861188e+01   5.4065762675e+01    0.2277433    0.2192726  -5.67   0.00033234    1.172    0.147
       167 -10.1524     74.1540     81.8118   7.0094435325e+01   5.1539037350e+01    0.2811145    0.2060156 -26.93  0.001424676    1.369    0.269
       168  -9.3230     62.4619     82.4835   7.4586183950e+01   5.3262734754e+01    0.1431599    0.1283136 -11.12 5.511003e-05    1.016    0.016
       169 -10.2780     42.3016     82.0098   8.2350681500e+01   5.6056208522e+01    0.2281764    0.1891933  49.12 0.0009240808    1.577    0.366
       170 -12.5062    166.1438     83.6507   4.5827661429e+01   3.2038777916e+01      0.83996    0.6055067  44.66  0.003956913    1.481    0.325
       171  -9.7657    101.0277     80.9691   6.0968396414e+01   4.6716947034e+01    0.1743426    0.1648664  -2.46 0.0009743573    1.036    0.035
       172  -9.3374    183.6241     80.6795   4.1967298651e+01   2.8711303732e+01    0.1375318    0.1087959  20.11 3.923078e-05    1.814    0.449
       173  -9.4276    112.4549     79.5780   5.7223016461e+01   4.4618370477e+01    0.1448234    0.1376875  31.49 6.067043e-05    1.021    0.021
       174 -10.0981     59.6479     79.0230   7.4612250742e+01   5.4393091293e+01    0.3837098    0.1790353  15.52  0.001322889    3.444    0.710
       175 -11.2282     42.9903     67.7703   7.7816960095e+01   5.8906253284e+01    0.3958607    0.2301601  16.73  0.001952865    1.778    0.438
       176 -12.7912     44.7223     74.6870   7.9231066953e+01   5.7304721787e+01    0.5019414    0.3194635  48.42 0.0005166027    2.238    0.553
       177 -10.0482    184.4614     76.5005   4.0839607374e+01   2.9218197413e+01    0.2253385    0.1149854 -49.88 0.0001056805    1.937    0.484
       178 -10.8145     10.6187     90.9962   9.7431882369e+01   5.6833631634e+01    0.1944674    0.1758979  12.57 0.0006431349    1.286    0.223
       179 -10.3737    145.4908     74.3723   4.7593230047e+01   3.8251867389e+01    0.2895023    0.2120785 -23.16  0.001440508    1.638    0.390
       180 -10.2978     75.2168     74.6196   6.7478081130e+01   5.2767547354e+01    0.4215743    0.2252771  18.07  0.001622821    2.691    0.628
       181 -10.8175    207.4950     73.1456   3.6668279682e+01   2.4900947359e+01    0.2172508    0.1913026  80.06 0.0003278254    1.154    0.134
       182 -10.6221     54.6655     74.3731   7.5122424534e+01   5.6049918329e+01     0.347674    0.1747248  40.67  0.001078899    2.236    0.553
       183 -10.3085     56.0109     66.5217   7.2076636864e+01   5.7376529197e+01    0.2663375    0.1237088  37.82  0.001152784    2.193    0.544
       184 -10.2049     47.1622     60.2611   7.3600295829e+01   5.9786472341e+01    0.3541075    0.2780938   6.56  0.001004031    1.150    0.131
       185 -11.7564     50.4901     68.3626   7.4897658307e+01   5.7811031930e+01    0.4264946     0.276079 -37.03 0.0009290613    1.448    0.309
       186 -10.6745     52.0080     62.4408   7.2330844550e+01   5.8713317516e+01    0.3733225    0.2410704 -17.52  0.001896475    1.652    0.395
       187  -9.5278     47.3513     55.2379   7.1788125237e+01   6.0657805786e+01    0.2460024    0.1709809   3.75  0.001352297    1.421    0.296
       188 -10.3308    101.4476     71.9887   5.8087475983e+01   4.8269906207e+01    0.3325551    0.1896027  62.50  0.001303359    2.649    0.623
       189 -10.0793     93.9575     71.8060   6.0316530386e+01   4.9808098224e+01     0.239289    0.1908669   9.73  0.001254926    1.339    0.253
       190 -12.3072    167.8393     69.5960   4.1972513122e+01   3.3990523892e+01    0.2480524    0.2335352 -72.14 0.0003054633    1.048    0.046
       191  -9.9293     31.1600     92.6050   8.9590096615e+01   5.4861209744e+01    0.2393638    0.1361409 -50.82 0.0006760872    1.514    0.339
       192 -10.1628    122.7400     69.5612   5.1517500722e+01   4.4142498736e+01    0.2785544    0.2073113  15.51 0.0009042216    1.708    0.414
       193 -11.0832     77.0042     69.6251   6.5242203649e+01   5.3384481122e+01    0.4342439    0.2911961  45.03  0.001365532    1.578    0.366
       194  -9.3768     69.0581     69.9767   6.8213292947e+01   5.4685402308e+01    0.1666292    0.1475223   2.56 0.0003205379    1.007    0.007
       195  -9.3598    194.5960     69.5430   3.7672223371e+01   2.8146690534e+01     0.131071    0.1159329 -70.39 0.0001023361    1.016    0.015
       196  -9.1103    230.3186     68.6930   3.2938383032e+01   2.1092737852e+01    0.1287908   0.07972106 -68.40 0.0003113854    1.634    0.388
       197 -10.0302    140.4477     68.5228   4.7072456090e+01   4.0350358595e+01    0.1395406    0.1329776  63.81 7.155175e-05    1.005    0.005
       198 -10.5792    128.7433     66.8240   4.9248634660e+01   4.3256661841e+01    0.3803985    0.3148536  76.74  0.002061781    1.348    0.258
       199 -11.8661     44.4530     38.6951   6.6888645677e+01   6.3748625630e+01    0.4205386    0.2984366 -10.73            0    1.324    0.245
       200 -12.5865    226.6694    245.0978   6.7655921209e+01  -8.8935105811e+00    0.7798072    0.4093795  -4.35  0.003841748    2.323    0.569
       201 -13.2174     74.8732    239.0331   9.9976760772e+01   1.3110710131e+01    0.9297395    0.5585313 -54.32  0.004783433    1.804    0.446
       202 -11.3705     28.6756     65.9982   8.3471658851e+01   6.0859193400e+01    0.3297929    0.2256674 -34.25 0.0008857292    1.252    0.201
       203 -11.0607     32.4268     63.8669   8.1151594072e+01   6.0894293964e+01    0.2620396     0.202003  17.04  0.000400305    1.296    0.228
       204 -10.7836     23.9041     41.1529   7.7374809931e+01   6.5927020502e+01     0.320894    0.2204707  25.26  0.001287445    1.485    0.327
       205 -12.8908     27.6226     37.8245   7.4294236738e+01   6.6063856495e+01    0.3556894     0.258415 -28.34 0.0003918537    1.261    0.207
       206  -8.9074    220.6910     67.7134   3.3851278449e+01   2.3090989252e+01    0.1088155   0.09981677  19.09 0.0002459553    1.573    0.364
       207 -10.5257     93.9397     66.5533   5.8647086330e+01   5.0726440283e+01    0.2489919    0.2094641 -28.80  0.000397802    1.229    0.186
       208 -10.8967    119.0880     65.3363   5.1179993002e+01   4.5635446510e+01    0.4667401    0.2216294 -37.55   0.00195265    2.234    0.552
       209 -11.8146    122.9667     63.9249   4.9787820297e+01   4.5004422551e+01    0.4055035    0.2801981 -65.49 0.0002812265    2.004    0.501
       210  -9.4953    185.3320     64.3170   3.7832978010e+01   3.0936927081e+01     0.127477    0.1042391  26.95 0.0007047316    1.688    0.408
       211 -11.1061     77.8921     88.2679   7.0713813587e+01   4.9581573768e+01    0.4099287    0.3378726   0.60  0.001800136    1.229    0.186
       212 -10.1524    202.1893     61.8550   3.4913197208e+01   2.7705910433e+01    0.2305556    0.1700685 -31.36  0.001328018    1.579    0.367
       213  -9.9257     76.9934     62.4805   6.2881868236e+01   5.4646379748e+01    0.2053986     0.127905  37.30 0.0003522006    1.511    0.338
       214 -10.0728    113.3269     60.9462   5.1327228316e+01   4.7587807690e+01    0.2204735    0.1847277  60.69 0.0004659504    1.232    0.189
       215 -10.8553     83.8374     61.3728   6.0184949876e+01   5.3563730508e+01    0.3013548     0.159461  33.42  0.001215694    1.897    0.473
       216 -11.0186     86.4254     57.8287   5.8149786139e+01   5.3642530144e+01    0.2918699     0.271541 -54.58  0.001583483    1.326    0.246
       217  -9.6296    169.0095     59.9823   3.9360457179e+01   3.5195237894e+01    0.1592407    0.1459524 -85.21  0.000353437    1.017    0.017
       218 -12.0427     96.1075     58.9771   5.5524987658e+01   5.1530423411e+01    0.4398344    0.3004973  43.49   0.00121719    1.353    0.261
       219 -10.7179     99.9679     55.5159   5.3261501649e+01   5.1267311885e+01     0.282916     0.160466  47.39 0.0007161408    1.621    0.383
       220 -11.0535     81.4325     55.4813   5.8986653276e+01   5.4972585589e+01    0.5376558    0.2735223 -19.28   0.00208639    3.053    0.672
       221  -9.7738    127.0151     58.8027   4.7301119421e+01   4.4889057834e+01    0.1945329      0.16591  55.64 0.0003246884    1.097    0.088
       222 -11.1162     59.2073     58.8710   6.8230297318e+01   5.8273238880e+01    0.3435067    0.2962244  14.56  0.001191829    1.088    0.081
       223 -10.4268     61.9502     53.2738   6.5196481570e+01   5.8776930228e+01    0.3681591    0.2056919 -24.11  0.001273573    2.031    0.508
       224 -11.3063    147.3049     56.7983   4.2422708545e+01   4.0582485658e+01    0.2705927    0.2233739 -65.85 0.0003736777    1.295    0.228
       225 -11.8465     75.1434     54.5331   6.0803545244e+01   5.6290751332e+01    0.5605159    0.3156918 -34.81 0.0002600299    1.852    0.460
       226 -10.4353    104.2844     46.8769   4.9241495158e+01   5.1594900133e+01    0.2942082    0.1817734  28.50 0.0007357425    1.871    0.466
       227 -10.9219    110.4181     54.5383   5.0085190058e+01   4.9187842394e+01    0.3370935    0.2686041 -55.93 0.0001123205    1.514    0.339
       228 -12.8733    105.2219     52.3675   5.0774229517e+01   5.0622622078e+01    0.3903814    0.3116975  34.41  0.000393202    1.179    0.151
       229  -9.7894    230.5671     54.6630   3.0158063951e+01   2.3065371855e+01     0.207505    0.1067891 -37.75 0.0006881928    1.936    0.483
       230 -10.8896     88.5457     54.0318   5.6192020048e+01   5.3817715742e+01    0.2613453    0.1873998  59.58 0.0009257108    1.678    0.404
       231 -10.5129    119.8366     52.8492   4.7203207597e+01   4.7362788496e+01     0.222314      0.17878  47.84 0.0003878265    1.135    0.119
       232  -9.5750     95.9990     52.2259   5.3325417345e+01   5.2580428508e+01    0.1857087    0.1571982  33.92  0.001075373    1.062    0.058
       233 -10.4908     52.3755     50.8165   6.8115672299e+01   6.0682134638e+01    0.3060779     0.184158 -20.32   0.00112506    1.804    0.446
       234 -10.3832    205.5289     49.3305   3.1794524860e+01   2.8780431244e+01    0.2591596    0.2065753  -6.57  0.001166046    2.009    0.502
       235 -11.7031    129.5375     49.0690   4.3863851629e+01   4.5711330341e+01    0.3900696    0.3214717  -9.08   0.00146412    1.460    0.315
       236  -9.8508     57.3100     51.0309   6.6202043452e+01   5.9887770267e+01    0.1847184    0.1297016 -29.84  0.001025994    1.405    0.288
       237 -10.8243     59.7118     48.0548   6.4171606276e+01   5.9975040925e+01    0.3485841    0.2176833  26.83  0.001837649    1.492    0.330
       238 -11.6174     34.8621     42.4372   7.2633009055e+01   6.4456712869e+01      0.62671    0.3238128   3.79  0.002265528    2.671    0.626
       239 -10.2710    181.8303     49.6172   3.4887714061e+01   3.3810145353e+01    0.2105536    0.1691137 -51.46 0.0001438947    1.228    0.185
       240  -9.9210     78.6453     46.9914   5.6945543720e+01   5.6783581835e+01    0.1812072    0.1563456  -3.88 0.0004178785    1.141    0.123
       241 -10.5939    143.0419     45.3268   4.0077110230e+01   4.3135524008e+01    0.2322123    0.1958945 -37.49 0.0006562912    1.304    0.233
       242  -9.4317    120.2502     46.6258   4.5201068000e+01   4.8129294867e+01    0.1815708    0.1125264  46.74 0.0002088103    1.473    0.321
       243 -11.0428     98.3892     38.1942   4.7930074064e+01   5.3983002633e+01     0.271962    0.2327669 -26.50  0.001055221    1.301    0.232
       244 -10.9042     91.8984     43.3827   5.1528633884e+01   5.4666174656e+01    0.4210591      0.19553 -37.70  0.001582154    2.378    0.580
       245 -10.7835     95.7998     42.8746   5.0232836146e+01   5.3926942339e+01    0.3125313    0.2347095  -1.76 0.0003793061    1.545    0.353
       246 -10.8001     85.5978     44.7949   5.3925068487e+01   5.5744899698e+01    0.3293507    0.2463938  31.94  0.001016517    1.205    0.170
       247 -10.5840     81.6496     41.9263   5.4153394827e+01   5.6914028900e+01    0.2505083    0.1773707  46.83 0.0007246608    1.335    0.251
       248  -9.6474    151.4900     45.4962   3.8596300064e+01   4.1183986770e+01    0.1323331    0.1191313  73.02 0.0002788842    1.012    0.012
       249  -9.9830    113.4611     44.5761   4.6168733267e+01   4.9907192064e+01     0.317843    0.1816702  26.40  0.001379612    2.461    0.594
       250 -11.8683     53.7314     40.9024   6.3856549156e+01   6.2018597296e+01    0.6268748    0.3491499  -7.36  0.002811712    2.587    0.614
       251 -12.6099     57.7517     34.0048   5.9576073091e+01   6.2328522176e+01    0.3157165    0.2494368   6.05 0.0005413932    1.131    0.116
       252 -10.2410     60.8855     28.4405   5.6179002555e+01   6.2498190412e+01    0.2094272    0.1643972 -18.78 0.0007283507    1.331    0.249
       253  -9.9065    187.1711     42.9693   3.2633064890e+01   3.3524602913e+01    0.1961864    0.1461922 -74.96 0.0004438834    1.273    0.214
       254 -10.1074    158.1533     42.7407   3.6751903023e+01   4.0022464175e+01     0.189724    0.1584022  87.46 0.0003865024    1.133    0.118
       255 -11.5005    131.1279     41.6661   4.1357554973e+01   4.6319957698e+01    0.2743522    0.2378528 -61.84 0.0002447459    1.275    0.215
       256  -9.8520     72.6389     42.3798   5.7318331857e+01   5.8562167274e+01    0.3065333     0.201461 -57.32  0.001045506    2.621    0.618
       257 -10.6882    148.8683     39.5665   3.7457337419e+01   4.2536027481e+01    0.2665026    0.2092931 -35.59 0.0004874759    1.418    0.295
       258  -9.6346    121.0040     41.2409   4.3380362518e+01   4.8658599649e+01    0.1797219    0.1019139  56.36 0.0006186612    1.570    0.363
       259 -10.7836     69.5645     37.3561   5.6518461413e+01   5.9809906273e+01    0.2697403    0.1803408  20.34 0.0005971643    1.492    0.330
       260 -11.0836    221.7896     31.8874   2.6574831063e+01   2.7739398364e+01    0.2301599    0.1557859 -51.83 0.0003179379    1.308    0.236
       261 -11.3880    225.2838     38.0014   2.7439631048e+01   2.6296613075e+01    0.3193859    0.1969225 -80.13 0.0003602416    1.551    0.355
       262 -11.1393    226.0688     33.0476   2.6417226334e+01   2.6762744015e+01    0.2004074    0.1527605 -68.43 0.0003054613    1.051    0.049
       263  -9.9572    249.2119     37.3969   2.5297164365e+01   2.1919022903e+01    0.1524517   0.08875554 -88.94 0.0009540604    1.682    0.406
       264 -11.3638     85.0507     34.5830   5.0459313980e+01   5.7183970129e+01    0.5810269     0.265665  31.42  0.001758497    2.671    0.626
       265  -9.6888      1.3998     37.3064   8.7634094201e+01   6.8485793225e+01    0.1480936    0.1018517 -51.00 0.0007770574    1.526    0.345
       266 -10.2363    111.0100     35.1376   4.3747002189e+01   5.1623383328e+01    0.2037058    0.1876907  -4.39 0.0006592736    1.206    0.171
       267 -11.1822     74.9385     35.4326   5.3962522671e+01   5.9057817837e+01    0.3915406    0.2352869  23.84  0.001355849    1.789    0.441
       268 -11.0552     79.8944     28.7102   4.9874383040e+01   5.8906411227e+01    0.4479028    0.2199744 -26.90  0.002188094    2.298    0.565
       269 -11.7880     24.5269     34.5138   7.4520596887e+01   6.6936143818e+01    0.2331753    0.1721254  -8.00 0.0005050341    1.094    0.086
       270  -9.5315    134.5720     34.7719   3.8685290833e+01   4.6373214248e+01    0.1741674    0.1167806 -48.27 0.0009411568    1.674    0.403
       271 -12.3193      8.7307     31.7241   8.1659358138e+01   6.8908424245e+01    0.3728166    0.3045013 -14.82  0.002673344    1.160    0.138
       272 -10.8843     17.8379     31.0967   7.6568213093e+01   6.8178163112e+01     0.394324    0.1789424  25.99  0.002079899    2.073    0.518
       273 -10.0421    233.8515     33.8692   2.5902538663e+01   2.5174289349e+01    0.1629226    0.1038308 -67.51 0.0003970201    1.323    0.244
       274 -10.1407    192.8304     33.8505   2.9909165465e+01   3.3447444021e+01    0.1748374    0.1535221  75.14 0.0006054939    1.188    0.158
       275 -10.5050    205.7002     32.9625   2.8332729144e+01   3.0850672751e+01    0.1676961    0.1317867 -63.36 0.0005748402    1.126    0.112
       276 -10.4137    122.1482     32.6586   4.0512528399e+01   4.9429599320e+01    0.3336831    0.1291534  53.78  0.001427985    2.151    0.535
       277  -9.4760    246.9866     32.7584   2.4652077827e+01   2.2895304295e+01    0.1305507   0.08154172  79.63 0.0004739676    1.543    0.352
       278 -10.1955    166.5340     32.0676   3.2796520947e+01   3.9430963202e+01    0.1761896    0.1243642 -34.32   0.00102869    1.595    0.373
       279 -10.9228     49.6929     30.7316   6.1481037433e+01   6.4077112989e+01    0.3561066     0.222247 -24.61 0.0003643688    1.625    0.384
       280  -9.8704     49.2076     26.1901   5.9807868978e+01   6.4737412625e+01    0.1860795    0.1403422  25.52  0.001183646    1.118    0.106
       281  -9.1244     44.2826     31.6185   6.4129315886e+01   6.4787532801e+01    0.1062807    0.1023414 -78.08  0.000700975    1.726    0.421
       282 -10.5749    144.2582     26.5896   3.4708760860e+01   4.5085054917e+01    0.4159083    0.1360117 -39.32  0.001717945    3.158    0.683
       283 -10.6924    102.4453     29.3667   4.3909702851e+01   5.4150233833e+01    0.2868557    0.2425459  89.73  0.001221614    1.458    0.314
       284 -10.2850    237.0374     29.6448   2.4867267267e+01   2.5094598938e+01    0.1684638   0.06432116  51.18 0.0007045871    4.463    0.776
       285 -10.8683    197.7805     28.0599   2.8119084530e+01   3.3085809645e+01    0.2110398    0.1501406  76.63 0.0007747429    1.257    0.205
       286 -11.4942    112.8149     26.5875   4.0604298763e+01   5.2179722782e+01    0.4803481    0.3854291  49.73  0.001974046    1.077    0.071
       287  -9.7345    114.2391     20.9777   3.8525982491e+01   5.2434817845e+01    0.2030747    0.1517177  37.96 0.0006318145    1.321    0.243
       288 -10.1911    107.3565     27.5381   4.2134339075e+01   5.3280931575e+01    0.1968214    0.1863548  52.60 0.0002167226    1.111    0.100
       289 -10.6050     70.2720     26.1009   5.1957739942e+01   6.1062811769e+01    0.4517803    0.2244813  35.47  0.002237638    1.833    0.455
       290 -10.0843    204.5195     26.5134   2.7116839155e+01   3.1860672302e+01    0.1999291   0.08568815 -48.16 0.0005719691    2.116    0.527
       291  -9.7375    180.1602     26.6397   2.9759186408e+01   3.7032575826e+01    0.1872643    0.1274525 -86.38 0.0005134697    1.392    0.282
       292  -9.6848    109.8668    242.7973   9.2347255313e+01   7.4442091571e+00    0.1860538    0.1453381  52.84 0.0003884642    1.331    0.249
       293  -9.7072     98.0394    241.9822   9.4975619196e+01   9.2994855500e+00    0.1722264     0.137533  34.53 0.0004474925    1.131    0.116
       294 -11.2500     88.8318    240.8191   9.6962317393e+01   1.0832540664e+01    0.2925078    0.1713171 -45.13  0.001425493    1.996    0.499
       295 -10.1296    195.5195    238.4634   7.2657612130e+01  -3.9716524593e+00    0.2504055    0.1680938 -25.30  0.001411746    1.376    0.273
       296 -12.3908    236.5590    247.1657   6.6176453200e+01  -1.0304837870e+01    0.6275712    0.2993814   0.07  0.002809848    3.045    0.672
       297  -9.5260    134.7101    237.6418   8.5876809872e+01   4.8551753262e+00    0.1416487    0.1003934 -13.81 0.0007026824    1.687    0.407
       298 -10.9960     22.5340     24.4101   7.1362040010e+01   6.8667709355e+01    0.2903439    0.1905731  -9.79 0.0007316663    1.333    0.250
       299 -10.7067     24.7975     21.6062   6.8989201063e+01   6.8786863747e+01    0.2260031    0.1972438  -1.55 0.0007517452    1.328    0.247
       300 -10.0908    214.5914     25.1871   2.5910313467e+01   2.9965195543e+01    0.1796804    0.1414529 -38.43 0.0007148019    1.481    0.325
       301 -10.7091    193.4970     25.4537   2.8008605109e+01   3.4291259607e+01    0.2071253   0.08775033 -47.34 0.0006465823    2.217    0.549
       302 -11.7079     22.5366    248.6828   1.1219530945e+02   1.7227246391e+01     0.376826    0.2449621  53.50  0.001328658    1.299    0.230
       303 -10.5656      1.8327     25.5506   8.3119129778e+01   7.0443537400e+01    0.2327807    0.1534088 -33.74  0.001085337    1.275    0.216
       304 -11.2222     30.3085    234.0175   1.0952068910e+02   1.9594494809e+01    0.4744725    0.1995399  84.59  0.001905131    3.178    0.685
       305  -9.8081    177.3795    234.8128   7.5862912300e+01  -8.3799851297e-01    0.1929197    0.1125888 -32.43 0.0009501615    1.715    0.417
       306 -10.3512    159.9453    235.5268   7.9808906033e+01   1.5412043554e+00    0.2030629    0.1231607  28.01 0.0004106438    1.519    0.342
       307 -11.4798     13.3512     23.3593   7.5774270208e+01   6.9798774973e+01    0.4002965    0.1896246   7.98  0.001081014    2.318    0.569
       308 -10.3927      7.2105     24.7995   7.9773208720e+01   7.0140411182e+01    0.2498391    0.1349847  17.35  0.001495061    1.695    0.410
       309  -9.0583    219.3046     25.2965   2.5518002886e+01   2.9014856347e+01   0.09969448    0.0859379  52.81 0.0002679779    1.583    0.368
       310  -9.4806    221.3097    234.3411   6.6845282794e+01  -6.5681546067e+00    0.1344048    0.0803762 -11.84 0.0004356287    1.692    0.409
       311 -10.8299     86.7552    232.8766   9.6487650461e+01   1.2848233352e+01    0.2833008    0.1471054  53.10  0.001231378    2.144    0.533
       312  -9.9619     38.5504    232.3354   1.0756874243e+02   1.9069878210e+01     0.154977    0.1139529 -66.63 0.0003301402    1.386    0.279
       313  -9.9394     24.1070    232.1374   1.1072322282e+02   2.0665611931e+01    0.1764631    0.1582506 -64.97 0.0005705533    1.282    0.220
       314  -9.4106     58.4965    229.4992   1.0275229161e+02   1.7351908807e+01    0.1328401    0.1184512  63.67 1.020523e-05    1.008    0.008
       315 -10.8188      4.1389    226.6555   1.1460379631e+02   2.3805658611e+01    0.3014068     0.166309  87.03   0.00167434    1.630    0.387
       316  -9.4663    190.5209    226.4736   7.1637432283e+01  -1.1735951268e+00    0.1377874    0.1130898  -6.50 3.414459e-05    1.041    0.040
       317 -10.2694    120.6204    225.8228   8.7413028047e+01   9.4396759453e+00    0.1901092    0.1381133 -69.73 0.0008701002    1.697    0.411
       318  -9.6877    186.4564     22.9170   2.8206257706e+01   3.6081057814e+01    0.1650793    0.1100918 -43.03 0.0007285841    1.538    0.350
       319 -10.0916    101.7951     21.9732   4.1583059524e+01   5.5066903928e+01    0.3837332    0.1843127  41.27   0.00184291    1.969    0.492
       320  -9.7838     97.4802     23.4756   4.3135492640e+01   5.5842786327e+01    0.3435568    0.2230564  11.82  0.001834367    1.985    0.496
       321 -10.1612     93.9964     22.0122   4.3502967568e+01   5.6731337334e+01    0.2558906     0.216675  -9.40  0.001666446    1.328    0.247
       322 -10.8350     84.7929     21.6366   4.5824121812e+01   5.8683474710e+01    0.4791416    0.1622933  45.10  0.002019281    2.435    0.589
       323  -9.5702    120.4578     21.0092   3.7298170375e+01   5.1044221169e+01    0.1605588    0.1270376 -24.21  0.000332506    1.494    0.331
       324 -11.3709     59.3630     21.7358   5.4019832260e+01   6.3547173788e+01    0.5294384    0.2661473  47.58  0.001966443    1.859    0.462
       325 -10.6148     15.5644    221.7968   1.1183437483e+02   2.3863964303e+01    0.3070281    0.1124551  46.47   0.00137425    2.425    0.588
       326  -9.9329    108.3652     17.2836   3.8568365110e+01   5.4085077061e+01     0.177635    0.1520341  -6.93 0.0006296422    1.371    0.271
       327  -9.7863    113.3363    223.6686   8.8847949660e+01   1.1017083072e+01    0.1479315    0.1060352  62.70 0.0007052124    1.735    0.424
       328 -10.8872     21.3820    220.2289   1.1042566270e+02   2.3663513151e+01    0.2350958    0.1464081  89.62  0.001292892    1.499    0.333
       329 -10.7735    194.9822     16.8012   2.6014805252e+01   3.4928510981e+01    0.1755912    0.1437408 -71.20 0.0003233314    1.101    0.091
       330  -9.4067    176.3537    219.2665   7.3405547176e+01   2.2394564208e+00    0.1441009   0.09837805  -3.66  0.000613229    1.626    0.385
       331 -10.7305    143.7895     16.1730   3.1964428779e+01   4.6247818915e+01     0.220916    0.1506564  57.42 0.0006955211    1.296    0.229
       332 -10.3104    248.3208     15.3253   2.1551665778e+01   2.4707269794e+01   0.08899007   0.08051389  59.92 0.0007046821    1.681    0.405
       333  -9.9335    185.8011     14.8123   2.6491410745e+01   3.7084697511e+01    0.1691882     0.145256  75.47 0.0009149893    1.189    0.159
       334  -9.9962    192.0000    217.9915   6.9821308510e+01   1.7759692497e-01    0.2232848   0.07222831 -44.86 0.0008083437    2.984    0.665
       335 -10.0376    225.7274     13.9588   2.2866085849e+01   2.9040673441e+01    0.2040591    0.1106122  52.41   0.00117115    2.540    0.606
       336 -12.2760      5.5692    208.6108   1.1312895298e+02   2.7845187586e+01    0.5228533    0.2742561 -74.03  0.002273098    1.655    0.396
       337 -11.5914     10.2940    216.8364   1.1264599014e+02   2.5501267383e+01    0.3830174    0.2951272  18.78  0.002403886    1.604    0.377
       338  -9.8499    100.6172     12.7080   3.8728431581e+01   5.6184572631e+01    0.1952611    0.1206919  32.63   0.00108724    1.688    0.408
       339  -9.9525     12.5393    212.5054   1.1183469841e+02   2.6313875798e+01    0.2215125    0.1065197 -76.23  0.001088684    1.848    0.459
       340 -10.7526     11.0661    207.9239   1.1183062446e+02   2.7533697138e+01      0.32425    0.2132381 -79.17 0.0008172872    1.333    0.250
       341 -10.0860     38.2285    217.2001   1.0629013018e+02   2.2612857216e+01    0.1895523    0.1344812  63.28  0.000692456    1.341    0.254
       342 -10.9777     29.1267    215.6076   1.0827743546e+02   2.3966654903e+01    0.2519366    0.2369889  66.75   0.00114768    1.133    0.117
       343 -10.0624     24.0060    215.9855   1.0949255206e+02   2.4398395044e+01    0.1939237    0.1436238 -43.46 0.0005294126    1.659    0.397
       344 -11.6215    235.8267    214.0852   6.0593591418e+01  -5.0142556310e+00    0.2327265     0.188245 -32.53  0.001191334    1.248    0.198
       345  -9.9988     20.4715    211.8175   1.0996743733e+02   2.5735238858e+01    0.2612365    0.1665042  64.83  0.001385843    1.494    0.331
       346  -9.8320    136.7651    215.4381   8.1866054711e+01   9.1839473698e+00     0.212862    0.1338121  18.45 0.0009532815    1.744    0.427
       347 -10.6340    247.7635    205.6026   5.6995190907e+01  -5.0599102763e+00    0.2047079    0.1573231 -39.77  0.001265538    1.340    0.254
       348  -9.0038    188.2243    204.9878   6.8226342251e+01   3.2262844065e+00    0.1810294    0.1075702 -42.11 0.0005899707    1.596    0.373
       349 -10.8042     20.0293    200.8729   1.0915187359e+02   2.8425361632e+01    0.5835766    0.1351744 -64.32  0.002082812    3.313    0.698
       350 -10.6919    175.2233    202.2876   7.0545615310e+01   5.8024800810e+00    0.2624474    0.2304898  29.02 0.0004470667    1.207    0.171
       351  -9.3918    238.5086    200.5081   5.7654418409e+01  -3.0583942311e+00    0.1304912    0.1015373 -21.92 0.0008104707    1.023    0.022
       352  -9.8249     58.0063    196.2341   9.9043491250e+01   2.5434183560e+01    0.2144966    0.1437586 -45.78 0.0008167345    1.613    0.380
       353 -11.4636     16.1256    192.9232   1.0940720671e+02   3.0743591745e+01    0.4394447    0.2627241  25.51  0.002186067    1.872    0.466
       354 -10.1405    117.0697    201.5185   8.4389831092e+01   1.5500623665e+01    0.2266888    0.1427441  33.11 0.0006361919    1.542    0.352
       355 -10.2745    245.0726    188.5128   5.4323584115e+01  -1.8460954423e+00    0.2497252    0.1817223 -54.72  0.001293688    1.732    0.423
       356 -10.0975    163.3489    188.6854   7.0620159611e+01   1.0642991886e+01    0.1460463    0.1210232  75.76 0.0007047056    1.724    0.420
       357  -9.1905    211.6668    187.6724   6.0140807944e+01   3.0006620853e+00    0.1452045   0.09649162 -12.44 0.0007051668    1.717    0.418
       358  -9.3141      2.3180    187.3197   1.1232916364e+02   3.3258346411e+01    0.1292573   0.08435333 -48.89 0.0005617439    1.661    0.398
       359  -9.7179     61.8204    184.8161   9.6472581997e+01   2.7866385827e+01    0.2067643    0.1645776  76.63 0.0009667102    1.340    0.254
       360 -10.3915    168.0676    183.3242   6.8461803969e+01   1.0997170927e+01    0.2922176    0.2373194  75.33  0.001421707    1.803    0.446
       361 -11.5178     15.7989    181.6777   1.0845488479e+02   3.3595299208e+01    0.4428393    0.2608701  66.75  0.002126142    1.811    0.448
       362  -9.6762     58.8804    181.8303   9.6857075594e+01   2.9014581123e+01    0.2204771    0.1939579 -37.13 0.0007338236    1.225    0.184
       363  -9.2856      1.6614    179.7391   1.1188863400e+02   3.5187558277e+01    0.1245452   0.08691811 -45.18 0.0003309806    1.585    0.369
       364  -9.9372    244.4884    178.0045   5.2456360339e+01   5.4493202307e-02     0.209537    0.1035606 -38.64  0.001040195    1.637    0.389
       365 -10.2247     46.8159    177.1664   9.9566218958e+01   3.1680993403e+01    0.2531487    0.2334902  88.13  0.001319125    1.043    0.041
       366  -9.7200     96.6880    177.6606   8.5623657571e+01   2.4655111965e+01    0.1617201    0.1165438 -24.05 0.0007045955    1.694    0.410
       367 -10.5000     18.5165    173.0340   1.0686559490e+02   3.5571437380e+01    0.2561239    0.1687109  48.34   0.00105249    1.595    0.373
       368 -11.5976     40.5314    161.4228   9.9179557728e+01   3.6506078088e+01    0.4305976    0.2581215  53.85  0.001600547    1.930    0.482
       369 -10.4220     35.4713    161.4557   1.0067482683e+02   3.7019879079e+01    0.2455145    0.2213798 -76.74 5.914263e-06    1.031    0.030
       370  -9.3266    177.2667    168.6597   6.3368491968e+01   1.2543836157e+01    0.1429722    0.1185075 -75.51 0.0002493965    1.599    0.375
       371 -10.4180      5.0861    168.5062   1.1002299000e+02   3.7773017925e+01    0.1759511    0.1324144  20.13  0.001030597    1.584    0.369
       372 -11.9923     36.6549    165.6924   1.0090663521e+02   3.5787031546e+01    0.5672805    0.4273503  48.54    0.0030306    1.413    0.292
       373 -12.0133     51.8734    161.7658   9.5864584599e+01   3.5138467531e+01    0.8093879    0.4618345 -74.66  0.003479915    1.860    0.462
