#   1 NUMBER                 Running object number                                     
#   2 MAG_AUTO               Kron-like elliptical aperture magnitude                    [mag]
#   3 X_IMAGE                Object position along x                                    [pixel]
#   4 Y_IMAGE                Object position along y                                    [pixel]
#   5 X_WORLD                Barycenter position along world x axis                     [deg]
#   6 Y_WORLD                Barycenter position along world y axis                     [deg]
#   7 A_WORLD                Profile RMS along major axis (world units)                 [deg]
#   8 B_WORLD                Profile RMS along minor axis (world units)                 [deg]
#   9 THETA_WORLD            Position angle (CCW/world-x)                               [deg]
#  10 FWHM_WORLD             FWHM assuming a gaussian core                              [deg]
#  11 ELONGATION             A_IMAGE/B_IMAGE                                           
#  12 ELLIPTICITY            1 - B_IMAGE/A_IMAGE                                       
         1 -12.7904    199.0548     31.2208   6.1180662540e+01   3.1321731758e+01      0.81659    0.5649559 -39.73  0.004049265    1.434    0.302
         2 -13.7596    212.3214     15.1717   5.4954215899e+01   2.9700292731e+01     1.513765     1.020065  21.48  0.007479805    1.881    0.468
         3 -12.0949      2.2775      4.8629   1.1758432260e+02   7.4355709324e+01     1.093776    0.2140287 -60.14  0.003912248    4.368    0.771
         4 -10.4035     73.2919    247.3392   1.3157919539e+02   1.7567838802e+01    0.3028471    0.1122649  37.37  0.001710794    2.098    0.523
         5 -10.7078    184.5555    250.2251   1.1223804919e+02   2.2586944072e+00    0.2883011     0.119494  33.80  0.001589704    1.805    0.446
         6 -10.7929    169.5874    248.7564   1.1468207195e+02   4.5435631712e+00    0.2783613    0.1631865  19.94 0.0008166562    1.797    0.443
         7 -11.0140    149.8652    248.5139   1.1815127993e+02   7.3632002341e+00    0.2842152    0.2237265  83.90  0.002044105    1.979    0.495
         8 -10.3401    143.3778    249.5106   1.1941127817e+02   8.1453549333e+00    0.1858374    0.1504051  43.32 0.0007297317    1.155    0.134
         9 -12.3226    105.5309    237.6822   1.2509468608e+02   1.4965405314e+01     0.629773    0.4194581  20.87  0.004054507    1.882    0.469
        10 -11.4964     99.9463    247.6927   1.2695410003e+02   1.4236727123e+01    0.7076665    0.2561937  47.66  0.003813073    2.151    0.535
        11 -11.3181    133.9238    248.7148   1.2101227589e+02   9.5594656743e+00    0.5208789    0.1697168  39.37  0.002600627    2.216    0.549
        12 -11.2986     84.9025    230.9296   1.2831368941e+02   1.8675720716e+01    0.4899419    0.2578649 -79.02  0.002935707    2.456    0.593
        13 -11.0819    116.8874    238.1999   1.2306031989e+02   1.3356266813e+01    0.4474885    0.2543324 -38.89  0.002636639    2.779    0.640
        14 -11.3246    122.4560    233.6338   1.2157419292e+02   1.3248720276e+01     0.290288    0.2758269 -52.47   0.00179246    1.373    0.272
        15 -11.9335    124.8051    240.2248   1.2180889358e+02   1.1976335133e+01     0.542948    0.2208283  38.62  0.002765297    1.847    0.459
        16 -11.3584    113.2224    231.2794   1.2306489730e+02   1.4882358694e+01    0.3442706     0.292289  21.33  0.001801682    1.353    0.261
        17 -10.8152    115.5579    250.3130   1.2442138746e+02   1.1831947879e+01    0.5192675    0.1923533  37.57  0.001315729    2.029    0.507
        18 -11.3739    109.2549    246.0779   1.2516649818e+02   1.3254998843e+01    0.3735349    0.2580215  87.55  0.001048143    1.931    0.482
        19 -11.6576    105.0156    227.8119   1.2427474381e+02   1.6536470514e+01    0.4740918    0.2803458  49.75  0.002305346    1.392    0.282
        20 -10.9449     98.2310    231.6788   1.2590517610e+02   1.6842301076e+01    0.3608735    0.2336342 -89.01  0.002353558    2.000    0.500
        21 -11.0913     96.8944    239.6858   1.2684034933e+02   1.5798988324e+01    0.3535832    0.2715192 -10.83   0.00196324    2.260    0.557
        22 -10.4055     91.2142    241.7814   1.2803200193e+02   1.6211461923e+01    0.2197728    0.1687952  50.44  0.000745294    1.036    0.035
        23 -10.9048     89.8211    238.2166   1.2799950855e+02   1.6924300627e+01      0.21744    0.1985839 -71.63 0.0009482324    1.415    0.293
        24 -10.0305     81.6504    246.9811   1.3010761725e+02   1.6623389163e+01     0.246686    0.1456769  88.25  0.001253546    2.109    0.526
        25  -9.7370     90.5798    250.6038   1.2881844023e+02   1.5002141525e+01    0.2749994    0.1318018  32.51  0.001648859    1.946    0.486
        26 -10.9833     86.8949    248.0940   1.2927415949e+02   1.5819741466e+01    0.2953671    0.2250044  36.65 0.0007870105    1.271    0.213
        27  -8.7846     68.9629    250.3137   1.3250767305e+02   1.7631403618e+01    0.1820834    0.0285479  48.54  0.000704625    4.341    0.770
        28  -9.1390     62.8328    250.3861   1.3354706474e+02   1.8318184805e+01    0.1634811    0.1251441  18.04  0.000802557    1.894    0.472
        29 -11.3717     60.3839    245.8149   1.3369585995e+02   1.9276923331e+01    0.3540353    0.2530837  55.07  0.001697449    1.017    0.016
        30 -10.0946     67.5397    243.8890   1.3235028380e+02   1.8756098305e+01    0.3190454    0.1339525  34.65  0.001862273    2.089    0.521
        31 -13.4640      3.1607    187.5727   1.4113527148e+02   3.4795722387e+01     2.325857    0.3435897 -77.62  0.008955226    5.213    0.808
        32 -11.9855     55.1482    207.5192   1.3217162703e+02   2.6196030715e+01     1.046631    0.4314442  47.94  0.005821331    1.925    0.480
        33 -12.3623     18.5194    216.8480   1.3949999638e+02   2.8238482332e+01    0.8324625    0.5692643  -6.62   0.00225604    3.327    0.699
        34 -13.7092     10.6724    208.8625   1.4057217240e+02   3.0311949050e+01     1.884185    0.8156527 -64.64   0.01167084    2.576    0.612
        35 -13.3233     39.8824    243.0542   1.3700456439e+02   2.1894310188e+01     1.058198    0.6127846  63.83  0.007786225    1.368    0.269
        36 -13.2170      3.8118    245.1873   1.4286486102e+02   2.4935443480e+01    0.8736075    0.4065462  76.56  0.006508497    1.777    0.437
        37 -12.7568     13.7934    238.6835   1.4110291859e+02   2.5073432743e+01    0.6970155    0.3222412  49.70  0.001748217    1.498    0.332
        38 -12.7250     32.4029    227.3781   1.3753807590e+02   2.5154187774e+01    0.3887263    0.2808268 -76.52  0.002038093    1.538    0.350
        39 -14.1300     39.3244    218.6109   1.3585759219e+02   2.5938436076e+01     1.269976    0.9496341  25.17  0.009545467    1.689    0.408
        40 -11.3797    176.2765    242.7449   1.1276609488e+02   4.2949812256e+00     0.340046    0.1685314  50.64  0.001434566    2.455    0.593
        41 -10.6493    142.2299    221.5474   1.1645002457e+02   1.2148598857e+01    0.3193575    0.1867754  30.43 0.0001389212    1.531    0.347
        42 -10.8124    132.1500    223.6414   1.1864466645e+02   1.3336002733e+01    0.3452914    0.2139777 -52.53  0.002142459    2.047    0.512
        43 -13.0882    135.3666    241.1242   1.1997303446e+02   1.0374645824e+01     1.110434    0.3281726  43.12  0.005104627    2.571    0.611
        44 -11.8245    135.4376    236.1860   1.1943111529e+02   1.1045495711e+01    0.3594239    0.2774438  16.37   0.00138094    1.461    0.316
        45 -11.2136    134.2516    232.4359   1.1924057151e+02   1.1744800548e+01     0.310802    0.1971058 -34.70  0.001590548    2.268    0.559
        46 -11.0280    244.4932    241.4626   1.0091953149e+02  -5.0901059755e+00     0.190864   0.09561691 -24.44  0.001210783    2.164    0.538
        47 -10.2787     53.8365    240.4330   1.3450783899e+02   2.0827152348e+01    0.1827517    0.1288679 -80.18 0.0007713544    1.572    0.364
        48  -9.7006     55.2214    235.9150   1.3400736802e+02   2.1385869872e+01    0.2346264    0.1278921  56.59 0.0009754068    1.440    0.306
        49  -9.1018     61.4556    239.0245   1.3310436131e+02   2.0200194022e+01    0.1579988    0.1064085  47.66 0.0006053655    1.131    0.116
        50 -11.2999    166.3192    242.0168   1.1445975319e+02   5.8227388270e+00    0.3431053    0.1293279  38.42  0.001762083    1.966    0.491
        51 -10.7856     84.3894    240.7230   1.2916924716e+02   1.7223067071e+01    0.3393343    0.2197895  76.98  0.002381444    1.710    0.415
        52 -10.8357    135.9932    225.6589   1.1814149332e+02   1.2472015542e+01    0.3495375    0.2060932 -49.46  0.001590697    2.160    0.537
        53 -12.1445    123.7863    246.1043   1.2256899403e+02   1.1300625399e+01    0.6536238    0.3607542  45.63  0.004216514    1.397    0.284
        54  -8.6282     62.5230    233.3784   1.3255948443e+02   2.0971056636e+01    0.1053883   0.07707581  53.05 8.329196e-05    1.030    0.029
        55 -10.4623    156.6861    231.7475   1.1496770279e+02   8.5539659385e+00    0.2130879    0.1651159  28.61 0.0004562612    1.094    0.086
        56  -8.3605     57.4558    231.4275   1.3334056671e+02   2.1857450626e+01    0.1061858   0.07689753  56.27 0.0005020465    1.030    0.029
        57  -9.1991     45.8076    231.1538   1.3538762329e+02   2.3167491595e+01    0.1667475   0.09744059  57.84  0.001053203    1.316    0.240
        58  -8.6322     71.2432    235.3522   1.3113165699e+02   1.9643718536e+01   0.08525938   0.08073855 -22.01 0.0006927395    1.582    0.368
        59 -10.4153     79.6692    225.6541   1.2886367813e+02   2.0178229589e+01    0.3697347    0.2401519  86.55  0.001577327    1.741    0.426
        60  -8.8507     77.4203    220.5659   1.2887836103e+02   2.1298565016e+01    0.1715668   0.08883435  38.79 0.0004350377    1.590    0.371
        61  -9.3122    142.3044    227.4196   1.1714645826e+02   1.1285851453e+01    0.1753594    0.1371801  75.35 0.0004428313    1.744    0.426
        62 -10.5870    117.0944    224.5280   1.2163990228e+02   1.5372768091e+01    0.2761759    0.1947062  33.88 0.0004440483    1.250    0.200
        63  -9.6590     92.5040    226.4254   1.2651352745e+02   1.8420025113e+01    0.2020578      0.14885  39.29   0.00090247    1.187    0.158
        64  -9.5294     89.6886    224.6797   1.2689305831e+02   1.9066838892e+01    0.2613712    0.1196822  41.46  0.001398932    1.686    0.407
        65  -9.1574     64.8298    224.6709   1.3155316202e+02   2.2124822004e+01    0.1860617    0.1548629 -42.15 0.0009450648    1.790    0.441
        66  -9.6831    159.9988    223.8137   1.1333550567e+02   9.1329972813e+00    0.2086165    0.1212198  17.87  0.001099448    2.145    0.534
        67 -11.4635     98.4454    223.4953   1.2511627365e+02   1.8105542755e+01    0.5347321    0.2755401  54.34  0.003069598    1.805    0.446
        68 -10.3849     69.7570    217.9309   1.3013063973e+02   2.2677682804e+01    0.5141098    0.2496487 -88.41  0.002776061    2.712    0.631
        69  -8.8357     89.2173    218.4293   1.2642633648e+02   2.0156165373e+01    0.1603106   0.08213808  46.94 0.0005609471    1.558    0.358
        70  -8.7729     62.4951    217.9477   1.3151158199e+02   2.3529945677e+01    0.1501252    0.1338922  32.68 0.0006264043    1.377    0.274
        71  -8.9843    118.5119    217.5559   1.2060702987e+02   1.6264128459e+01    0.1187444    0.0951356  41.36 0.0001077342    1.036    0.035
        72  -9.2352    137.1722    214.4613   1.1655607891e+02   1.3981289100e+01    0.1797133    0.1434819  56.20 0.0002932116    1.296    0.229
        73  -9.5738     88.1772    212.8955   1.2611915708e+02   2.1228072894e+01    0.2093584    0.1424135  85.61 0.0009855385    1.684    0.406
        74  -8.5056    159.7633    213.6589   1.1200842780e+02   1.0602366430e+01    0.1138917   0.08521312   5.21 0.0002715535    1.551    0.355
        75  -9.5824    101.8214    211.6349   1.2327867342e+02   1.9601692993e+01    0.2759227   0.09726617  51.87  0.001151108    3.071    0.674
        76  -9.8991     96.1897    206.1556   1.2384307679e+02   2.1319951926e+01    0.3142335    0.1722851  83.52  0.001510213    2.999    0.667
        77  -9.9632     91.7458    204.7385   1.2460328327e+02   2.2173482990e+01    0.3723043    0.1930931  32.37  0.001406766    1.867    0.464
        78  -9.4087    106.8943    209.8405   1.2206751540e+02   1.9193570011e+01    0.1695957    0.1504467  28.53  0.000507934    1.232    0.188
        79  -9.5426    112.3961    208.2333   1.2077427960e+02   1.8676040423e+01    0.1876956    0.1705865  29.36 0.0006577841    1.198    0.165
        80  -9.2793     74.9308    208.2005   1.2832444052e+02   2.3738790187e+01    0.2117999    0.1285694  41.79  0.001329375    1.374    0.272
        81  -9.7539     73.6437    243.1141   1.3123769222e+02   1.8160417761e+01    0.2293599    0.2161257  57.29  0.002008297    1.353    0.261
        82 -10.8134    246.9869    206.0207   9.4840837044e+01  -1.9566935801e+00    0.4330291    0.1589806  27.78  0.001958763    2.673    0.626
        83  -9.5724     32.8434    206.8977   1.3641146974e+02   2.8644402105e+01    0.1402439    0.1245261  84.89 0.0004734849    1.273    0.214
        84  -8.8351    125.8267    205.8877   1.1775728761e+02   1.7075199596e+01    0.1641136     0.129922  61.23 0.0007270662    1.321    0.243
        85  -9.2125     74.6398    203.8111   1.2799593668e+02   2.4560455057e+01    0.2212351    0.1525051  22.81 0.0008881396    1.784    0.440
        86  -9.7011    103.2813    202.7675   1.2202063169e+02   2.0923417440e+01    0.3051414    0.1571571  47.29  0.001337713    1.659    0.397
        87  -8.6099    134.3730    208.3010   1.1632983442e+02   1.5377265590e+01     0.123021   0.08844563  12.07 0.0007029852    1.751    0.429
        88  -9.6971     84.5151    201.1127   1.2572275156e+02   2.3785133923e+01    0.3179753    0.2084094 -36.39  0.001804238    2.413    0.586
        89  -9.0197     85.9507    195.5375   1.2485560729e+02   2.4616017257e+01    0.1667037    0.1340575  46.96 0.0003994333    1.085    0.079
        90  -9.0406     64.4146    201.8111   1.2989178531e+02   2.6166133272e+01    0.1588222    0.1154886  51.43  0.000557985    1.129    0.114
        91  -8.9607    183.2155    200.4052   1.0543359434e+02   8.7158135706e+00    0.1668114     0.103051  42.85 0.0002900778    1.485    0.327
        92  -9.4051     44.7080    199.2369   1.3364546155e+02   2.8842147468e+01    0.2637194    0.2102469  17.27  0.001890169    1.704    0.413
        93  -9.2710    119.1642    199.0041   1.1826424358e+02   1.9248690334e+01    0.3779995    0.1111151  46.95  0.001185647    3.306    0.698
        94  -9.9199     53.9576    198.4584   1.3173749322e+02   2.7986245035e+01    0.3228413    0.1339892  49.31  0.001733762    1.993    0.498
        95 -11.6174     59.5722    194.3983   1.3026669499e+02   2.8112038949e+01    0.3595626    0.3237999 -31.63  0.001844541    1.564    0.361
        96  -8.8038    145.1497    198.1472   1.1273718712e+02   1.5314422870e+01    0.1606233    0.1349407  55.71 0.0002498603    1.272    0.214
        97 -10.1370    102.6798    196.2291   1.2139577957e+02   2.2172500573e+01    0.2717281    0.2145782  -5.61 0.0006789558    1.858    0.462
        98  -9.9037     96.4406    195.9078   1.2267920440e+02   2.3114945522e+01    0.2791362    0.1498374  41.56  0.001141334    1.565    0.361
        99  -9.9632     28.9591    197.3372   1.3662244261e+02   3.0766055912e+01    0.3534621    0.2882431 -33.65  0.002624769    1.926    0.481
       100 -10.9237    249.5877    194.0535   9.2296708126e+01  -1.0464099824e+00    0.3141489    0.2052773  16.48  0.001980869    1.226    0.184
       101 -11.4804     41.6204    205.8906   1.3468194302e+02   2.7944403100e+01    0.5162955    0.1916156  42.14  0.002452043    2.075    0.518
       102 -13.6496     28.3618    246.7124   1.3904849897e+02   2.2476611854e+01     1.427668    0.5590662  40.18  0.009429303    1.880    0.468
       103  -8.6950     72.5298    192.9615   1.2743043792e+02   2.6829486247e+01    0.1507962    0.1094413 -70.94 5.659271e-06    1.464    0.317
       104  -9.9116     25.7450    192.5040   1.3698128673e+02   3.1971485462e+01    0.2057893    0.1540172  70.99 0.0007349301    1.050    0.047
       105  -9.7099    191.4593    191.4776   1.0233603039e+02   8.6016365587e+00    0.2270446    0.1834468  22.53 0.0006960523    1.008    0.008
       106  -9.0030     38.5121    192.4317   1.3442835841e+02   3.0758585218e+01    0.1379097   0.09388097 -71.06 8.863887e-05    1.517    0.341
       107  -9.8010     40.8256    188.4610   1.3368412124e+02   3.1285881930e+01    0.2530449    0.1484695  59.00 0.0005684765    1.458    0.314
       108  -8.9224    113.4958    190.5438   1.1837873901e+02   2.1605647590e+01    0.2633228   0.08696905 -41.65 0.0008083766    6.170    0.838
       109  -9.5029     31.4275    189.9867   1.3570120757e+02   3.1918875672e+01    0.3045162   0.09097067  41.86  0.001527616    2.525    0.604
       110 -10.5706    249.9858    188.0142   9.1126524542e+01  -4.3450500402e-01    0.3006503    0.1712735  -9.38  0.001689895    1.707    0.414
       111  -9.2634     77.0763    188.6222   1.2603188309e+02   2.7081141631e+01    0.1809716    0.1435734  80.03 0.0003947879    1.224    0.183
       112 -10.9499     83.7818    186.8546   1.2439070010e+02   2.6542726499e+01    0.2044881    0.1785375  64.70 0.0002400755    1.043    0.042
       113 -11.5110     66.1276    186.9431   1.2822378490e+02   2.8768217224e+01    0.2502441    0.2275066 -62.25  0.000477016    1.321    0.243
       114  -8.6439     65.7700    181.9871   1.2782654722e+02   2.9783063331e+01    0.1374693   0.09259935 -74.41 0.0008381976    1.504    0.335
       115  -9.4056     15.6308    191.7424   1.3891746417e+02   3.3007897196e+01    0.2056396    0.1162939  77.80  0.000764624    1.489    0.328
       116  -9.9279     28.7822    184.1568   1.3587856170e+02   3.3294017971e+01     0.278729    0.2510816  63.11  0.001392754    1.217    0.179
       117 -10.1334     24.1183    184.1124   1.3683001975e+02   3.3727469546e+01     0.326334    0.1774304 -49.53  0.001900541    2.589    0.614
       118 -10.7889    127.8120    182.7035   1.1416233807e+02   2.0781787054e+01    0.2155046     0.203967  63.76 0.0003038528    1.131    0.116
       119  -9.1712    140.1495    183.1859   1.1154203337e+02   1.8661658357e+01    0.1869645     0.159569  25.69 0.0002704107    1.117    0.105
       120  -9.1363    107.8312    182.6493   1.1857559712e+02   2.3924033901e+01    0.1756175    0.1412726  48.01 0.0005132787    1.089    0.081
       121  -9.4081     36.9019    182.8056   1.3410225691e+02   3.2782259095e+01    0.1943022    0.1423807  88.97  0.001363734    1.220    0.181
       122 -10.3261     86.1542    180.2136   1.2311149807e+02   2.7512978364e+01    0.2552704    0.1801101  61.45 0.0003339674    1.365    0.268
       123  -8.9910     47.5561    179.7001   1.3159351125e+02   3.2306610707e+01    0.1869892   0.09502006  33.60 0.0006366512    1.919    0.479
       124 -12.1874    248.2304    173.0015   8.8563521090e+01   1.5788932937e+00    0.6615503    0.4017321 -18.60  0.003795507    1.513    0.339
       125 -12.3329    245.2509    163.7646   8.7225501397e+01   3.1895309798e+00    0.5857123    0.2965353 -35.85   0.00292326    2.140    0.533
       126 -12.1480    246.8285    158.1235   8.5811126680e+01   3.6325701735e+00     0.789309    0.6492128 -70.50  0.004354134    2.562    0.610
       127  -8.4271     92.5317    178.3862   1.2145418026e+02   2.6985667908e+01    0.1237416    0.1085993  50.10 -7.77673e-05    1.048    0.045
       128 -10.7995     12.1913    173.1121   1.3867824686e+02   3.6897690380e+01    0.3013568     0.163129 -67.29  0.001917864    1.808    0.447
       129  -9.0097    125.9801    177.2484   1.1374485385e+02   2.2081262884e+01    0.1796547    0.1508883  44.06 0.0002436265    1.058    0.055
       130 -10.6836    103.0611    176.0786   1.1876124307e+02   2.5903738093e+01    0.2079603    0.1773743  45.60 -0.001320134    1.055    0.052
       131 -11.2856    107.7206    172.8205   1.1723663494e+02   2.5833148507e+01    0.2371996     0.216053  75.91 0.0003365311    1.120    0.107
       132 -10.7645     65.4041    175.7782   1.2728785189e+02   3.1069956160e+01    0.2228471    0.1925177  72.28 0.0003284272    1.032    0.031
       133 -11.0754     62.9923    172.7048   1.2751937125e+02   3.1984472766e+01    0.2459771    0.2200024  54.56  0.000430502    1.121    0.108
       134 -10.6978     76.3770    174.9313   1.2471024214e+02   2.9867349052e+01    0.2202504    0.1920462  70.89 0.0004137952    1.040    0.039
       135 -10.5299     18.9015    172.9795   1.3726282049e+02   3.6379015590e+01    0.4015537     0.175834  62.99  0.001947271    2.098    0.523
       136 -11.1951     14.1662    167.0305   1.3792871782e+02   3.7965809871e+01    0.3008526    0.2501915  18.80   0.00204026    1.583    0.368
       137  -9.7939     44.9967    164.9516   1.3089574984e+02   3.5594870916e+01    0.2040609    0.1781301  17.90 0.0004119801    1.452    0.311
       138 -10.9932     45.9757    172.2561   1.3131627829e+02   3.3979414862e+01    0.3016696    0.2113724 -55.60 0.0003425708    1.636    0.389
       139 -10.8035     43.6890    168.6948   1.3152417187e+02   3.4949936226e+01    0.2994751    0.2521805 -15.28   0.00107014    1.727    0.421
       140 -10.1469     27.8273    171.6255   1.3526487362e+02   3.5876629851e+01    0.2827768    0.1685575 -65.81  0.001254952    1.674    0.403
       141  -8.3349    150.7502    170.2909   1.0707005793e+02   1.9108325060e+01    0.1234126    0.1041793  70.23 0.0001588363    1.479    0.324
       142  -8.9692    134.0428    167.6493   1.1036858239e+02   2.2522750445e+01      0.18721    0.1563774  37.43 0.0003956434    1.074    0.069
       143 -11.6585     84.3753    166.4425   1.2182088308e+02   3.0533109884e+01    0.5675039    0.4134074  33.04  0.003335331    1.390    0.281
       144  -8.4994     58.4882    167.4759   1.2801864982e+02   3.3591834751e+01    0.1215058    0.1026837  70.07 3.170008e-05    1.023    0.023
       145 -10.0332     22.4743    163.1811   1.3586961007e+02   3.8078378373e+01    0.2313279    0.1534123  -4.95 0.0009293168    2.612    0.617
       146  -8.5801     58.4271    162.5085   1.2751381594e+02   3.4642156939e+01    0.1219849    0.1040396  73.95 6.450831e-05    1.025    0.025
       147 -10.4106     12.2496    161.3386   1.3801862834e+02   3.9279796682e+01    0.2115557    0.1342644  77.36  0.001091944    1.311    0.237
       148 -12.6348     11.2135    153.3847   1.3777804409e+02   4.1014035421e+01    0.5322284    0.3427018 -85.04  0.002241071    1.294    0.227
       149 -12.8567      4.4262    142.8182   1.3871710953e+02   4.3723563089e+01    0.6726732    0.5162603  70.09  0.004965148    1.127    0.112
       150 -11.0218     31.7393    155.7887   1.3319193336e+02   3.8823843094e+01    0.3263966    0.2078945 -50.28  0.001386607    1.859    0.462
       151  -9.9976     89.5819    160.0594   1.1970580871e+02   3.1130020928e+01     0.201087    0.1588057  42.35 0.0002920292    1.193    0.162
       152  -8.8297     47.5422    157.9572   1.2963755875e+02   3.6811468599e+01    0.1579641   0.08433628 -48.82 -9.397682e-06    2.272    0.560
       153 -11.8643     23.4358    154.4533   1.3503278168e+02   3.9831819635e+01    0.4423316    0.2674261  56.84  0.002771653    1.501    0.334
       154  -9.9269     23.9647    149.4872   1.3452979391e+02   4.0851839847e+01    0.1854119    0.1159291  20.77  0.000787184    1.983    0.496
       155  -8.7667    228.3589    155.2930   8.8401681882e+01   7.2064065461e+00    0.1735073     0.116061 -33.19 0.0005910054    1.576    0.366
       156  -9.8012     84.3177    155.3029   1.2032384846e+02   3.2882490879e+01    0.3188327    0.1812156  27.06  0.001544807    2.009    0.502
       157 -10.2267     89.9572    153.2635   1.1862144940e+02   3.2514397632e+01    0.2373379    0.2012095 -61.81  0.000280169    1.219    0.179
       158  -9.0924    104.7654    153.3410   1.1494566491e+02   3.0246292294e+01    0.2019595     0.149523  52.50 0.0003432579    1.320    0.242
       159 -10.9041    249.4596    151.0757   8.3911379278e+01   4.0779562306e+00    0.4232501    0.2662339 -24.29  0.002359696    1.453    0.312
       160 -12.9865    247.8473    100.8313   7.2836555984e+01   1.0995225136e+01     1.421776    0.6130064 -24.64  0.005950904    2.199    0.545
       161 -12.0475    248.4227    112.8562   7.5588019820e+01   9.2730308193e+00    0.9612608    0.5409763   2.82  0.004151814    2.442    0.590
       162  -9.1842    113.8197    150.9778   1.1230009354e+02   2.9264979015e+01    0.2447345    0.1662392 -65.57 0.0007648438    1.697    0.411
       163 -10.2771     96.7381    151.0377   1.1657603635e+02   3.1980495795e+01    0.3152452    0.2439146 -50.53  0.001068633    1.376    0.273
       164  -9.6849     83.9817    146.7165   1.1914581297e+02   3.4786071924e+01    0.2160547    0.1522437  74.81 0.0008547996    1.635    0.388
       165  -8.7085     55.3179    150.6370   1.2695649212e+02   3.7552614656e+01    0.1353431    0.0816561  67.77 0.0007041289    1.770    0.435
       166  -9.2192     16.2719    158.4223   1.3694688875e+02   3.9574402244e+01    0.1435222   0.08806239  47.75 0.0004398324    1.496    0.332
       167 -12.1086     68.4574    144.5576   1.2284454800e+02   3.7333006268e+01    0.6214958    0.4330515  77.86  0.002364482    1.559    0.359
       168  -9.2553    100.4715    146.4189   1.1486897470e+02   3.2390685694e+01    0.2663966    0.1746276 -29.67  0.001006555    2.155    0.536
       169  -9.7593     41.0404    147.5064   1.3018164490e+02   3.9741038497e+01     0.171584    0.1122496  35.94  0.001023395    1.568    0.362
       170 -10.3302    236.2150    146.0787   8.5062702326e+01   7.0487281083e+00    0.2368122    0.1603263  25.27 0.0006584748    1.375    0.272
       171  -8.8524     52.5491    146.4630   1.2717255143e+02   3.8777946771e+01    0.1223125    0.1088336  86.21 -4.782487e-05    1.030    0.029
       172  -9.8438    133.3848    141.1323   1.0558472331e+02   2.7827794584e+01    0.4511381    0.2420978 -53.05  0.001908442    2.090    0.522
       173  -8.6068    104.9833    142.9399   1.1310588305e+02   3.2416066106e+01    0.1584562    0.1498636  52.16 0.0003352431    1.012    0.012
       174 -12.2386     17.8541    139.9682   1.3527470882e+02   4.3404667314e+01    0.5398452    0.2170873  50.44  0.002733396    2.394    0.582
       175 -10.7992     72.8014    139.2150   1.2093760396e+02   3.7968392996e+01    0.3158715    0.2223209 -46.71 0.0009074456    1.553    0.356
       176 -11.0376     60.2887    136.6329   1.2391032750e+02   4.0102235806e+01    0.2815611    0.2237866  84.75  0.001707068    1.222    0.182
       177  -8.7542     50.8343    138.1692   1.2662717178e+02   4.0816037426e+01    0.1596407    0.1399743 -49.47 0.0003872142    1.280    0.219
       178  -9.7616    109.2005    136.1097   1.1074026773e+02   3.3186568513e+01    0.3544338    0.2529289  -5.02   0.00134072    2.133    0.531
       179 -11.8890      7.3404    120.5586   1.3646888959e+02   4.8422083535e+01    0.3599723    0.2244076  24.91  0.002284415    1.896    0.472
       180 -12.4093      2.9159    131.3377   1.3837791435e+02   4.6299402572e+01    0.5860136    0.3637142 -53.35  0.003767024    1.733    0.423
       181 -11.8467      2.1378    124.7036   1.3813971310e+02   4.7801968930e+01    0.6474435    0.1253625 -78.47  0.002353398    4.119    0.757
       182 -10.9539     32.8675    140.7795   1.3157511908e+02   4.1993280277e+01    0.2558514    0.1853691  58.52  0.001079652    1.308    0.236
       183 -10.8453     44.9130    130.5530   1.2727668259e+02   4.3159097078e+01    0.3375714     0.202712  73.46  0.001210829    1.860    0.462
       184 -11.3285     33.7229    129.3392   1.3017584676e+02   4.4489564357e+01     0.426493    0.1553927 -76.45  0.001824218    2.640    0.621
       185 -10.6971     59.4932    127.8119   1.2287072004e+02   4.2208046782e+01     0.258395    0.2157349 -44.74 -0.0001425791    1.309    0.236
       186 -12.0058     22.8472    121.1682   1.3229127773e+02   4.7240676330e+01    0.3275955    0.2400533 -70.82  0.001518201    1.181    0.153
       187 -10.0808    249.8033    117.7771   7.6516562819e+01   8.3564927930e+00    0.3804412    0.2508819  -5.02  0.001327912    1.527    0.345
       188 -10.0027    238.6839    121.5953   7.9156084435e+01   9.9478772034e+00    0.2901246     0.152647 -15.21  0.001260486    2.109    0.526
       189 -10.9045     67.0018    128.3200   1.2084707727e+02   4.1182869296e+01    0.3198297    0.2635664 -85.53  0.001909656    1.184    0.155
       190 -10.0036    209.9960    125.8957   8.5216079432e+01   1.5042432014e+01     0.256099    0.1920625 -24.91 0.0005240086    1.286    0.222
       191  -9.6261    231.6317    116.2538   7.9065552141e+01   1.2082720112e+01    0.1985931    0.1213598 -17.81 0.0006156079    1.616    0.381
       192 -11.5495     11.0436    115.9500   1.3507415485e+02   4.9236441501e+01    0.2453986    0.2094469 -63.97 0.0008382695    1.197    0.164
       193 -11.7184      9.9547    112.2810   1.3505290123e+02   5.0136230839e+01    0.2290131    0.1958348  67.32 0.0007610884    1.192    0.161
       194 -12.1738    247.7708    142.2564   8.2305625716e+01   5.5002753437e+00    0.8037322    0.5766317  47.79  0.004580645    1.671    0.402
       195 -10.2131    168.0500    113.1232   9.0772457345e+01   2.6206131062e+01    0.3342064    0.2904141 -86.51 0.0009762663    1.544    0.352
       196 -11.5402     15.1952    104.8578   1.3279265833e+02   5.1518298137e+01    0.3068344    0.2324057 -71.00 0.0009349713    1.104    0.094
       197  -9.9716     16.9786     99.0075   1.3158547006e+02   5.2761622785e+01     0.181522    0.1499354 -80.40 0.0003261849    1.033    0.032
       198  -9.0439    203.4941    111.4970   8.2936032372e+01   1.8686995714e+01    0.1517814    0.1324978   6.83 -5.559288e-05    1.062    0.058
       199 -12.9269    248.5197    134.0900   8.0398522503e+01   6.4342102540e+00     1.468578     0.457895 -28.93  0.005535404    2.976    0.664
       200 -12.5540    194.6993     34.0845   6.2648605525e+01   3.2100363787e+01    0.7569621    0.5069816 -44.89  0.003619147    1.542    0.352
       201 -11.4406    199.0211    246.4823   1.0925376420e+02   6.2675675957e-01    0.3054383    0.2080055  33.96  0.002174373    1.181    0.154
       202 -10.6786    192.4771    248.7623   1.1068055741e+02   1.3033275584e+00    0.2286202    0.1440793  23.02   0.00123109    1.289    0.224
       203  -9.6426     16.2616     25.4103   1.1689426766e+02   6.9463938839e+01     0.144533    0.1103787  26.37  0.000668217    1.608    0.378
