#   1 NUMBER                 Running object number                                     
#   2 MAG_AUTO               Kron-like elliptical aperture magnitude                    [mag]
#   3 X_IMAGE                Object position along x                                    [pixel]
#   4 Y_IMAGE                Object position along y                                    [pixel]
#   5 X_WORLD                Barycenter position along world x axis                     [deg]
#   6 Y_WORLD                Barycenter position along world y axis                     [deg]
#   7 A_WORLD                Profile RMS along major axis (world units)                 [deg]
#   8 B_WORLD                Profile RMS along minor axis (world units)                 [deg]
#   9 THETA_WORLD            Position angle (CCW/world-x)                               [deg]
#  10 FWHM_WORLD             FWHM assuming a gaussian core                              [deg]
#  11 ELONGATION             A_IMAGE/B_IMAGE                                           
#  12 ELLIPTICITY            1 - B_IMAGE/A_IMAGE                                       
         1 -10.9299    114.1294     25.4062   8.0667266612e+01   5.3233227747e+01    0.3142546    0.2451497   0.18  0.000942856    1.356    0.263
         2 -11.8977     76.6924     25.3545   9.1366546821e+01   6.0993541335e+01     0.359413    0.2739489 -10.82 0.0004288545    1.238    0.192
         3  -9.5836     88.5737      7.2009   7.9744006102e+01   6.0758322402e+01    0.2245246    0.1249648 -12.87 0.0006658694    1.914    0.478
         4 -11.2478     90.2698     16.0349   8.3125907669e+01   5.9494053376e+01    0.3296481     0.216472 -11.02 0.0004312552    1.580    0.367
         5 -10.2610     87.2445     11.7622   8.2130464864e+01   6.0574361783e+01    0.2785204    0.2189103 -10.97 0.0008808419    1.245    0.197
         6 -10.5224     13.1683     20.8412   1.1625089388e+02   7.0163745872e+01     0.367962    0.2840062 -15.63  0.001816942    1.146    0.127
         7 -10.7008     12.6072     15.9777   1.1447712564e+02   7.1021145118e+01     0.330095    0.1912289  21.04  0.001347964    1.882    0.469
         8 -11.1501     41.9520     18.5313   1.0159862141e+02   6.7459612898e+01    0.4841445     0.284439  14.10  0.002658334    1.926    0.481
         9 -10.4614    100.3640     19.0561   8.1626418649e+01   5.7027896238e+01     0.343364    0.2513841 -58.46  0.001800086    1.928    0.481
        10  -9.9492     46.2318      4.7335   9.2941752453e+01   6.8656698533e+01    0.3341724    0.1325057  38.56  0.001197955    2.427    0.588
        11 -10.4678     38.9464      2.1419   9.4695010273e+01   7.0020637517e+01    0.2701334    0.1701896  -8.54  0.001472443    1.457    0.314
        12 -11.6203     30.1574      7.2658   1.0146160414e+02   7.0532966021e+01    0.3255214    0.2586955  -3.90  0.001323535    1.070    0.065
        13 -11.7055     34.8041     13.1333   1.0222176763e+02   6.9152953883e+01    0.4270225    0.2592224 -35.42  0.001691168    1.511    0.338
        14 -11.7013     39.7013     10.0407   9.8471189286e+01   6.8936821490e+01    0.4222916    0.2252722 -23.91 0.0009509647    1.720    0.418
        15 -10.5106    156.2125     13.9940   6.8420100699e+01   4.4254119916e+01    0.3065485    0.1951155  45.14  0.001344973    1.564    0.361
        16 -10.3192     69.0739     11.7528   8.7814084882e+01   6.4069123205e+01    0.2648062     0.152996 -29.40 0.0007660924    1.709    0.415
        17 -10.1597    212.1467     11.9200   6.1026669142e+01   3.0500622389e+01    0.2109284    0.1588859 -64.93 0.0005578679    1.235    0.190
        18  -9.7192    119.0069     11.9904   7.4404631840e+01   5.3558014605e+01    0.1633197    0.1447629  42.98 0.0003537795    1.018    0.017
        19 -10.7007     93.0746      9.1536   7.9384946611e+01   5.9628214635e+01    0.2235849    0.1674312  31.82 0.0004273149    1.197    0.165
        20 -11.8681     56.0132      6.3844   8.9903125738e+01   6.6925943024e+01     0.535917    0.4782197   5.42  0.001842192    1.199    0.166
        21 -10.0429     60.9998      3.0195   8.6378482683e+01   6.6439295039e+01    0.1706203    0.1405668  15.13 0.0003802503    1.040    0.038
        22 -11.1103     22.1735      9.3654   1.0646574579e+02   7.1145564934e+01     0.299212    0.1855689  -5.74  0.001043347    1.601    0.375
        23  -9.8855     10.0813      1.4764   1.0887003624e+02   7.3460929882e+01    0.1490674    0.1209156   7.84 0.0006812482    1.333    0.250
        24 -11.6022     10.1292      6.6323   1.1146736630e+02   7.2700217071e+01    0.4991542    0.3552946  40.63   0.00180884    2.198    0.545
        25 -11.7491      4.0715      8.7802   1.1584033527e+02   7.2844885307e+01    0.3292437    0.2897708 -63.18  0.001401227    1.756    0.431
        26 -10.5629      1.9622      3.0277   1.1430836252e+02   7.3895855175e+01    0.1761885    0.1074313 -21.88  0.001208521    1.329    0.247
        27 -11.8281    150.7980      7.8725   6.7247021653e+01   4.6197468116e+01    0.4094528    0.3330683  41.84   0.00237457    1.222    0.182
        28 -11.2336     65.5159      6.5108   8.6525770222e+01   6.5281704821e+01    0.5820804     0.249355  27.39  0.002423809    3.004    0.667
        29 -10.4257    210.2812      7.6541   6.0120914150e+01   3.1392634181e+01    0.2400743    0.1377491 -42.30  0.001234423    1.645    0.392
        30 -10.8010    145.0012      5.7985   6.7444959080e+01   4.7827040493e+01    0.2228417    0.1937058   9.84 0.0002376323    1.266    0.210
        31  -9.6618     92.6005      4.2943   7.7397741352e+01   6.0182555458e+01      0.24038    0.1124136 -26.54  0.001138859    2.185    0.542
        32 -11.0773    194.3338      3.4963   6.0571524774e+01   3.5693325159e+01     0.282346    0.1666634 -55.62 0.0009646299    1.714    0.416
        33 -11.1593    130.2913      3.7297   6.9151166987e+01   5.1611308266e+01    0.2930277    0.1558033  55.69  0.001419088    1.612    0.379
        34 -10.0669    120.4642      4.2149   7.1140654058e+01   5.3919598733e+01     0.291048    0.1590485  55.72  0.001054565    1.578    0.366
        35 -10.3478    176.3507      2.2207   6.2135201293e+01   4.0286852048e+01    0.2415175    0.1667137  12.54   0.00125469    1.933    0.483
        36 -11.0240     70.5868      6.5871   8.4856772387e+01   6.4351876076e+01    0.3530464    0.3282907 -87.90  0.001659876    1.579    0.367
        37 -11.6733     80.3052      1.8181   7.9619481594e+01   6.2936504421e+01    0.3900786     0.166891  49.57  0.001235617    2.026    0.506
        38  -9.4126     16.5606      3.4366   1.0635410882e+02   7.2567027942e+01    0.2002193    0.1689225 -49.94  0.001446401    1.844    0.458
        39 -10.3382     20.0557      1.9705   1.0372603504e+02   7.2402600412e+01    0.2114507    0.1460325  -9.58  0.001402484    1.181    0.153
        40 -10.0458    244.4065      1.7419   5.6009057666e+01   2.4124240577e+01    0.1574372    0.1159796 -19.67 0.0009529822    1.662    0.398
        41  -9.2347    204.2872      1.3076   5.9050739169e+01   3.3464474095e+01    0.1244034   0.09367575  43.07 0.0001908189    1.571    0.364
        42 -10.3725      3.3622    118.8495   1.4162016134e+02   5.0078090611e+01    0.1829126    0.1457044  62.88  0.000633351    1.351    0.260
        43 -12.2864      5.3663    240.6556   1.4948421111e+02   2.4641782342e+01    0.4133047    0.1902822  55.04  0.002518144    1.585    0.369
        44 -13.0306      9.2100    245.2462   1.4907707634e+02   2.3468386737e+01     0.497054    0.4021651  27.82  0.004059915    1.948    0.487
        45 -10.2886      1.5121    246.4801   1.5031605099e+02   2.4003429783e+01    0.1517401   0.07563026 -86.23 3.380495e-05    1.693    0.409
        46  -9.0251    132.2456    114.3366   1.0467398783e+02   3.3369871405e+01     0.150787    0.1198587 -15.11 0.0003473352    1.556    0.357
        47 -10.0333      2.3298    114.2879   1.4139403410e+02   5.1181236357e+01     0.122376   0.09424624 -81.60 0.0002526945    1.059    0.056
        48 -10.0959    249.1453    111.8350   8.0963515084e+01   8.1417731790e+00    0.1909316    0.1555792  -4.35  0.001075854    1.327    0.246
        49  -9.3811     65.6798    110.3510   1.2227477551e+02   4.6015256445e+01    0.1427479    0.1031806  81.56 0.0007047994    1.744    0.427
        50 -11.7801      5.0211    108.7532   1.3998413892e+02   5.2277753750e+01    0.3152487    0.2249778  16.09  0.001965941    1.852    0.460
        51 -10.6387     58.3634    107.4636   1.2386095887e+02   4.7648697240e+01    0.2822769    0.1935474 -26.30  0.001060571    1.897    0.473
        52  -9.7387    113.4909    102.5148   1.0650688389e+02   3.9786611677e+01    0.1501854    0.1446782 -44.39 0.0001006226    1.006    0.006
        53  -9.8920     66.6222    101.7845   1.2007907149e+02   4.7881510863e+01    0.1987165    0.1228912 -65.49 0.0009441826    1.637    0.389
        54 -10.8231     57.7167    101.3201   1.2273433071e+02   4.9162267738e+01    0.2383737    0.2045129 -88.68  0.001139128    1.257    0.205
        55  -9.0049    129.6722     97.6635   1.0085246987e+02   3.7464602669e+01    0.1590749    0.1227514   0.12 0.0007051843    1.726    0.421
        56 -10.6075     38.5490     97.0417   1.2788454098e+02   5.2310897327e+01    0.2398762    0.1688198 -85.90 0.0003500064    1.594    0.373
        57  -9.3614     38.4841     92.4544   1.2696067852e+02   5.3372749331e+01    0.2002291   0.09877209 -52.87 -6.483006e-05    1.668    0.401
        58 -11.9041     17.8431     94.6032   1.3404938203e+02   5.4654878549e+01    0.5691926    0.2630971 -39.48  0.002398517    2.408    0.585
        59 -11.5943     11.2286     88.1560   1.3509640863e+02   5.6572847909e+01    0.5535006    0.2076934 -67.16   0.00223615    2.085    0.520
        60 -10.3143     17.6612     88.2752   1.3300053883e+02   5.6107947447e+01    0.4073299    0.2086339 -26.17  0.001712843    2.747    0.636
        61 -10.7003     78.9258     94.9685   1.1459485762e+02   4.7625989735e+01    0.2130688    0.1926163 -42.46 0.0003346104    1.041    0.040
        62 -10.1281      2.9949     95.1798   1.3879636660e+02   5.5481312370e+01    0.1760796    0.1357956  86.35 0.0005777954    1.295    0.228
        63 -10.3823     84.0081     94.1524   1.1281617200e+02   4.6994230584e+01    0.2708497    0.1766373  37.97  0.001305695    1.658    0.397
        64 -11.1513     27.4450     90.8642   1.3026133949e+02   5.4752839625e+01    0.4961934    0.2941253  55.24  0.002542104    2.240    0.554
        65 -10.1266     25.6381     85.2386   1.2974535356e+02   5.6180358670e+01    0.2515293    0.1789098 -72.46  0.000973808    1.314    0.239
        66 -10.3142     57.9390     91.7469   1.2044293744e+02   5.1332661981e+01    0.2714778    0.1893122 -22.25  0.001248967    1.794    0.442
        67 -10.5356     76.4048     89.1412   1.1383612535e+02   4.9317757821e+01     0.241015    0.2276186  -4.31 0.0004772558    1.128    0.113
        68 -10.8200     98.8252     89.1759   1.0697145019e+02   4.5491201580e+01     0.208272    0.1750682 -11.35 0.0008016556    1.346    0.257
        69  -9.8180     44.1878     89.5439   1.2444298113e+02   5.3446709949e+01    0.2244345    0.1230746  35.80  0.001125394    2.080    0.519
        70 -10.8346     54.5450     84.9610   1.1987844152e+02   5.3285417197e+01    0.4346174    0.1957674 -50.29  0.001466585    1.885    0.470
        71  -9.8556    124.0101     86.9409   9.9237919517e+01   4.0887827529e+01    0.2301778    0.2240808 -28.07  0.000558579    1.002    0.002
        72 -10.5008      1.7911     89.6758   1.3838471418e+02   5.6786487506e+01    0.2123366    0.1235222 -68.14 0.0002094601    1.306    0.234
        73 -10.6741      4.0205     82.6446   1.3656550656e+02   5.8237064106e+01     0.242081    0.1320617 -60.82 0.0008379288    1.370    0.270
        74 -10.0427     60.8493     75.8723   1.1527786029e+02   5.4462681015e+01    0.2351435    0.1660113  57.20            0    1.921    0.480
        75 -11.6986     64.1893     80.9850   1.1558248262e+02   5.2900694475e+01    0.4522737    0.4027371 -89.51  0.002691707    1.342    0.255
        76  -9.9290     65.8450     75.1648   1.1336160418e+02   5.3919780102e+01    0.2407782    0.1883019 -17.24            0    1.402    0.287
        77  -9.6946    250.3861     80.7946   7.3594669826e+01   1.2654950696e+01    0.1907007    0.1206946 -24.93 0.0006968401    1.617    0.382
        78 -10.1342     89.2814     80.3657   1.0727321463e+02   4.9082061258e+01    0.2891535    0.1873877 -55.30 0.0008059159    1.629    0.386
        79  -9.3520    124.3984     79.2131   9.6791567967e+01   4.2333397255e+01    0.2073977    0.1388847 -50.82 0.0004958899    1.589    0.370
        80  -9.5981     24.0268     79.0350   1.2900441943e+02   5.7701145070e+01     0.208377    0.1199901 -37.95  0.001132207    1.725    0.420
        81  -9.5418     19.3404     79.6843   1.3078035797e+02   5.7916246390e+01    0.1188862   0.08771767  76.16  0.000498155    1.705    0.414
        82 -10.0700    176.8195     77.1372   8.4200703961e+01   3.0296980594e+01    0.2844576    0.2296552  41.05  0.001405629    1.304    0.233
        83 -11.1116     55.5861     75.6192   1.1702986956e+02   5.5205978143e+01    0.3014211     0.253322  -2.88 0.0005033201    1.319    0.242
        84 -10.4582     15.3030     75.8832   1.3142766725e+02   5.9045417119e+01    0.1769484    0.1649916  51.41 0.0009034334    1.332    0.249
        85  -9.5849     74.9688     75.5388   1.1040906730e+02   5.2474439191e+01    0.1838522    0.1384657  33.16 3.745995e-06    1.441    0.306
        86 -11.9571     33.5575     72.9843   1.2419022120e+02   5.8207489807e+01    0.4590395    0.3151522  17.49            0    1.741    0.426
        87  -9.5250    224.0289     74.2626   7.5542191190e+01   1.9421208101e+01    0.1861361    0.1753873 -76.65 0.0002806511    1.078    0.072
        88 -10.0103    136.6633     74.0082   9.2042641658e+01   4.0546240266e+01    0.2442155    0.2060529  32.07 0.0004708024    1.238    0.192
        89  -9.5219     26.0190     74.5467   1.2729632852e+02   5.8531589178e+01    0.1546199    0.1228205  23.07 0.0003876018    1.510    0.338
        90 -11.2088      3.8858     73.6942   1.3506162569e+02   6.0220915468e+01    0.3316551    0.2080998  13.86  0.001139649    2.026    0.506
        91  -9.4499     95.7203     73.3512   1.0311240276e+02   4.9344770815e+01    0.1463899     0.136725 -34.15 0.0007192104    1.041    0.039
        92  -9.1721     92.5056     72.4684   1.0382034312e+02   5.0117141054e+01    0.2096839    0.1376429  30.97 0.0008865096    1.690    0.408
        93 -10.0702     81.1813     72.5443   1.0744644051e+02   5.2087917210e+01    0.2808107    0.1841667 -63.32  0.001019283    1.978    0.494
        94  -9.0078    216.7197     72.3129   7.6105274055e+01   2.1420024452e+01    0.1482744     0.104162 -61.78 0.0003608664    1.569    0.363
        95 -10.1572    105.8663     71.4904   9.9487511597e+01   4.7733828863e+01    0.2453906    0.1997023 -35.57  0.000497114    1.183    0.154
        96  -9.0338     90.6665     69.3065   1.0337351633e+02   5.1079078379e+01    0.1392532    0.1154796 -86.20 0.0003841397    1.667    0.400
        97 -10.4342     46.1717     69.1708   1.1857055427e+02   5.7718737867e+01     0.275958    0.2152231  32.52  0.001189651    1.479    0.324
        98 -10.4796     10.0001     68.9484   1.3191840349e+02   6.0905356016e+01    0.2761029    0.1419844 -47.39  0.001559821    1.571    0.363
        99  -9.4850    114.2711     66.4358   9.5441617576e+01   4.6937064043e+01    0.1901127    0.1443477  59.59 0.0003272498    1.498    0.332
       100 -11.8015     34.2488     65.1863   1.2189140401e+02   5.9816492489e+01    0.2641644    0.2013862 -37.31 0.0004024655    1.155    0.134
       101 -11.5349     39.6357     61.9483   1.1892139790e+02   5.9950381873e+01    0.6647513    0.2418214 -39.35  0.002487804    2.804    0.643
       102 -10.5345      2.8330     53.5812   1.3129898445e+02   6.4570457268e+01    0.4309192    0.1424519 -36.30  0.001914151    3.100    0.677
       103 -11.1673     11.0006     48.6358   1.2664700110e+02   6.5108793505e+01    0.6073707    0.3054077  18.40  0.003445432    2.371    0.578
       104 -10.9083     16.8367     64.2147   1.2828579519e+02   6.1474733053e+01    0.3148182    0.2611836 -11.79  0.002190737    1.349    0.259
       105 -11.3442     16.4535     44.8947   1.2322871723e+02   6.5478416213e+01    0.3698788    0.3452062 -74.98   0.00274637    1.370    0.270
       106 -10.7511     20.2692     51.3742   1.2353562380e+02   6.3893861958e+01     0.349128    0.1690551 -40.72 0.0009023043    1.737    0.424
       107  -9.2803     23.9829     62.0105   1.2497616015e+02   6.1399606483e+01    0.2572876    0.1650228 -41.61 0.0004331538    1.317    0.241
       108 -12.5512     20.6780     57.2516   1.2501227438e+02   6.2657463678e+01    0.3486937    0.3239516 -64.70  0.001246238    1.243    0.196
       109 -10.7521    131.1408     64.4608   9.0354998152e+01   4.3530849953e+01    0.4411854    0.2927667  61.96   0.00198151    1.706    0.414
       110  -9.4883     73.0000     64.0194   1.0743252870e+02   5.5128477619e+01    0.2306663   0.07243748 -45.95 0.0004534273    2.927    0.658
       111 -10.7673      2.4894     60.1063   1.3289537616e+02   6.3221159133e+01    0.3440426    0.2077141  75.80    0.0018629    2.618    0.618
       112 -11.3178      8.5777     61.2223   1.3077568603e+02   6.2648303702e+01    0.5324917    0.1749755 -52.62  0.002552059    2.110    0.526
       113 -10.6091      7.6595     56.0178   1.2992420433e+02   6.3797182162e+01    0.2070636    0.1824199 -40.56  0.000878896    1.156    0.135
       114 -10.6501     62.8417     62.3354   1.1043569683e+02   5.6990370203e+01    0.2715477    0.1721056 -38.18 0.0009806441    1.427    0.299
       115 -11.1790     54.1387     57.5717   1.1205362398e+02   5.9124000170e+01    0.4213499    0.3561862 -60.84  0.001830878    1.369    0.269
       116 -11.6399     83.4687     56.9599   1.0149647042e+02   5.4716998014e+01    0.3312748    0.2475425 -31.63 0.0002898982    1.256    0.204
       117 -11.6196     87.4875     54.0000   9.9132742338e+01   5.4523581953e+01    0.4212638     0.298331  44.06  0.001234389    1.495    0.331
       118  -9.4446     71.4467     57.7203   1.0583815964e+02   5.6592975398e+01    0.1802285    0.1184996 -32.13 0.0003325358    1.446    0.308
       119 -10.3990     60.4826     57.6704   1.0973965868e+02   5.8243487530e+01     0.240675    0.2265931 -86.88 0.0008367167    1.374    0.272
       120  -9.5517    158.0614     56.2407   8.1651796961e+01   3.8383925227e+01    0.2430874    0.1700576 -80.47 0.0007814945    1.969    0.492
       121 -10.3096     52.8124     61.3847   1.1378418577e+02   5.8533694081e+01    0.3853924    0.2690825  78.08  0.001790405    2.905    0.656
       122 -10.9085    115.0460     53.8798   9.0942123650e+01   4.8956075978e+01    0.3474402    0.2806707  39.08  0.001831828    1.224    0.183
       123 -10.1336    163.5650     54.2702   7.9954504784e+01   3.7310194167e+01    0.4118336    0.1017133  53.55  0.001212772    3.584    0.721
       124 -12.0235     66.4926     52.4389   1.0573302589e+02   5.8353085567e+01    0.6341476    0.2441153  35.34   0.00255415    2.866    0.651
       125  -9.8871     34.6309     53.1694   1.1820756186e+02   6.2251444576e+01    0.2503605    0.1443457 -31.67 0.0008144494    1.691    0.408
       126  -9.0970    176.2973     52.2827   7.7024181845e+01   3.4399853196e+01    0.1461239    0.1124768  28.13 0.0001638285    1.543    0.352
       127 -10.0980    106.2874     53.1802   9.3127540908e+01   5.0952948587e+01     0.305144    0.2185601 -63.89  0.001421146    1.996    0.499
       128  -9.7281    118.7176     59.1420   9.1777708201e+01   4.7261508925e+01    0.2292809    0.1773222 -51.01 0.0004939381    1.428    0.299
       129  -9.2589    147.6366     49.8063   8.1741176178e+01   4.1948806919e+01     0.205125    0.1313848 -42.55 0.0009246385    1.616    0.381
       130 -10.9055     77.7109     46.5491   9.9616661487e+01   5.7567587136e+01    0.4391257    0.2959649  -5.72  0.002117651    1.827    0.453
       131  -9.7618     38.1477     48.9968   1.1542528392e+02   6.2705403961e+01     0.197969    0.1368499 -27.34  0.001167739    1.344    0.256
       132  -9.0830    211.9765     48.7934   7.0623438927e+01   2.6024028566e+01    0.1755957    0.1104578  66.03 0.0008334031    1.608    0.378
       133  -9.9915     53.9613     48.0506   1.0882146397e+02   6.0966692039e+01    0.1987406    0.1608279 -24.66  0.000296673    1.077    0.071
       134 -10.0574    104.7405     47.0082   9.1332003447e+01   5.2284731071e+01    0.1960859    0.1817698  -4.23 0.0003449919    1.023    0.022
       135  -9.9885     68.6317     46.8254   1.0289985317e+02   5.9030627416e+01    0.2110556    0.1704417  23.32 0.0002369585    1.264    0.209
       136  -9.3328     64.6948     46.2847   1.0412635128e+02   5.9740779343e+01    0.1951157     0.131511  38.23 0.0004620497    1.609    0.378
       137  -9.3020     47.3289     47.3014   1.1114583105e+02   6.1963786064e+01    0.1323672   0.08728191 -17.71 0.0003892618    1.645    0.392
       138  -9.8866     30.5412     46.9757   1.1788825550e+02   6.3873084500e+01    0.2680009    0.1770055 -31.49 0.0006487308    1.345    0.257
       139  -9.6225     91.0810     44.6580   9.4530196501e+01   5.5423113661e+01    0.1902174    0.1667235  19.68 0.0004382462    1.099    0.090
       140 -11.0962     20.5536     31.4433   1.1683428294e+02   6.7691875152e+01    0.5914956     0.284006   3.14     0.002798    3.133    0.681
       141 -11.0646     25.3290     42.8060   1.1871804221e+02   6.5160518138e+01    0.2863477    0.2219021 -60.90   0.00120178    1.449    0.310
       142 -10.5721     22.7656     38.6058   1.1840986544e+02   6.6182853998e+01    0.2358948    0.1947486  42.10 0.0009648011    1.657    0.397
       143 -11.1702     26.4112     35.4647   1.1565846103e+02   6.6433194942e+01    0.3730807    0.2029826 -32.93  0.001518974    1.620    0.383
       144 -11.0802    139.5918     40.3959   8.0303437727e+01   4.5275337316e+01    0.3549924    0.2267834 -39.91  0.001285529    1.626    0.385
       145 -10.4238     70.3981     41.4185   1.0018897967e+02   5.9668012155e+01     0.330806    0.2123348 -27.22  0.001735062    1.490    0.329
       146 -10.3106      2.9994     41.7247   1.2820701946e+02   6.6966249154e+01    0.3803384    0.1531903 -25.38  0.001793602    3.080    0.675
       147 -10.3302    182.3845     40.7341   7.2612982678e+01   3.4478735620e+01    0.3064829     0.228174  63.75  0.000661531    1.301    0.231
       148  -9.3510    115.6161     41.6935   8.6416689620e+01   5.0727700067e+01    0.1553749     0.103413  22.53 0.0007020934    1.796    0.443
       149 -10.0247     36.1126     41.1872   1.1353571762e+02   6.4401317058e+01    0.1937574    0.1431551 -21.72 0.0007985038    1.229    0.187
       150  -9.3040     51.2618     39.9993   1.0685971590e+02   6.2777002692e+01     0.162448      0.09782 -39.82  0.000810902    1.475    0.322
       151 -10.2040     12.8440     38.2494   1.2274686061e+02   6.7031144596e+01    0.3777771   0.09623799 -54.38  0.001579036    2.922    0.658
       152  -9.1376    134.4806     39.5852   8.1136306755e+01   4.6626713564e+01    0.2421034    0.1388101  59.22 0.0005334393    1.732    0.423
       153 -10.0967    130.9775     37.2913   8.1113824179e+01   4.7780375715e+01     0.250405    0.2419673   0.89 0.0006391435    1.050    0.047
       154 -11.1376    134.2617     33.9665   7.9218425119e+01   4.7430054137e+01    0.2353507    0.1868264  45.15 0.0003118248    1.197    0.165
       155 -11.9018    121.4767     36.7408   8.3134368404e+01   5.0091222207e+01    0.5290223    0.4520273 -85.99  0.002887266    1.451    0.311
       156 -11.8086    145.0820     33.0632   7.6685254877e+01   4.4892720596e+01    0.2812945    0.2472737 -44.68            0    1.204    0.169
       157 -10.4420    140.7620     27.3526   7.5578369575e+01   4.6660911099e+01    0.4671854    0.3132192  55.88  0.002338073    1.382    0.277
       158 -10.1972     69.9781     35.5353   9.7981814096e+01   6.0687168127e+01    0.3489704    0.1905085 -16.38  0.001533529    2.403    0.584
       159 -10.9562      2.0722     35.5810   1.2685797129e+02   6.8216755979e+01    0.3175593     0.170959 -51.15  0.001524341    1.376    0.273
       160 -11.1184     50.8608     33.8851   1.0458080351e+02   6.3870830890e+01    0.3818162    0.2230925  38.15   0.00158265    1.897    0.473
       161 -10.1415    127.2978     31.2245   7.9769075071e+01   4.9450562202e+01    0.3928343    0.2433918  36.20  0.001839939    1.692    0.409
       162 -11.5286     43.9022     29.2877   1.0554283762e+02   6.5549060356e+01    0.4656584    0.3222008 -17.63  0.001903721    1.336    0.251
       163  -9.6656    205.3517     30.6863   6.6653589509e+01   3.0014725916e+01    0.1507708   0.09484196 -65.57 0.0007046034    1.729    0.422
       164  -9.8302    103.6450     29.7471   8.5050355465e+01   5.5017463187e+01    0.3521782    0.1738409  31.04   0.00141127    2.539    0.606
       165  -9.4198    187.5381     29.4803   6.8603686738e+01   3.4605624018e+01    0.2648623    0.1062973  54.97  0.001033141    2.349    0.574
       166 -10.4392    150.3475     29.4633   7.4481595299e+01   4.4024839684e+01    0.3671144    0.1405979  65.46  0.001319591    2.689    0.628
       167 -10.6214     69.3695     28.1197   9.5089032191e+01   6.1905163906e+01    0.3022218     0.229934 -54.29  0.001197919    1.858    0.462
       168  -9.9569      7.5925     28.0379   1.2176697829e+02   6.9300911441e+01    0.1811534    0.1476607  28.23 0.0007292795    1.600    0.375
       169 -10.0765    195.3107    249.6924   1.1702588786e+02  -2.9371343107e+00    0.1066472   0.08391586  55.74 0.0003793542    1.619    0.382
       170 -11.0501     33.7084    247.2677   1.4526411965e+02   2.0533367090e+01     0.213671    0.1386285  32.34  0.001282093    1.982    0.495
       171 -10.5636     74.6993     21.6803   9.0431717691e+01   6.1843171850e+01    0.2488124    0.1783775  -9.08 0.0007462233    1.357    0.263
       172  -9.9880    218.8379     25.8487   6.3879696981e+01   2.7328371775e+01    0.1963777     0.138962 -61.65 0.0005509045    1.352    0.260
       173 -10.1770    171.5881     25.4657   6.9693117631e+01   3.9123190944e+01    0.3247568    0.1469137 -18.44   0.00122722    2.812    0.644
       174 -10.2107    154.5269     25.9002   7.2565813513e+01   4.3396225907e+01    0.4305736    0.1948456  75.96  0.001502296    2.883    0.653
       175 -10.1419     58.7633     24.4077   9.7394822131e+01   6.4176390904e+01    0.2867974    0.1955362   3.65  0.001620677    1.547    0.354
       176 -10.0796    192.9882     23.9926   6.6342735790e+01   3.3883090214e+01    0.2050813    0.1873154 -80.43  0.001220955    1.017    0.017
       177 -10.4831     51.0049     22.8146   9.9752998216e+01   6.5577592365e+01     0.276342    0.2340672  10.67    0.0010484    1.143    0.125
       178 -10.0812     89.3656     22.0936   8.5974101432e+01   5.8969609657e+01    0.3749268    0.1500634 -27.89  0.001562689    2.508    0.601
       179  -9.6370    217.4091    245.0000   1.1249669970e+02  -5.6742242782e+00     0.257578   0.05389013  40.16  0.000936858    3.952    0.747
       180  -9.1812     74.3052    243.7358   1.3811788251e+02   1.6153633434e+01    0.1153254   0.06556421  62.52 0.0001998792    1.526    0.345
       181 -10.6380     37.9864    242.2251   1.4426299470e+02   2.0927216660e+01     0.332895    0.1034895  63.22  0.001445105    3.623    0.724
       182 -10.7534     19.8534     16.8288   1.1116692514e+02   7.0240218011e+01    0.2076247    0.1463156  10.41 0.0004469727    1.431    0.301
       183  -9.6020    202.5159    240.1121   1.1436185433e+02  -2.8297791701e+00    0.1523114    0.1138327 -28.05 0.0008067662    1.526    0.345
       184  -9.1801     60.5001    241.0000   1.4032651833e+02   1.8427562603e+01    0.2364953   0.05254909  38.28 0.0009321398    3.914    0.744
       185 -10.4408    124.8982     21.0996   7.6584349987e+01   5.1221744532e+01    0.2533327    0.1928606 -32.63 0.0008334348    1.395    0.283
       186  -9.9235      1.5489     21.5698   1.2245807334e+02   7.0847127036e+01    0.1916196   0.09768074 -64.32  0.001029996    2.440    0.590
       187  -9.5721     84.8310     21.3506   8.7026385849e+01   5.9964243718e+01    0.1878542    0.1068689  39.06 0.0004673454    1.664    0.399
       188 -10.2725      1.5117    249.9858   1.5044952441e+02   2.3408051885e+01    0.1983746    0.1191484  85.21  0.001234921    1.315    0.239
       189 -10.2923     31.0064     20.1165   1.0726473747e+02   6.8563596398e+01    0.2390621    0.1411492 -39.89  0.000709189    1.516    0.341
       190 -10.5391     26.4729     16.4907   1.0775834936e+02   6.9623774765e+01    0.2221436    0.1976113 -13.60  0.001154177    1.274    0.215
       191 -10.1431    175.0870     20.3293   6.7639033412e+01   3.8812718070e+01    0.2025353    0.1685335  72.68 0.0009698127    1.120    0.107
       192  -9.3688    131.5229     20.5156   7.4996091917e+01   4.9697125047e+01    0.1401274    0.1257666  39.79 0.0008096568    1.043    0.041
       193 -12.1893     26.2585    235.8343   1.4585555176e+02   2.3368112032e+01    0.3221602    0.2147491 -84.58  0.001709423    1.370    0.270
       194  -9.5048    148.7920     18.8420   7.1214391850e+01   4.5619285017e+01    0.1867327    0.1565316 -74.92 0.0002873986    1.313    0.238
       195 -10.3006    199.8998     17.0760   6.3636214678e+01   3.2937649821e+01    0.2070682    0.1819608 -74.25 0.0004942382    1.048    0.046
       196  -9.3457    108.3689     16.6917   7.8646536594e+01   5.5523797712e+01    0.1655277    0.1235552  -5.60 0.0003192037    1.404    0.288
       197 -13.1915      9.7025    229.5089   1.4828397065e+02   2.6214648308e+01    0.5765054     0.328458  88.39  0.002905916    1.416    0.294
       198 -11.9604      4.1806    232.5986   1.4932779762e+02   2.6185215108e+01    0.2998689     0.147144  66.29 0.0004287028    1.526    0.345
       199  -9.7646    249.1749    234.1357   1.0542587608e+02  -8.9794450301e+00    0.1724588    0.1204237  11.31 0.0005206839    1.161    0.139
       200  -9.6305    140.0864    227.0691   1.2408861930e+02   9.1531715054e+00    0.2001006    0.1342997  64.47 0.0007649065    1.721    0.419
       201  -9.9907     32.6675    225.2274   1.4411763846e+02   2.4619132090e+01    0.2484454    0.1184883  46.42  0.001510206    1.739    0.425
       202  -9.8470     76.0545     14.6868   8.6849937786e+01   6.2447473980e+01    0.1804861    0.1397617  28.43 0.0004766432    1.163    0.140
       203 -10.4386    190.5213     13.9981   6.3855354297e+01   3.5598215133e+01    0.1943219    0.1322183 -29.13 0.0006439749    1.553    0.356
       204 -10.0051     25.5127    225.0328   1.4535983313e+02   2.5432510984e+01    0.1558856   0.08790623 -82.97 0.0006398035    1.561    0.359
       205 -10.2071    144.1499     14.2549   7.0456124987e+01   4.7247988362e+01    0.2050371    0.1710682  44.11 0.0006130329    1.147    0.128
       206 -11.5025      7.7361    217.6406   1.4803100705e+02   2.8614072267e+01    0.2877747    0.1888594  76.58  0.001521893    1.111    0.100
       207 -10.6417      4.3565    212.6562   1.4836476915e+02   2.9880672337e+01    0.2577734    0.1390104  55.19  0.001589334    1.493    0.330
       208  -9.4048    246.4748    216.5300   1.0288660626e+02  -6.5435821830e+00    0.1213835   0.09370001   8.28 0.0001897169    1.036    0.035
       209  -9.4966    209.4055    211.7884   1.0854983548e+02  -1.0193336255e-01    0.1670926    0.1129512 -19.83 0.0009445418    1.607    0.378
       210  -9.8171    246.9578    207.0260   1.0111347873e+02  -5.4318234540e+00     0.188879    0.1498252  -0.64 0.0007273217    1.057    0.054
       211 -10.8005     16.0281    211.7030   1.4624872741e+02   2.8955421424e+01    0.1558798    0.1141371  65.68 0.0007666965    1.116    0.104
       212 -10.9530      9.3481    203.5357   1.4698541460e+02   3.1203331984e+01    0.2036418     0.168926  72.18 0.0009068645    1.216    0.178
       213  -9.0127    181.5028    199.4886   1.1170188134e+02   6.6190685130e+00    0.1329615     0.119085  32.46 0.0008101308    1.047    0.045
       214  -9.5474     23.0268    197.4979   1.4403054515e+02   3.1096127307e+01    0.1586182    0.1006083  42.28 0.0005774597    1.595    0.373
       215  -9.8830      6.5792    191.6757   1.4680532680e+02   3.3847940657e+01    0.1517551   0.08067434  86.10 0.0009305573    1.523    0.343
       216  -9.7982     15.3289    185.3811   1.4468618749e+02   3.4361481752e+01    0.1933568   0.08622381 -80.29  0.001050394    1.878    0.468
       217  -9.3312      1.2013    183.0858   1.4732556577e+02   3.6080210046e+01     0.144566   0.06809969 -79.41 0.0005552853    1.686    0.407
       218 -10.7408      4.8132    167.4899   1.4557275241e+02   3.9095506004e+01    0.2830324    0.1463109  58.08  0.001312989    1.788    0.441
       219  -9.0943    111.7346    162.6881   1.2026162179e+02   2.6580426772e+01    0.1330039    0.1117852 -22.26 0.0002092455    1.541    0.351
       220  -8.7914     41.6861    158.3136   1.3643833635e+02   3.7655602163e+01    0.1318931   0.08174492  71.89 0.0007033219    1.638    0.390
       221  -9.1319    247.4620    155.5316   9.0895443700e+01   1.6874507608e+00    0.1335888     0.114636 -10.19 9.113822e-05    1.005    0.005
       222  -9.4956      1.6837    153.3251   1.4520130272e+02   4.2432199087e+01     0.121081   0.06711825  70.38 0.0007043926    1.670    0.401
       223  -9.6522     14.7080    150.9636   1.4202213623e+02   4.1938198651e+01    0.1748966    0.1251023 -82.71 0.0007605714    1.103    0.093
       224 -10.2612     22.0238    143.1945   1.3948137575e+02   4.3078969934e+01    0.2256249    0.1475693 -77.33 0.0009968623    1.240    0.194
       225  -9.7951      2.2066    138.4000   1.4384313141e+02   4.5722291055e+01    0.1421178   0.09669097  50.67 0.0006054331    1.560    0.359
       226 -10.8442     12.1451    130.2471   1.4055578139e+02   4.6861592946e+01    0.4300842    0.1947324  60.25  0.001915587    2.644    0.622
       227  -9.3935     28.6996    128.3232   1.3595750399e+02   4.5930528199e+01    0.1281256   0.08355434  75.61 0.0002888172    1.630    0.387
       228  -9.6662     21.2204    126.1959   1.3768883434e+02   4.7079785034e+01    0.1754218    0.1322224 -75.98 0.0004071541    1.067    0.063
       229 -11.4765     24.1256    122.3814   1.3639844145e+02   4.7723367092e+01    0.2472094    0.1872945 -80.56 0.0002855505    1.115    0.103
       230 -10.9741     22.0000    117.9797   1.3638547863e+02   4.8927453834e+01    0.2893264     0.174512 -80.76  0.001043651    1.487    0.327
