#   1 NUMBER                 Running object number                                     
#   2 MAG_AUTO               Kron-like elliptical aperture magnitude                    [mag]
#   3 X_IMAGE                Object position along x                                    [pixel]
#   4 Y_IMAGE                Object position along y                                    [pixel]
#   5 X_WORLD                Barycenter position along world x axis                     [deg]
#   6 Y_WORLD                Barycenter position along world y axis                     [deg]
#   7 A_WORLD                Profile RMS along major axis (world units)                 [deg]
#   8 B_WORLD                Profile RMS along minor axis (world units)                 [deg]
#   9 THETA_WORLD            Position angle (CCW/world-x)                               [deg]
#  10 FWHM_WORLD             FWHM assuming a gaussian core                              [deg]
#  11 ELONGATION             A_IMAGE/B_IMAGE                                           
#  12 ELLIPTICITY            1 - B_IMAGE/A_IMAGE                                       
         1 -13.6355      6.0082     13.8925   1.2227114706e+02   7.2085638090e+01     2.549697     0.597829 -47.39   0.01163542    2.782    0.641
         2 -13.3161    192.9966     27.1352   6.8887074717e+01   3.3152859177e+01     1.084468    0.9365343 -84.17  0.006067944    1.118    0.106
         3 -14.0305    204.1415     12.2048   6.3394827162e+01   3.1890235294e+01     2.577903     1.468648  32.94   0.01127832    2.528    0.604
         4 -11.3186    238.5654    247.8991   1.1124132509e+02  -8.8538158924e+00    0.2452765    0.1910219  24.96  0.001808365    1.194    0.162
         5 -11.2839    141.7942    249.6063   1.2876447782e+02   6.1524545652e+00    0.3062121    0.1661318  39.75  0.001767826    1.441    0.306
         6 -13.0514    126.6731    247.4864   1.3129788474e+02   8.8577537766e+00    0.8507017    0.4578453  47.75  0.004967743    1.420    0.296
         7 -11.7090    106.4259    246.8872   1.3492997730e+02   1.2058062467e+01    0.4279555    0.1843303  58.31  0.002088201    2.434    0.589
         8 -11.4561     98.4669    248.4640   1.3651094718e+02   1.2985444383e+01    0.3407679    0.2130143  61.23   0.00144493    1.378    0.274
         9 -11.3230    101.0231    245.9655   1.3582176544e+02   1.3008991582e+01    0.3161399    0.2022936 -71.47 0.0004592914    1.872    0.466
        10 -10.5383     88.6980    249.0552   1.3830115111e+02   1.4295363428e+01    0.2147833    0.1294685  46.35 0.0006524927    1.287    0.223
        11 -12.3867     82.1479    246.7340   1.3926799024e+02   1.5590082513e+01    0.5017934    0.3904053  68.04  0.003746104    1.118    0.106
        12 -14.4867     30.7048    247.1624   1.4802957338e+02   2.1938116676e+01     10.79805     3.106572  30.20   0.02554795   16.501    0.939
        13 -15.0569      7.3087    208.3801   1.5006817131e+02   3.1242558497e+01     5.112329    0.8603324 -74.67   0.01482221    4.543    0.780
        14 -14.9866     47.9150    222.4454   1.4358107544e+02   2.4301553222e+01     2.437104     1.785606  46.52   0.01747873    1.332    0.249
        15 -10.4207     69.3391    234.4606   1.4057713921e+02   1.9415391962e+01    0.2386553    0.1772708 -89.86  0.001063239    1.323    0.244
        16  -9.4329    198.6633    246.9953   1.1807306713e+02  -2.6678454894e+00    0.1549115    0.0983422 -65.74 0.0007052088    4.409    0.773
        17 -11.6610     18.9511    229.3349   1.4908223848e+02   2.6267694396e+01    0.3526691    0.2321262  75.70  0.002693186    1.133    0.118
        18  -9.4220    229.3541    229.6727   1.0994587884e+02  -5.4802715797e+00    0.1082602   0.09197622  55.13 0.0004077718    1.772    0.436
        19 -13.5099      6.7737    244.1455   1.5168630790e+02   2.4923354432e+01      1.35749    0.8680217 -88.79   0.01100528    1.391    0.281
        20 -15.2334     17.4686    168.1891   1.4563394792e+02   3.8410930675e+01     6.477624     1.874291 -88.24   0.02205641    5.041    0.802
        21  -9.0749     94.6299    216.6295   1.3409487924e+02   1.9025963199e+01    0.2347605    0.1288258  66.55  0.001055034    2.005    0.501
        22  -8.8820    152.6951    212.9753   1.2187749843e+02   9.9972336725e+00    0.1705161    0.1527033  47.07 0.0003673273    1.091    0.083
        23 -10.9904     32.6688    207.1670   1.4535810953e+02   2.8943684486e+01    0.3359394    0.1333376  56.54  0.001414351    2.131    0.531
        24  -9.3660    172.3341    246.6550   1.2280232575e+02   1.6224692392e+00    0.1183979   0.08296137  60.84 -6.786684e-05    1.765    0.433
        25 -10.0179    192.5516    193.9187   1.1066244188e+02   5.7529662663e+00    0.4989688    0.2628377 -61.85  0.001585394    5.688    0.824
        26 -11.5062     66.6702    196.7141   1.3771493406e+02   2.6907158036e+01    0.3321603    0.2403007 -46.27  0.001373908    1.922    0.480
        27 -11.6099     71.9592    189.3009   1.3580363943e+02   2.7706713408e+01    0.2559317    0.2231499 -63.23 0.0005000642    1.348    0.258
        28 -10.7852     81.1603    176.8206   1.3224296444e+02   2.9027472069e+01    0.2353756    0.2096172 -86.75 0.0003828951    1.116    0.104
        29 -13.0672     68.3638    174.7411   1.3491347988e+02   3.1291454059e+01    0.4548592    0.2780265 -45.59  0.001427174    2.162    0.537
        30 -10.2616    126.1603    174.1938   1.2143902847e+02   2.2064101013e+01    0.3180479    0.1064248  35.90  0.001021371    3.431    0.709
        31 -11.8857     88.1858    167.6214   1.2932089508e+02   2.9961593559e+01    0.6498935    0.5028126  56.76   0.00373285    1.191    0.161
        32 -10.4474     75.9002    242.7343   1.4005505015e+02   1.7112366710e+01    0.2201941    0.1111865  54.74 0.0005346586    1.542    0.352
        33 -12.0268     88.9765    150.8948   1.2649307863e+02   3.3572612500e+01    0.2690191    0.2517209 -37.21 0.0004831749    1.265    0.209
        34 -11.3103    119.9285    238.1585   1.3153883633e+02   1.1373043791e+01    0.2609654    0.1814025 -72.10  0.001653787    1.790    0.441
        35 -13.0988     65.8472    142.1978   1.3107352868e+02   3.8945252885e+01     1.868134    0.9119666  86.13   0.00380507    4.158    0.760
        36  -8.5397    192.2255    143.9807   1.0048122389e+02   1.4348348510e+01    0.1863894    0.1236919 -37.26 0.0003650968    1.561    0.359
        37  -9.6842    110.9125    136.8249   1.1815358830e+02   3.2989578605e+01    0.3360979    0.2432345 -23.08   0.00135879    1.960    0.490
        38 -10.3274     98.4482    134.0369   1.2089711753e+02   3.5855134156e+01    0.2776308    0.2355458 -26.92 0.0005143522    1.422    0.297
        39 -10.6481     50.2643    129.8484   1.3336623616e+02   4.3736060762e+01    0.2479012     0.190556  71.85 0.0005865867    1.325    0.246
        40  -9.9430    100.5208    151.4334   1.2365598388e+02   3.1550752467e+01     0.333609     0.283229 -21.17 0.0009274444    1.541    0.351
        41  -9.7516    186.4028    239.2396   1.1919570720e+02   2.9128199664e-01    0.1374571    0.1197196 -56.48 0.0005425341    1.639    0.390
        42  -9.6200    107.8437    123.6748   1.1612354033e+02   3.6530835078e+01    0.2188587    0.1956922 -41.88 0.0003948318    1.164    0.141
        43 -10.8815    168.1523    113.1536   9.8183536762e+01   2.5705859678e+01    0.3563851    0.3178377 -84.02 0.0007380563    1.296    0.229
        44  -8.8652    203.4921    111.5272   9.0366736934e+01   1.7590098507e+01    0.1527451    0.1445131  10.59 6.867269e-05    1.044    0.042
        45  -9.3226    102.9650    147.2557   1.2227216277e+02   3.2068441318e+01    0.2234504    0.1769835 -20.50  0.001122258    1.746    0.427
        46 -10.2677    249.3948    248.9092   1.0958305936e+02  -1.0492855937e+01    0.2137498    0.1222636  -7.33  0.001335962    1.854    0.460
        47 -10.6427    163.1059    248.9181   1.2478256957e+02   2.8184546870e+00    0.2343003    0.1665751  55.75  0.001180531    1.448    0.309
