#   1 NUMBER                 Running object number                                     
#   2 MAG_AUTO               Kron-like elliptical aperture magnitude                    [mag]
#   3 X_IMAGE                Object position along x                                    [pixel]
#   4 Y_IMAGE                Object position along y                                    [pixel]
#   5 X_WORLD                Barycenter position along world x axis                     [deg]
#   6 Y_WORLD                Barycenter position along world y axis                     [deg]
#   7 A_WORLD                Profile RMS along major axis (world units)                 [deg]
#   8 B_WORLD                Profile RMS along minor axis (world units)                 [deg]
#   9 THETA_WORLD            Position angle (CCW/world-x)                               [deg]
#  10 FWHM_WORLD             FWHM assuming a gaussian core                              [deg]
#  11 ELONGATION             A_IMAGE/B_IMAGE                                           
#  12 ELLIPTICITY            1 - B_IMAGE/A_IMAGE                                       
         1 -14.4783    149.1385     55.9866   2.9050894386e+02   6.2050120950e+00   0.05276707   0.04736361 -32.90 0.0009357386    1.140    0.123
         2 -14.9373    159.9859     41.1510   2.9028850465e+02   6.3057606931e+00   0.06551939   0.05284071 -57.84  0.004956445    1.255    0.203
         3 -14.6312    172.3727      8.1993   2.8993572811e+02   6.6022439521e+00   0.05214156   0.04783862 -28.43  0.003741853    1.113    0.102
         4 -11.3054    189.8498     14.8500   2.8977317240e+02   6.4176728831e+00   0.01036236  0.009108549 -21.72 0.0006978916    1.195    0.163
         5 -19.6697     90.8905    235.1800   2.9231472363e+02   4.5305191871e+00    0.4638061    0.4024091  28.87   0.04851917    1.129    0.114
         6 -10.5737    219.1822    224.1812   2.9074743627e+02   3.8578970098e+00  0.009148101  0.007722593  66.74 0.0003543455    1.323    0.244
         7 -10.5223     25.0293    185.5223   2.9277473303e+02   5.5034551569e+00  0.009591356  0.008718062 -46.51 0.0004075182    1.109    0.098
         8 -12.5013    201.5353    222.3705   2.9094203631e+02   3.9883687121e+00    0.0125482   0.01073828  35.13 0.0008215453    1.148    0.129
         9 -11.1265     31.0782    182.7789   2.9268679858e+02   5.4972275122e+00    0.0176764  0.009418413  18.99  0.001291724    2.106    0.525
        10 -10.3754     22.5473    221.0400   2.9302549715e+02   5.1147503784e+00   0.00940414  0.006267324 -52.21   0.00051029    1.494    0.331
        11 -11.3427     27.6473    179.7875   2.9270825865e+02   5.5524913265e+00   0.01815798   0.01226879 -10.38  0.001769361    1.930    0.482
        12 -12.8128    157.3032    178.5856   2.9118407043e+02   4.7613274225e+00    0.0158407   0.01473031 -53.30 0.0009356965    1.089    0.082
        13 -13.9621    178.1496    172.0015   2.9089912906e+02   4.7063667995e+00   0.03292476   0.02563296 -73.64  0.003658752    1.407    0.289
        14 -11.8852    168.4905    176.0584   2.9103746472e+02   4.7204122801e+00   0.01046467  0.009053977  27.18 0.0005343165    1.133    0.118
        15 -10.9721     23.6014    215.4352   2.9297820171e+02   5.1719932897e+00  0.009970219  0.006875913 -39.65 0.0005777332    1.542    0.351
        16 -11.4935     22.0822    244.4110   2.9317664844e+02   4.8517479678e+00   0.01143607  0.009049857 -73.63  0.001012713    1.374    0.272
        17 -11.1903     26.2560    172.9288   2.9268167527e+02   5.6391213964e+00   0.01486924   0.01316271 -89.08  0.001184393    1.240    0.194
        18 -10.2559     20.1508    212.3637   2.9299939769e+02   5.2282799039e+00  0.006552465  0.004282783 -45.82 0.0002583776    1.563    0.360
        19 -11.6987    223.9652    164.1208   2.9031449704e+02   4.5103324746e+00   0.01421704  0.009990023 -75.56   0.00069925    1.640    0.390
        20 -19.1774     73.5180     96.6024   2.9164999750e+02   6.2140693621e+00    0.8777497   0.04443757 -61.18   0.02579502   19.149    0.948
        21 -13.1518     11.4066    206.0823   2.9306249895e+02   5.3538142716e+00   0.02976008   0.01697144  18.99  0.002250882    1.922    0.480
        22 -11.4158    237.2395    159.2035   2.9012863073e+02   4.4833652115e+00  0.009558772  0.007768993  59.77  0.001067403    1.360    0.265
        23 -11.1331     17.7810    154.4238   2.9266520389e+02   5.9020479040e+00   0.01723007  0.009353703 -65.13  0.001584075    1.973    0.493
        24 -10.4548     26.3506    203.9893   2.9287460413e+02   5.2851969675e+00   0.01194162  0.008648583  42.98  0.000656433    1.395    0.283
        25 -10.1692     22.9731    156.2491   2.9261582021e+02   5.8491624674e+00  0.009174495  0.008318073  23.75 0.0004088664    1.084    0.078
        26 -14.5878    134.1990    146.0019   2.9124974906e+02   5.2754598922e+00   0.05880635   0.02491676 -68.54  0.004515901    2.951    0.661
        27 -14.2260    136.0933    127.9014   2.9111393241e+02   5.4693946699e+00   0.08249711   0.01971482 -65.69  0.004132353    6.802    0.853
        28 -13.7605    154.4265    146.5360   2.9101653510e+02   5.1434993507e+00   0.02690993   0.01752664  48.46   0.00271517    1.651    0.394
        29 -12.2228    168.9174    202.5425   2.9119860902e+02   4.4167467823e+00   0.01217438   0.01099474 -82.92 9.081036e-05    1.192    0.161
        30 -12.0309    174.3402    148.5028   2.9079607578e+02   4.9971230158e+00    0.0167699    0.0131779  83.40  0.001443543    1.532    0.347
        31 -10.8618     27.3847    145.6399   2.9249778426e+02   5.9425228411e+00   0.01307285   0.01144458 -35.36  0.001194078    1.171    0.146
        32 -11.5558    176.8644    143.2870   2.9073380073e+02   5.0406595322e+00   0.01114158  0.007910214  46.51 0.0007291692    1.464    0.317
        33 -11.0218    150.8018    245.4476   2.9167896632e+02   4.0417270649e+00   0.01077744  0.008972353 -60.41  0.000341149    1.225    0.184
        34 -12.3287    137.7008    198.0597   2.9153529118e+02   4.6618893593e+00   0.03136198   0.01447652  49.64  0.002246471    2.687    0.628
        35 -11.4784    123.5410    196.9446   2.9169382774e+02   4.7625841746e+00   0.01841369   0.01197617 -37.11  0.001839776    1.702    0.412
        36 -12.7077    160.7486    128.0063   2.9082619522e+02   5.3146888864e+00   0.01909939   0.01617985 -87.68  0.001821177    1.327    0.246
        37 -10.5420     13.8825    239.8717   2.9324422072e+02   4.9540906763e+00   0.01877663  0.004658102 -63.31  0.001111146    4.648    0.785
        38 -15.0469    144.8257    145.1640   2.9112019442e+02   5.2188564734e+00   0.05218533   0.03496964  75.43  0.005010893    2.085    0.520
        39 -10.6122    141.6441    121.2789   2.9100738551e+02   5.5101003780e+00  0.007032517   0.00491359  56.82 0.0006991788    1.657    0.396
        40 -12.2585    139.6982    148.8658   2.9120340499e+02   5.2086924006e+00   0.01536319   0.01457216  71.52  0.000353588    1.113    0.101
        41 -12.9515    118.4305    108.4089   2.9119818489e+02   5.8008041423e+00   0.02058723   0.01075044 -56.01  0.001903183    1.883    0.469
        42 -10.6209     25.7064    230.0117   2.9304451092e+02   4.9931416967e+00  0.008935565  0.005560686 -49.95 0.0005553105    1.606    0.377
        43 -10.8478    205.3531    110.2338   2.9019298062e+02   5.2384503974e+00   0.01413131  0.009481329  19.51  0.001002765    1.558    0.358
        44 -10.7619     45.5868     92.8118   2.9195350140e+02   6.4304106223e+00  0.009547276  0.008689468 -66.03 0.0004512025    1.136    0.120
        45 -11.1722     41.8322     92.1042   2.9199306669e+02   6.4617229620e+00   0.01396534   0.01020737  43.23 0.0007064463    1.385    0.278
        46 -11.6765    125.0152    186.2595   2.9160964656e+02   4.8749115157e+00   0.02526064   0.01221919  52.66  0.001132299    2.760    0.638
        47 -10.6271    103.7965     81.9838   2.9120346983e+02   6.1920610163e+00   0.01103015  0.009096116  26.63 0.0003818136    1.190    0.160
        48 -10.2530    142.9917     79.9755   2.9073190701e+02   5.9709300591e+00  0.008053481  0.007794853 -50.11 0.0005246447    1.049    0.047
        49 -12.5079    168.2534    245.8024   2.9147740286e+02   3.9291942548e+00   0.02741157   0.01312405 -68.46  0.002291588    2.470    0.595
        50 -10.6269     25.4258    224.6767   2.9301451743e+02   5.0555707565e+00   0.01068122    0.0057167 -48.79 0.0006005593    1.877    0.467
        51 -13.1927    163.5981     32.8599   2.9019396434e+02   6.3773034126e+00   0.02062801    0.0181208 -51.10 0.0009083299    1.148    0.129
        52 -10.6633     13.5338     59.9496   2.9212311681e+02   7.0023401650e+00  0.009876101  0.008910626  27.34 0.0003972009    1.087    0.080
        53 -12.7078    133.7366    246.7755   2.9188658929e+02   4.1326742653e+00   0.01320524   0.01068081 -53.03 0.0006204515    1.242    0.195
