#   1 NUMBER                 Running object number                                     
#   2 MAG_AUTO               Kron-like elliptical aperture magnitude                    [mag]
#   3 X_IMAGE                Object position along x                                    [pixel]
#   4 Y_IMAGE                Object position along y                                    [pixel]
#   5 X_WORLD                Barycenter position along world x axis                     [deg]
#   6 Y_WORLD                Barycenter position along world y axis                     [deg]
#   7 A_WORLD                Profile RMS along major axis (world units)                 [deg]
#   8 B_WORLD                Profile RMS along minor axis (world units)                 [deg]
#   9 THETA_WORLD            Position angle (CCW/world-x)                               [deg]
#  10 FWHM_WORLD             FWHM assuming a gaussian core                              [deg]
#  11 ELONGATION             A_IMAGE/B_IMAGE                                           
#  12 ELLIPTICITY            1 - B_IMAGE/A_IMAGE                                       
         1 -13.7103    210.1672     29.5232   3.5720935316e+02   3.0180254253e+01    0.8924878    0.7389957 -45.92  0.003961461    1.108    0.097
         2 -10.0207     60.9846     21.4924   2.1758187595e+01   6.7084902620e+01     0.211592     0.130033  51.99  0.001026719    1.572    0.364
         3 -14.1597    245.9683    236.9439   3.4165930585e+01  -3.9402805602e+00     1.904707    0.5660688 -31.32   0.01001112    2.973    0.664
         4 -15.8650    121.9759    235.4160   5.6342347570e+01   1.0233637884e+01     5.303149     3.653819 -55.64    0.0335043    1.782    0.439
         5 -12.1152     89.4097    212.8338   6.1080873728e+01   1.8499814896e+01    0.2948514    0.2320694 -40.40  0.001040629    1.513    0.339
         6 -10.1887     47.5639    194.2092   6.9633892587e+01   2.7610288328e+01    0.2491908     0.189728 -32.54  0.001398066    1.756    0.430
         7 -10.4448     56.6008    193.9631   6.7276104849e+01   2.6626271624e+01    0.1726734    0.1694681 -71.34 0.0004380055    1.191    0.161
         8  -9.9281    234.5908    191.2625   2.8760128928e+01   2.7494877770e+00    0.1549182   0.08617957 -24.98 0.0006676617    1.518    0.341
         9 -11.0031     71.1875    230.8787   6.6975433941e+01   1.7221962292e+01    0.1402104    0.1258464 -83.35 0.0004361566    1.291    0.226
        10 -11.5431     54.6750    229.0860   7.0555390277e+01   1.9434336939e+01    0.1661852    0.1537467 -60.53  0.001021431    1.341    0.254
        11  -9.5162     71.0433    187.0432   6.2792694087e+01   2.6415813248e+01    0.1606929    0.1308094  38.57 0.0003960339    1.123    0.110
        12 -11.0635     67.7975    213.3234   6.6259951231e+01   2.1092501173e+01    0.1667235    0.1341328  37.55 0.0003027557    1.083    0.077
        13 -10.7778     74.4027    182.3467   6.1351056588e+01   2.7056690486e+01    0.3820793    0.2875682 -75.07  0.001443197    1.410    0.291
        14 -10.6448     61.4090    202.4338   6.6834549677e+01   2.4168856387e+01    0.1831841    0.1275415  67.46  0.001013715    1.453    0.312
        15  -9.4744     83.3378    182.8277   5.9043524911e+01   2.5728791539e+01    0.1858352    0.1211077 -52.58 0.0003796535    1.662    0.398
        16 -10.4006    175.1419    180.0975   3.7147240424e+01   1.2394682234e+01    0.2554615    0.2104173   6.68  0.001100231    1.135    0.119
        17 -12.0877    172.6873    174.7382   3.6667145093e+01   1.3703267563e+01    0.4766284    0.3586996 -16.00  0.001042441    1.342    0.255
        18 -11.7965    179.7915    169.2124   3.4238936137e+01   1.3575427996e+01    0.5990162    0.4627126 -29.04  0.002886208    1.201    0.167
        19 -11.2197      3.2202    176.6175   8.0277610946e+01   3.5951131674e+01    0.1490563    0.1352612  35.75 0.0004897506    1.237    0.191
        20 -10.6107      9.2867    166.4096   7.8133137648e+01   3.7993470149e+01    0.2164297    0.1777453 -71.39 0.0005460886    1.280    0.219
        21 -11.2735      2.4318    164.5528   7.9995022520e+01   3.8964544412e+01     0.206025    0.1844965 -77.89 0.0002907398    1.214    0.176
        22 -18.7458     29.3419    130.5691   6.8860375256e+01   4.5666236207e+01     18.22044     4.563945 -77.07   0.05196823    4.308    0.768
        23 -12.2105    133.8346    145.8022   3.9619790814e+01   2.5962229939e+01     1.223344    0.3164337 -54.55  0.003038683    5.696    0.824
        24 -11.1636     58.2173    228.3323   6.9701442688e+01   1.9188917862e+01    0.1184785   0.09553518 -13.88 0.0004155581    1.672    0.402
        25 -11.6928    111.9836    150.5987   4.6194461860e+01   2.8754541167e+01    0.3908052    0.2792679  63.46  0.001077502    1.697    0.411
        26 -11.4787    106.8973    139.7242   4.5428034767e+01   3.2202673311e+01    0.3938484    0.2793363  70.28  0.001194773    1.823    0.451
        27 -12.6241     97.5875    131.4339   4.6383924286e+01   3.5864438032e+01     0.555198    0.4111892 -50.75  0.002654263    1.349    0.259
        28 -11.8765    108.7534    132.5876   4.3397849119e+01   3.3571739950e+01     0.466098    0.3502324 -15.56  0.002117047    1.804    0.446
        29 -11.5338    133.8224    128.3847   3.5794057155e+01   2.9772018732e+01    0.5319299    0.4089864  75.03  0.001970995    1.694    0.410
        30 -10.8771    115.7850    125.5833   3.9861771323e+01   3.3904848632e+01    0.2891426    0.2367674 -18.86 0.0009025436    1.468    0.319
        31  -9.8693    163.1528    121.1329   2.7407040776e+01   2.5495133824e+01    0.1935415    0.1697355 -71.15 0.0003528194    1.291    0.225
        32 -10.6392    103.5714    120.4833   4.2153151273e+01   3.7447255495e+01    0.2891914    0.2571284 -11.74 0.0005981417    1.309    0.236
        33 -10.1822    135.0000    119.9148   3.3487429538e+01   3.1388607597e+01    0.2544145    0.0841062 -46.35 0.0008007864    2.931    0.659
        34  -9.8356    110.9687    115.7136   3.8846630727e+01   3.7157024145e+01     0.212202    0.1946187  49.47 0.0003779894    1.106    0.096
        35 -12.5045    112.1480     99.4733   3.4242935285e+01   4.0679303877e+01     1.009562    0.5761428  71.72  0.003251312    3.485    0.713
        36 -12.1556    117.4945    109.2416   3.5366801507e+01   3.7342445681e+01    0.5411799    0.3861907  68.33  0.001998238    1.755    0.430
        37 -10.8286    134.5753    105.7900   3.0001120652e+01   3.4521699700e+01    0.3866305    0.1436881 -46.75  0.001295207    2.615    0.618
        38 -10.6420     85.0012    106.9823   4.4723288514e+01   4.4233549676e+01    0.2351428    0.2264549 -52.36  0.000333772    1.061    0.057
        39 -11.0652     78.7961    103.4088   4.5952369400e+01   4.6245499825e+01    0.4289443    0.2472281  59.20  0.001437632    2.261    0.558
        40 -10.1499     98.0816     88.1692   3.5219107719e+01   4.6212592838e+01    0.4157189    0.2296403  68.48  0.001326046    3.420    0.708
        41  -9.6763     93.0079     85.5039   3.6054637102e+01   4.7875841604e+01     0.362134    0.1402782  51.85  0.001131322    3.122    0.680
        42  -9.7237    154.4840     87.4691   2.0519306095e+01   3.3827214391e+01    0.1499028    0.1385148 -57.39 0.0001906369    1.019    0.019
        43 -13.1268    170.3534     68.4083   1.2270521846e+01   3.3567074596e+01    0.6362352    0.5049727  61.46 0.0009178123    1.349    0.259
        44 -10.9814     57.8670    222.9436   6.9384309142e+01   2.0291458895e+01    0.1366422   0.08137767 -73.82 0.0004422979    1.895    0.472
        45 -13.7040    186.4265     55.1142   6.2804201847e+00   3.1977759015e+01     1.117206    0.9356808  16.59  0.003806083    1.624    0.384
        46 -11.9437    192.5964     49.3927   4.0013668718e+00   3.1419633402e+01    0.3221575     0.311436 -20.58 0.0008685547    1.243    0.196
        47 -10.6927     61.1250    220.3020   6.8424328752e+01   2.0451245356e+01    0.1368479     0.118632  69.77 0.0004688807    1.162    0.139
        48  -9.1125    213.7227    247.7029   4.0695105037e+01  -2.0282323182e+00    0.1048298    0.0616434  -3.19 0.0002524777    1.533    0.348
