#   1 NUMBER                 Running object number                                     
#   2 MAG_AUTO               Kron-like elliptical aperture magnitude                    [mag]
#   3 X_IMAGE                Object position along x                                    [pixel]
#   4 Y_IMAGE                Object position along y                                    [pixel]
#   5 X_WORLD                Barycenter position along world x axis                     [deg]
#   6 Y_WORLD                Barycenter position along world y axis                     [deg]
#   7 A_WORLD                Profile RMS along major axis (world units)                 [deg]
#   8 B_WORLD                Profile RMS along minor axis (world units)                 [deg]
#   9 THETA_WORLD            Position angle (CCW/world-x)                               [deg]
#  10 FWHM_WORLD             FWHM assuming a gaussian core                              [deg]
#  11 ELONGATION             A_IMAGE/B_IMAGE                                           
#  12 ELLIPTICITY            1 - B_IMAGE/A_IMAGE                                       
         1 -11.8653     94.5328     53.4631   6.6237145245e+01   5.3043672597e+01    0.4584802    0.3624836 -43.35  0.001657222    1.411    0.291
         2 -10.6443     74.9360     17.3730   5.8448998529e+01   6.1710476204e+01     0.253983     0.217647  25.68  0.000305267    1.061    0.057
         3 -10.6796     79.7236     16.0182   5.6391830155e+01   6.0916546989e+01    0.2876825    0.2120756  69.33  0.001632262    1.821    0.451
         4 -12.0261    150.6287    186.1256   8.5537525197e+01   1.4168914034e+01    0.6215706    0.1981479  38.47  0.002077495    3.031    0.670
         5 -10.8256    101.8598    184.4675   9.7072528670e+01   2.2770825408e+01    0.3054039    0.1806591 -41.08  0.001320848    1.923    0.480
         6 -13.8126    127.1917    173.9783   8.8857141831e+01   2.0956289141e+01     1.169906    0.5470186  41.89  0.004596813    2.126    0.530
         7 -14.2498    150.9464    164.5842   8.1153350806e+01   1.8723156216e+01     1.239138    0.8734353  26.82  0.005822444    1.506    0.336
         8 -11.1252    186.7983    170.9779   7.4449057763e+01   1.0757838599e+01    0.3008789    0.2394403 -34.02  0.001312962    1.194    0.162
         9 -11.4857     91.6712    175.7185   9.8226766595e+01   2.6409339300e+01    0.4618947    0.1765532  34.09  0.001701176    2.622    0.619
        10  -9.5516    178.3372    176.6705   7.7433897828e+01   1.1161035214e+01    0.1407382    0.1189611  85.53 0.0007051992    1.732    0.423
        11 -12.0758    174.8828    157.0494   7.4027363012e+01   1.5765165632e+01    0.5433606     0.290665 -25.79  0.002033824    2.520    0.603
        12 -12.8307    170.5184    153.9838   7.4317397797e+01   1.7239626134e+01    0.8959823    0.4908577  19.02  0.003108398    3.144    0.682
        13 -12.8207    144.2275    152.6430   8.0203515807e+01   2.2633098060e+01    0.5844114    0.4923937   5.36  0.002941006    1.304    0.233
        14 -13.2989    132.5774    150.3253   8.2619437954e+01   2.5384440765e+01     1.039624    0.4172664 -51.79  0.003574535    2.593    0.614
        15  -9.4467     73.3302    155.3182   9.9713129457e+01   3.4075448796e+01    0.1489466    0.1075864 -28.88 0.0005564835    1.687    0.407
        16 -11.5705    113.7014    152.7162   8.8088544595e+01   2.8291167945e+01    0.4609565    0.2723122  64.52   0.00167821    2.825    0.646
        17 -10.0056     87.6147    149.7810   9.4683008884e+01   3.3348007039e+01    0.2114936    0.1391945 -68.26   0.00094759    1.645    0.392
        18 -11.9305    110.1438    158.1900   9.0159062549e+01   2.7608799848e+01     0.467807    0.3222439 -10.43  0.001974555    2.164    0.538
        19 -11.3400    159.6350    142.7296   7.4244381439e+01   2.1765469945e+01    0.3145598    0.2471023  -4.49  0.001492033    1.510    0.338
        20 -12.2867    138.8736    141.0828   7.8917338408e+01   2.6267611698e+01    0.5062015    0.3371619 -42.64  0.002244798    1.469    0.319
        21 -11.5583    146.8212    140.1217   7.6707500240e+01   2.4903414006e+01     0.415712    0.2112114 -47.16  0.001615405    1.944    0.486
        22 -12.0654    175.2076    135.7282   6.9086618973e+01   2.0073664166e+01    0.5234085    0.2950115 -28.16  0.002079983    2.097    0.523
        23 -12.9064    160.4863    129.7275   7.0945127208e+01   2.4352833950e+01    0.9321157    0.4823165 -29.85  0.003410998    2.412    0.585
        24 -10.0973    104.8136    127.1726   8.4853223407e+01   3.5959842874e+01    0.2242435    0.1827424 -17.39  0.000875992    1.376    0.273
        25 -10.5614    185.8826    123.8434   6.4006459390e+01   2.0246266706e+01    0.3795397    0.1104054  50.06  0.001130083    3.911    0.744
        26 -10.6765    108.8603    135.6723   8.5688292623e+01   3.3215363556e+01    0.3174003    0.1457821  29.77  0.001109762    2.629    0.620
        27 -10.5043    185.9553    134.1766   6.6449041311e+01   1.8202852053e+01    0.2492342    0.1723906  14.36  0.001092983    1.964    0.491
        28 -12.9607    166.9900    152.0068   7.4670684535e+01   1.8339872360e+01     1.183483      0.67307  -3.18  0.003174146    5.547    0.820
        29 -10.6818    147.5714    112.1256   6.9551953767e+01   3.0778251303e+01    0.2619013    0.1920671  37.14  0.001214222    1.420    0.296
        30 -12.6303    139.4924    125.5851   7.5018827334e+01   2.9595206716e+01    0.5147706    0.4817237  81.05  0.002697224    1.210    0.174
        31 -10.8090     93.7247    111.0594   8.4160256545e+01   4.1696367527e+01    0.3949749    0.1874872 -63.21    0.0012808    3.295    0.697
        32  -9.4207    108.6754    111.3253   7.9746551785e+01   3.8912571849e+01    0.1540032    0.1244947  85.92 0.0007048702    1.690    0.408
        33  -9.2849    106.6904    104.3343   7.8449789730e+01   4.0849211864e+01    0.1518773    0.1239821 -89.92 0.0004053247    1.676    0.403
        34 -10.0555    119.2576     98.9772   7.3343689752e+01   3.9510376922e+01    0.2057531    0.1298226 -43.21 0.0005164153    1.557    0.358
        35  -9.4586    100.6708     98.3210   7.8587022130e+01   4.3303433183e+01    0.1498548     0.122977  85.99            0    1.691    0.409
        36 -10.6328    109.6659     93.1794   7.4423776216e+01   4.2660055792e+01    0.3469707     0.177266  55.70  0.001248344    2.730    0.634
        37  -9.2398     63.6610     92.3161   8.9116603595e+01   5.0715613569e+01    0.1385868    0.1137007  75.49  0.000704826    1.703    0.413
        38 -10.3830    180.9501     85.6138   5.5357395659e+01   2.8406362261e+01    0.4304402    0.2398216  20.10  0.001255324    5.121    0.805
        39 -11.5227    110.9197     85.5337   7.1795344014e+01   4.3962178036e+01    0.3707617    0.2745101  46.24  0.001803495    1.395    0.283
        40 -10.4146     55.5039     84.1760   8.9827062014e+01   5.3623601090e+01    0.2516479    0.1574471  51.50  0.001150623    2.271    0.560
        41  -9.9607     59.5905     74.6033   8.5500211625e+01   5.5122618261e+01    0.2697395    0.1258057  16.18 0.0009584558    3.417    0.707
        42 -11.7978    102.7750     69.8594   6.9289150410e+01   4.8592285132e+01    0.5081793    0.3410932 -14.95  0.002317908    1.837    0.456
        43  -9.2356    134.6666    202.3405   9.2136596239e+01   1.3499522057e+01    0.1439748    0.1088431  69.16 0.0007051344    1.751    0.429
        44  -9.9095     80.4939     47.5077   6.8613412828e+01   5.6684818791e+01    0.1366277    0.1223755   7.82 -5.337878e-06    1.037    0.035
        45  -9.1942     85.6977     31.6489   6.0863740833e+01   5.7935439438e+01    0.1407543   0.09240659  15.98 0.0007039391    1.699    0.411
        46  -9.3113     74.6771    198.3149   1.0575568924e+02   2.3551891806e+01    0.1424624   0.09447368  66.06  0.000324385    1.662    0.398
