#   1 NUMBER                 Running object number                                     
#   2 MAG_AUTO               Kron-like elliptical aperture magnitude                    [mag]
#   3 X_IMAGE                Object position along x                                    [pixel]
#   4 Y_IMAGE                Object position along y                                    [pixel]
#   5 X_WORLD                Barycenter position along world x axis                     [deg]
#   6 Y_WORLD                Barycenter position along world y axis                     [deg]
#   7 A_WORLD                Profile RMS along major axis (world units)                 [deg]
#   8 B_WORLD                Profile RMS along minor axis (world units)                 [deg]
#   9 THETA_WORLD            Position angle (CCW/world-x)                               [deg]
#  10 FWHM_WORLD             FWHM assuming a gaussian core                              [deg]
#  11 ELONGATION             A_IMAGE/B_IMAGE                                           
#  12 ELLIPTICITY            1 - B_IMAGE/A_IMAGE                                       
         1 -10.8576    112.4793     14.4886   3.5795521107e+01   5.5478929677e+01    0.5611509    0.3272283  19.68  0.002243079    2.459    0.593
         2 -11.5017    114.2855      9.4270   3.3168395410e+01   5.5532823691e+01    0.3395993    0.2924105  38.83 0.0005762644    1.182    0.154
         3 -11.9923     20.5725     16.2730   8.1337747027e+01   7.4429325003e+01    0.7058859    0.4193294 -58.14  0.003593768    1.670    0.401
         4 -11.3583     38.3252      2.7796   5.8701607330e+01   7.4548127272e+01    0.4512151    0.3140317  24.47  0.002434102    1.410    0.291
         5 -10.3351     22.9613      5.3311   7.2991861100e+01   7.6422252118e+01    0.2139609     0.182423 -59.04 0.0003887157    1.432    0.302
         6 -10.9838     26.5394      6.5731   7.0653503898e+01   7.5729381396e+01    0.4235157    0.2456409 -15.31  0.001080082    2.300    0.565
         7 -11.3762     27.4687     11.5959   7.3034952613e+01   7.4635257335e+01    0.3543511    0.2801785  17.59 0.0008087101    1.226    0.184
         8 -10.9485     34.8391     13.8550   6.8658264482e+01   7.3180010297e+01    0.5079615    0.2682859  21.31  0.002060306    2.207    0.547
         9 -11.5124     31.7690     11.6837   6.9657435681e+01   7.4039880267e+01    0.6308335    0.2449836 -39.27  0.002504476    2.645    0.622
        10 -13.3051    176.9370      4.6656   2.2956666694e+01   3.9185729767e+01     1.180439    0.7102216  76.36  0.005955136    1.588    0.370
        11 -11.8962    183.5423     14.5964   2.5334468354e+01   3.6597104145e+01    0.5288291    0.4265106  63.29   0.00193045    1.274    0.215
        12 -12.7079    185.4846      5.3190   2.2429581541e+01   3.6993177780e+01    0.6941804    0.6157043 -30.89  0.004316744    1.171    0.146
        13 -10.4981    128.5620     14.4250   3.2547230664e+01   5.1113048121e+01     0.348155    0.2512162  77.37 0.0008274908    1.348    0.258
        14 -10.6916     49.5386     14.4008   5.9252357009e+01   7.0600032845e+01    0.3458794    0.2819186  37.13  0.000630382    1.191    0.161
        15 -10.3266     45.1359     12.4975   6.0767427597e+01   7.1734817519e+01    0.2557797     0.210765   0.18 0.0007211956    1.201    0.168
        16 -10.9348    152.9263     12.5973   2.8129814854e+01   4.4700695111e+01    0.4498156    0.1505925  47.42  0.001297199    3.417    0.707
        17 -11.1115    124.6293      7.4142   3.0375640998e+01   5.2901372529e+01    0.4375663    0.2558255  81.49 0.0008552088    1.756    0.430
        18  -9.6142    119.9809      9.5952   3.2127788807e+01   5.3960568909e+01    0.4000002    0.1713161 -33.17  0.001391629    2.339    0.572
        19 -11.8737    162.0996     10.6534   2.6351121747e+01   4.2460034230e+01    0.5245783     0.238986 -33.33  0.001684756    2.069    0.517
        20  -9.9896     93.5883     11.8872   3.9328767478e+01   6.0799678460e+01    0.2912912    0.1802268  45.86 0.0007376107    1.517    0.341
        21 -10.4607    102.6710     10.9959   3.6487042069e+01   5.8503552007e+01     0.338905    0.1965215  64.66 0.0008696467    1.596    0.374
        22 -10.4255     98.8495      8.8331   3.6392554476e+01   5.9757093459e+01    0.2826521    0.2260507 -51.38  0.001274275    1.395    0.283
        23 -11.6712     56.3081      9.3134   5.2300281036e+01   7.0052443572e+01    0.4447829    0.3487954  22.94  0.001189959    1.250    0.200
        24  -9.5309     74.2603      9.8453   4.4606083039e+01   6.5908080281e+01    0.2952348    0.1432623  47.07  0.001231547    1.868    0.465
        25  -9.9778     69.2673      9.5505   4.6420062190e+01   6.7131584218e+01    0.2480603    0.1936779 -23.13 0.0006544768    1.349    0.259
        26  -9.5212    219.5149      9.0787   2.1000109623e+01   2.8768324915e+01    0.1841618    0.1078009 -29.17 0.0005422508    1.533    0.348
        27 -10.0501    213.6242      8.4170   2.1214407902e+01   3.0118752433e+01    0.2047788    0.1734427 -60.16  0.000330855    1.047    0.045
        28  -9.2651     39.7880      8.7948   6.1906058768e+01   7.3307184067e+01    0.1699733    0.1655367  70.21  0.000501138    1.320    0.243
        29 -11.0018      3.3085      8.7206   9.4177033497e+01   7.7275048582e+01    0.2747572    0.2115374 -19.75 0.0007568016    1.212    0.175
        30 -10.3847    245.5793      7.7349   1.9210269919e+01   2.3571514920e+01    0.1661385    0.0824483 -37.30 0.0003929467    1.558    0.358
        31 -11.5247     86.9459      7.0422   3.8744135786e+01   6.3070843875e+01    0.5704923    0.2368173  48.90  0.001074348    2.148    0.535
        32 -10.9574     16.4524      5.3742   7.9198173003e+01   7.7125107538e+01    0.2555146    0.2085533  43.93 0.0009515858    1.523    0.343
        33 -10.6930    204.1939      3.9236   2.0664193237e+01   3.2656126657e+01    0.4002664    0.2335837  22.85  0.001878225    2.700    0.630
        34 -10.8508    134.5936      4.2979   2.7564686256e+01   5.0455659662e+01    0.3232872    0.2412806  -1.88  0.001226993    1.591    0.371
        35 -10.6250    131.4693      3.5640   2.7725832326e+01   5.1377752341e+01    0.2532577      0.20475  89.64 0.0005889992    1.185    0.156
        36 -10.6527    145.4543      3.1617   2.5706396173e+01   4.7594928805e+01    0.3098197     0.208467 -76.63 0.0007850999    1.527    0.345
        37 -11.4945    114.1304      1.9971   2.9883521930e+01   5.6282210699e+01    0.5509772    0.2141562  67.39  0.001050338    2.239    0.553
        38 -10.2502    230.8766      1.8639   1.8600534556e+01   2.7015781754e+01    0.3329836     0.156732  84.16  0.001252891    2.268    0.559
        39 -10.4452    151.7352      1.9991   2.4561971825e+01   4.6001342053e+01    0.1934539    0.1841714 -64.26  0.001156277    1.079    0.073
        40 -11.5659    192.1557     11.5221   2.3661793521e+01   3.4793421382e+01    0.3365876    0.2551054 -84.31  0.001035114    1.286    0.223
        41  -9.6726     89.2966      1.5455   3.5113650540e+01   6.3023757515e+01    0.2803785    0.1380653  72.03  0.001127767    2.109    0.526
        42  -9.1424     78.8247      1.3675   3.8062124146e+01   6.5748068920e+01    0.2063957    0.1147516  52.22 0.0005442619    1.571    0.363
        43  -9.6723     44.4451    105.0143   9.1646670900e+01   5.0129666639e+01    0.2137331    0.1349119 -69.36 0.0006795154    1.562    0.360
        44 -10.1600     48.7315    101.7092   8.9419154468e+01   5.0492683011e+01    0.3656483    0.1666691 -31.35  0.001158534    4.029    0.752
        45  -8.7382     26.3017    101.3034   9.8334734868e+01   5.2788442361e+01    0.1391919   0.09607056 -40.61 0.0003917472    1.591    0.372
        46  -9.4670    103.3389     97.9607   6.8667626529e+01   4.2624782540e+01    0.2795717    0.2056139  63.04  0.001056022    1.630    0.387
        47  -9.6671     63.8261     96.6670   8.2490119858e+01   4.9797578092e+01    0.2483329    0.2011062 -40.13 0.0009050384    1.317    0.241
        48 -10.4185      4.2099     96.2580   1.0680170229e+02   5.5410371509e+01    0.3901784    0.2493831  -5.24  0.001867772    1.842    0.457
        49  -9.6397     51.6402     95.6817   8.7149156471e+01   5.1684742297e+01    0.1541245    0.1071054 -27.55  0.000704343    1.762    0.433
        50 -11.4619    131.3895     93.0128   5.9045066074e+01   3.7748235162e+01    0.4351721    0.2418559  44.49 0.0009981826    1.733    0.423
        51 -10.1761    107.9052     89.9853   6.5040111932e+01   4.3451312540e+01    0.3444036    0.2852407  84.90  0.001654286    1.519    0.342
        52  -8.5687     61.6821     91.6427   8.2230079196e+01   5.1365896009e+01    0.1574423    0.1108086 -27.03 0.0007044819    1.755    0.430
        53 -10.0033     37.5213     89.5389   9.1955117710e+01   5.4844530897e+01    0.1397399    0.1325459  77.00 1.662744e-05    1.039    0.037
        54  -9.3080      2.1396     89.0902   1.0721423098e+02   5.7317420885e+01    0.1928035      0.15731 -61.50  0.000520625    1.188    0.158
        55 -10.3407     29.6501     80.9028   9.4012784158e+01   5.7811187021e+01    0.2208454    0.1892682 -10.15 0.0004922369    1.274    0.215
        56  -9.4257     46.8753     80.1646   8.5963511043e+01   5.6232497480e+01    0.2010057    0.1619424 -34.20 0.0003568636    1.317    0.241
        57 -10.2291    215.8745     78.6431   3.8749012200e+01   2.1620987103e+01    0.1978382    0.1600422 -16.54 0.0003072496    1.172    0.146
        58 -10.6503     53.2855     77.7645   8.2513345941e+01   5.6021834156e+01    0.4782017    0.2655806  41.41    0.0019246    1.824    0.452
        59  -9.0958     78.0037     78.0405   7.2151630041e+01   5.2035303950e+01    0.1752436    0.1693953 -46.09 0.0003222798    1.057    0.054
        60  -9.0202    152.0501     76.9994   4.9374573852e+01   3.5961497342e+01    0.1868318     0.167442  48.08 0.0006893603    1.102    0.092
        61  -8.9353    208.4719     76.5859   3.9261089535e+01   2.3389944266e+01    0.1310533    0.1203267 -13.42 8.481372e-05    1.044    0.042
        62  -8.9399    122.9477     75.9889   5.6350957387e+01   4.3006468093e+01    0.1843978    0.1711824  42.52 0.0003817362    1.039    0.038
        63 -11.5483     63.9971     69.8986   7.5578135261e+01   5.6368864142e+01    0.2317914    0.2229117  -6.97            0    1.043    0.041
        64  -9.7208     41.2167     69.5797   8.6165959976e+01   5.9584938138e+01    0.2332684     0.177678  10.77 0.0006594434    1.420    0.296
        65  -9.7779      7.8603     69.1290   1.0291447844e+02   6.2230774135e+01    0.1929046    0.1645917  66.14 0.0003977306    1.199    0.166
        66  -8.8806     34.2720     68.6644   8.9411486290e+01   6.0549047830e+01    0.1426659    0.1037336  66.55 0.0003832027    1.599    0.375
        67  -9.9498    151.0497     66.2107   4.6343191574e+01   3.8011150136e+01    0.3646634    0.2523727 -59.88  0.001460598    1.775    0.437
        68 -11.3895    192.2006     65.9936   3.8882530396e+01   2.8332249771e+01    0.2144844    0.1980575  59.62 0.0002489149    1.146    0.127
        69  -8.8582     75.3061     65.2643   6.9246316609e+01   5.5478594983e+01    0.1490044    0.1183834  -2.75 0.0003625762    1.528    0.345
        70 -10.2006     67.0190     65.0568   7.2732897023e+01   5.7010899235e+01    0.2160648    0.2093932  29.27   0.00119223    1.029    0.028
        71 -10.2055      4.4704     64.5771   1.0416704285e+02   6.3523118699e+01     0.241062    0.1962239 -50.02 0.0006515655    1.172    0.147
        72 -11.5625      3.9914     59.7246   1.0390873387e+02   6.4779815691e+01    0.4145852    0.3380902  26.70  0.002525068    1.349    0.259
        73  -8.8969     50.2927     64.3819   8.0323735984e+01   5.9752047674e+01    0.1576036    0.1049137 -29.56 0.0007018024    1.753    0.429
        74 -10.5753     99.0271     61.8422   5.9061103874e+01   5.1300006585e+01    0.4233595    0.3044397 -74.73  0.001592449    2.044    0.511
        75 -10.0342     43.8782     62.6549   8.3036468393e+01   6.1008864903e+01    0.2724545    0.2168891 -40.93  0.000664511    1.242    0.195
        76  -9.1659     86.2364     61.0665   6.3419818284e+01   5.4236055432e+01     0.194533    0.1296061 -42.84 0.0004063976    1.546    0.353
        77  -9.8765    231.7057     60.5748   3.2529238555e+01   2.0769995514e+01    0.1569997    0.1206101  89.28 0.0009493781    1.616    0.381
        78  -9.5277     56.9613     60.4609   7.5880636918e+01   5.9730141129e+01    0.2206368    0.1438181  30.15 0.0005766182    1.545    0.353
        79  -9.2889     22.2386     58.2759   9.3568333882e+01   6.4226526292e+01    0.1807621    0.1492609  59.71 0.0003844125    1.331    0.249
        80  -9.2650     15.9112     57.5518   9.6982523910e+01   6.4819959811e+01    0.1978335    0.1322059  11.63  0.001033967    1.610    0.379
        81  -9.9578     78.0201     55.9767   6.4841139051e+01   5.6997470588e+01    0.2298064    0.2210182  17.81 0.0004376418    1.007    0.007
        82  -9.2971     59.1720     56.6059   7.3525112115e+01   6.0283909917e+01    0.1999052    0.1399527  19.17 0.0003540053    1.582    0.368
        83  -8.9195    249.3202     55.3530   2.9627968968e+01   1.8089515152e+01    0.1180888   0.08518653  10.31 0.0006477252    1.749    0.428
        84  -8.6626    133.3128     55.7521   4.6980764659e+01   4.4144139486e+01    0.1487156    0.1191481 -84.16 0.0001653792    1.515    0.340
        85 -10.2218     62.7355     52.7139   7.0422746387e+01   6.0571835552e+01    0.3362322     0.234646 -68.53  0.001526972    1.833    0.454
        86  -9.9751     22.8792     52.1655   9.1855019911e+01   6.5726729794e+01    0.4113904    0.1958398 -52.96  0.001783002    1.852    0.460
        87 -10.0862    150.1254     50.4475   4.1512567609e+01   4.0709082034e+01    0.2714042    0.2020371 -40.05 0.0007222784    1.353    0.261
        88 -10.0284     15.1980     51.5961   9.6291266601e+01   6.6375603389e+01    0.1791984    0.1217005 -12.45  0.000589054    1.601    0.375
        89  -8.9498    171.0342     50.2148   3.7688153506e+01   3.5496131504e+01    0.1956651    0.1150294  61.68 0.0008732144    1.709    0.415
        90  -9.7561     11.8718     48.4290   9.7703440180e+01   6.7349292261e+01    0.2406553     0.176457 -70.23 0.0005671522    1.252    0.201
        91  -9.8401    191.7030     46.1539   3.3507433536e+01   3.1065831012e+01    0.2197144    0.1807755 -82.75 0.0005601338    1.309    0.236
        92 -10.4289      7.6032     45.0244   9.9763352789e+01   6.8388732799e+01    0.3273305    0.1445398 -54.38  0.001494461    1.899    0.473
        93  -9.2556      4.4947     43.4863   1.0149893284e+02   6.8878406571e+01    0.1916645    0.1129048  26.88 0.0001778356    1.859    0.462
        94 -10.3179     38.9786     44.2581   7.9960971481e+01   6.6065984840e+01    0.3071726    0.2935232  46.36  0.001253308    1.150    0.131
        95  -8.9649    236.1344     44.6289   2.8348572522e+01   2.1726415011e+01    0.1462872    0.1104297  52.34 0.0002678452    1.539    0.350
        96  -9.3561    225.7011     44.3010   2.9230225408e+01   2.3839683911e+01    0.1299601   0.08274154 -53.98 0.0003448601    1.581    0.367
        97 -10.4371    151.4751     41.6427   3.8334249422e+01   4.1624199723e+01    0.4210143    0.2522601 -17.44  0.001245531    2.004    0.501
        98  -9.4284     31.2621     43.9930   8.4529526618e+01   6.7000892148e+01    0.2486514    0.1666877   1.59 0.0006629421    1.681    0.405
        99  -8.9670    159.3711     53.1979   4.0625350958e+01   3.7969005917e+01    0.2101572    0.1297275 -41.58  0.000409061    1.617    0.382
       100  -9.6590    119.0408     42.5275   4.5787047048e+01   4.9922470080e+01    0.2941417    0.2214929  -8.53  0.001363095    1.622    0.383
       101  -8.8830     71.4759     42.5372   6.2301982760e+01   6.1093315931e+01    0.1517474    0.1390378   8.77 -9.649486e-05    1.086    0.079
       102 -10.1459    159.0084     39.9293   3.6447637785e+01   3.9912263115e+01    0.2158745    0.2100813 -84.69 0.0003910189    1.007    0.007
       103  -9.7836     95.8894     38.8915   5.1195554365e+01   5.6315332452e+01    0.2357487    0.2002476  13.74 0.0006251603    1.296    0.228
       104  -9.7205    101.0533     36.9101   4.8676488494e+01   5.5377723635e+01    0.2291059    0.2174665  41.04 0.0005101901    1.010    0.010
       105 -10.6642     39.7640     36.5767   7.6569207558e+01   6.7734488295e+01    0.5131009     0.236514  23.05  0.002060344    2.420    0.587
       106  -9.4276     81.9785     36.0035   5.4993782296e+01   6.0078190510e+01    0.2196869    0.2067889  26.18 0.0003078541    1.013    0.013
       107  -9.7270    174.0625     34.9610   3.2591296172e+01   3.6719865934e+01    0.2180194    0.1973677 -60.64 0.0007108544    1.068    0.064
       108  -9.1101    119.3116     35.0218   4.2791400652e+01   5.0992692107e+01    0.2053383     0.196058   1.21 0.0006343201    1.112    0.101
       109  -9.8302     51.5066     33.0299   6.8067806154e+01   6.6730568359e+01    0.2441137    0.1843994 -27.65 0.0003295755    1.371    0.271
       110 -10.1369     49.0000     30.9437   6.8520120397e+01   6.7576500177e+01    0.6615648     0.285592 -34.64  0.002386364    2.936    0.659
       111  -9.7554      6.2707     34.3587   9.8664910977e+01   7.1088763921e+01    0.2443783    0.1652562 -66.07 0.0008447499    1.311    0.237
       112  -9.7708      3.8047     31.6053   9.9902333193e+01   7.1842514329e+01    0.2915028    0.2411915 -41.61  0.001425534    1.093    0.085
       113  -9.7905    139.4697     33.5795   3.7798121479e+01   4.5865166955e+01    0.2875359    0.2275673  32.09 0.0008022083    1.404    0.288
       114  -9.7595    153.9719     32.3033   3.4754618158e+01   4.2202569222e+01    0.2438916    0.1961019  25.61 0.0006682618    1.447    0.309
       115  -8.8911    178.3065     32.2934   3.1217844920e+01   3.5980845246e+01    0.1387862    0.1042726  32.62 0.0003112062    1.581    0.368
       116 -10.8069     17.5965     31.6158   8.9734021378e+01   7.1160026767e+01    0.2243653    0.2154622  74.24 0.0002221664    1.193    0.162
       117  -9.2360     27.4827     31.0169   8.2430657517e+01   7.0446360264e+01     0.200753    0.1270631 -57.29 0.0004136327    1.516    0.340
       118  -9.1553     59.4804     29.5425   6.2080681200e+01   6.5987314116e+01     0.145955    0.1338049   8.67  9.66462e-05    1.034    0.033
       119 -10.0521     61.0866     25.4598   5.9180593403e+01   6.6427715830e+01     0.425144    0.2524947 -13.00  0.001653328    2.727    0.633
       120 -10.4280     64.9808     21.1507   5.4971262803e+01   6.6366491738e+01    0.3897223    0.2141478  43.28  0.001716001    1.723    0.420
       121 -10.4956    153.2415     27.9511   3.3392144973e+01   4.2928497492e+01     0.254151    0.2161197 -84.75 0.0002673754    1.182    0.154
       122  -9.0636    103.9549     28.5207   4.4181948005e+01   5.5930000341e+01    0.2221819    0.1417405  56.43 0.0003768919    1.465    0.317
       123  -9.6124    160.5881     27.1801   3.2020485427e+01   4.1093284741e+01    0.2229864    0.1859678 -88.45 0.0004149709    1.196    0.164
       124  -9.9509    119.8451     26.4806   3.9224319164e+01   5.2035364769e+01    0.3652203    0.2038017  40.14 0.0009060715    1.974    0.493
       125  -8.7973     79.3331     27.2430   5.1907803584e+01   6.2176060221e+01    0.1505692    0.1077286  26.42 0.0002732677    1.545    0.353
       126  -9.4706     46.7306     27.0042   6.7941867451e+01   6.8749003660e+01    0.1920934    0.1695945 -29.95 0.0003016612    1.107    0.097
       127  -9.9429    145.5036     26.4852   3.4147630472e+01   4.5157989912e+01    0.1464731    0.1389274  73.45 -1.381114e-05    1.021    0.020
       128 -10.6496     98.6571     23.2904   4.3366788954e+01   5.8031753367e+01     0.348841    0.2807373 -22.46     0.001124    1.338    0.253
       129 -10.4048    135.4895     24.9705   3.5377246103e+01   4.8026194388e+01    0.4115309    0.1897619  55.47   0.00162939    1.981    0.495
       130  -9.6358    111.2744     24.8635   4.0615833946e+01   5.4526253930e+01    0.2701038    0.1940872  72.22 0.0007745064    1.436    0.304
       131  -9.2513     88.4193     24.9066   4.7405768369e+01   6.0373975365e+01    0.2089986    0.1184241 -54.55 0.0008041767    2.469    0.595
       132  -9.8482     38.0260     22.9282   7.1443001744e+01   7.0915807487e+01    0.2116928    0.1862237  -7.01 0.0004045402    1.062    0.059
       133 -10.1913    215.3999     22.8231   2.4774345573e+01   2.8330558740e+01    0.1732726    0.1163809 -12.52  0.000732267    1.669    0.401
       134 -10.2184    142.0113     22.7708   3.3397295496e+01   4.6533436678e+01    0.2278645    0.2137288 -36.11 0.0004050599    1.119    0.107
       135 -10.0576     72.8135     22.4931   5.2170748258e+01   6.4429887940e+01    0.2375588    0.2014505 -26.75 0.0003449213    1.226    0.184
       136  -9.4965     45.2131     22.0470   6.6293938493e+01   6.9976408060e+01    0.2182001    0.1723628 -11.68 0.0005619288    1.322    0.244
       137  -9.2690     48.7142     19.9134   6.2974808486e+01   6.9776497190e+01    0.2164756    0.1717228  32.55 0.0002868866    1.214    0.177
       138  -9.7196     84.7422     20.2688   4.6394607275e+01   6.1952737707e+01    0.2650937     0.194299  81.51 0.0009703939    1.766    0.434
       139 -10.6393     13.4375     17.9054   8.8187764555e+01   7.4648773694e+01    0.4350501    0.2212087  -3.69  0.002005421    2.266    0.559
       140 -10.9900      5.4446     19.7714   9.5766114332e+01   7.4636276528e+01    0.3918678    0.2443213  14.22 0.0008945378    1.701    0.412
       141  -9.6910      6.6902     15.7126   9.3387625927e+01   7.5533274958e+01    0.1643388    0.1488007  67.73 0.0004291376    1.330    0.248
       142 -10.3001    226.9138     19.0152   2.2956094271e+01   2.6253141633e+01      0.18444    0.1560585 -48.09   0.00034403    1.008    0.008
       143  -9.3894    147.5207     18.9550   3.1134320344e+01   4.5484056115e+01    0.2167163    0.1452699 -22.92  0.001032878    1.599    0.375
       144  -9.3751      2.6718    221.3178   1.1123043142e+02   2.7941875263e+01    0.1196502   0.04947413  49.64 0.0005478543    1.681    0.405
       145  -8.8411    124.0448    205.9719   8.2587362847e+01   1.7395261556e+01    0.1402706    0.1169036  25.36  0.000923361    1.064    0.060
       146  -9.0590     70.4566     18.4557   5.1014642457e+01   6.5591638846e+01    0.1463048    0.1330092  26.75 0.0001890986    1.022    0.021
       147 -11.9336     24.3049    196.9991   1.0566974354e+02   3.0738394434e+01    0.2863774    0.2279789  57.01  0.002025192    1.087    0.080
       148 -11.3906      9.3909    188.0502   1.0898055999e+02   3.3735509115e+01    0.3291776    0.2236019 -37.61  0.002028521    2.117    0.528
       149  -9.9510     30.6716    188.7034   1.0371670281e+02   3.1836235818e+01    0.1094972   0.09008302 -22.73 0.0007025921    1.633    0.388
       150 -10.3534     27.3193    186.3192   1.0444448335e+02   3.2626567971e+01    0.1104507   0.08951378 -29.67 0.0007042347    1.663    0.399
       151 -10.8659    246.9701    183.9806   5.5707853613e+01   3.5519717746e+00    0.2830354    0.2280459  71.78   0.00153059    4.502    0.778
       152  -9.1772     25.0000    177.9712   1.0463252569e+02   3.4576126611e+01    0.1892373   0.06584922 -80.69 0.0008145291    3.027    0.670
       153  -9.7288     20.6773    174.4712   1.0560614864e+02   3.5687271204e+01    0.1817369    0.1332901 -73.12   0.00042148    1.494    0.331
       154 -10.0952     21.6608    169.2257   1.0509236553e+02   3.6744676860e+01    0.1819382    0.1367608  48.14  0.001152566    1.103    0.093
       155  -9.5436     28.9656    161.0000   1.0258973938e+02   3.7954422748e+01     0.200853   0.06583309  22.56 0.0004565387    2.865    0.651
       156 -10.2409    247.8025    155.5770   5.0569752026e+01   6.6046243393e+00    0.1369854    0.1052712  39.55 0.0009280602    1.657    0.396
       157  -9.8973      7.7088    151.9633   1.0825933488e+02   4.1647455093e+01     0.318238    0.1555754 -53.09  0.001562528    2.450    0.592
       158 -10.4377    237.4999    150.4719   5.1125345948e+01   8.6333538597e+00    0.1188311   0.09380942  -4.74 3.731714e-05    1.026    0.025
       159  -8.9920     30.5215    150.4789   1.0141402695e+02   4.0237554318e+01    0.1246662    0.1180455  58.65 5.425974e-05    1.104    0.094
       160  -8.6156     39.7155    147.7305   9.8383417797e+01   4.0019224415e+01    0.1215316   0.09956147 -30.65 0.0002157487    1.498    0.332
       161 -10.1435    235.3435    146.3111   5.0651748025e+01   9.4530358604e+00    0.1257879     0.077791   5.27 0.0007045725    1.702    0.412
       162  -9.0399    119.6879     13.6778   3.3921474074e+01   5.3613139723e+01    0.2073591    0.1337694  51.76 0.0002502329    1.453    0.312
       163 -10.8868    242.4781    141.9908   4.8765743530e+01   8.9408370268e+00    0.2010555    0.1534717 -76.50  0.001046007    3.555    0.719
       164  -9.8321      4.8903    138.8449   1.0861123398e+02   4.4872810236e+01    0.2116252    0.1542082   2.41  0.001264886    1.623    0.384
       165 -10.9001    245.9960    138.4938   4.7588890668e+01   8.8514648149e+00    0.1633582    0.1072253  34.89  0.001028577    1.603    0.376
       166  -8.8448     28.5768    138.4905   1.0110657236e+02   4.3260299961e+01    0.1283148    0.1185397  68.28 1.581476e-05    1.052    0.049
       167  -9.5198     16.0439    138.0014   1.0507838193e+02   4.4356271514e+01    0.1975835    0.1726021  58.00 0.0007652118    1.025    0.024
       168  -9.3541     46.7830    135.4496   9.4883393351e+01   4.2235694129e+01     0.252333    0.1197285  30.28 0.0008724548    1.910    0.476
       169 -11.9484    248.4122    131.4196   4.5871683546e+01   9.3407403759e+00    0.2952723    0.2269276 -34.11  0.002017068    1.401    0.286
       170  -9.1135     46.7168    131.5745   9.4452614089e+01   4.3191567831e+01    0.1926368    0.1156838  38.58 0.0009329848    1.515    0.340
       171 -10.4157    235.6030    130.1827   4.7417794970e+01   1.1418850479e+01    0.1765669   0.09861883 -19.07 0.0008649652    1.670    0.401
       172 -11.1330    246.4013    124.7872   4.4820960406e+01   1.0430176799e+01    0.1753338   0.09475318 -18.78 0.0009579577    1.701    0.412
       173  -8.9971     25.8730    125.2036   1.0090641351e+02   4.6747715177e+01    0.1754506     0.147745 -48.13 0.0005362339    1.316    0.240
       174  -9.0907      5.5198    125.4856   1.0785843192e+02   4.8045612481e+01     0.125248    0.1119194  74.69 0.0004274271    1.034    0.033
       175  -8.8345     39.4885    125.5111   9.6213317157e+01   4.5446884181e+01    0.1334798    0.1285875  70.74 -3.390689e-05    1.059    0.056
       176  -9.5024      1.8854    118.9694   1.0881039493e+02   4.9825848584e+01    0.2168494    0.1590887  21.48  0.001297451    1.434    0.303
       177  -9.5057     91.7451    116.7206   7.6874203990e+01   4.0465919519e+01    0.2120457    0.1935853  15.85 0.0006690007    1.126    0.112
       178  -9.4661     53.4728    117.5256   9.0203638075e+01   4.5913862081e+01    0.1416266    0.1328946  59.38 0.0001710944    1.008    0.008
       179  -9.7180     84.7625     15.8134   4.4097002260e+01   6.2560366056e+01     0.390902    0.1874056  59.18 0.0009507596    2.007    0.502
       180  -9.0020     14.1991    117.6148   1.0441754417e+02   4.9483227174e+01    0.1710116    0.1226769  -4.59 0.0009385415    1.668    0.400
       181  -9.3518     21.7042    114.9732   1.0149616961e+02   4.9637970993e+01    0.1936652    0.1586604 -81.72 0.0007323657    1.161    0.139
       182 -10.5410      2.8472    111.4820   1.0814233125e+02   5.1633605941e+01    0.2222837    0.1905441  86.68 8.133376e-05    1.056    0.053
       183  -9.2831     79.5073    111.4189   7.9860266744e+01   4.3761955746e+01    0.1478936    0.1407938  20.50 0.0002582075    1.068    0.064
       184  -9.1262     49.7739    108.8629   9.0209870968e+01   4.8544184308e+01    0.1925759     0.152106  61.75 0.0002548706    1.290    0.225
       185  -8.5360     23.2657    109.7081   1.0042396826e+02   5.0861566414e+01    0.1371124   0.09005288  59.60 0.0002467236    1.504    0.335
       186  -9.7491     13.1012    105.5620   1.0394759859e+02   5.2594832218e+01    0.3161014    0.1668343 -70.92  0.000466768    1.740    0.425
       187  -8.9645     58.5585    105.5131   8.6297140543e+01   4.8300000615e+01    0.1430532    0.1386979  65.08 7.441678e-05    1.007    0.007
