#   1 NUMBER                 Running object number                                     
#   2 MAG_AUTO               Kron-like elliptical aperture magnitude                    [mag]
#   3 X_IMAGE                Object position along x                                    [pixel]
#   4 Y_IMAGE                Object position along y                                    [pixel]
#   5 X_WORLD                Barycenter position along world x axis                     [deg]
#   6 Y_WORLD                Barycenter position along world y axis                     [deg]
#   7 A_WORLD                Profile RMS along major axis (world units)                 [deg]
#   8 B_WORLD                Profile RMS along minor axis (world units)                 [deg]
#   9 THETA_WORLD            Position angle (CCW/world-x)                               [deg]
#  10 FWHM_WORLD             FWHM assuming a gaussian core                              [deg]
#  11 ELONGATION             A_IMAGE/B_IMAGE                                           
#  12 ELLIPTICITY            1 - B_IMAGE/A_IMAGE                                       
         1 -10.8562    113.9609     25.8097   8.1917194186e+01   5.3859242697e+01    0.3866731    0.2003552 -25.19  0.001712606    2.044    0.511
         2 -12.1467     76.5096     24.4518   9.2511618008e+01   6.1875067068e+01     0.467935    0.3160914 -39.79  0.001046997    1.624    0.384
         3  -9.8329     88.5894      7.1773   8.0871039076e+01   6.1514366828e+01    0.2611472    0.1634646   6.67  0.001350811    1.782    0.439
         4 -11.3824     90.1406     16.0934   8.4405652213e+01   6.0247442326e+01    0.4114499    0.2384361  -7.55  0.000377189    2.037    0.509
         5 -10.0368     87.2681     11.9162   8.3402558650e+01   6.1302724865e+01    0.2819563    0.2218471  -6.05 0.0008735759    1.243    0.195
         6 -10.5906     12.3684     15.8452   1.1725665688e+02   7.1649605871e+01    0.2632603    0.1844974  22.96  0.001340586    1.649    0.394
         7 -11.0945     41.0057     19.1151   1.0436176189e+02   6.8198184036e+01     0.394677    0.2899772 -11.20  0.002551979    1.200    0.166
         8 -10.3819     26.5295     16.3892   1.1007730352e+02   7.0289597214e+01    0.2612861    0.2304991  -7.34  0.001490001    1.234    0.190
         9 -10.4737    100.0677     18.8430   8.2747573766e+01   5.7817283545e+01    0.3645263    0.2994661 -78.16  0.002031755    1.705    0.414
        10 -11.5535     38.9601      2.1403   9.6695597010e+01   7.0784102835e+01    0.6046346    0.4982494  52.16  0.004098984    1.892    0.472
        11 -11.7132     30.1070      7.2326   1.0375593008e+02   7.1256627845e+01    0.3393402    0.2789303 -12.28  0.001178825    1.129    0.115
        12 -11.5949     34.8549     13.0975   1.0437555934e+02   6.9856162658e+01    0.4144978    0.2480512 -41.13  0.001903482    1.681    0.405
        13 -11.6118     39.6097     10.4836   1.0080176372e+02   6.9622374772e+01    0.4014787    0.2415691 -22.10 0.0001643657    1.496    0.331
        14 -10.6903    156.3893     13.8078   6.9047162249e+01   4.4633548940e+01    0.2600331    0.2470492 -81.45 0.0007820623    1.088    0.081
        15 -10.6962    212.3074     12.1890   6.1656615444e+01   3.0399622010e+01    0.3506894    0.1997575 -68.82  0.001009988    1.840    0.456
        16 -10.3592    210.1706      7.4472   6.0640205081e+01   3.1428845146e+01    0.2184367    0.1501538 -40.46  0.001194731    1.432    0.302
        17 -10.3530     69.0248     11.8213   8.9341565756e+01   6.4838994345e+01    0.2997432    0.1886519 -37.61  0.001044366    1.788    0.441
        18  -9.5010    118.8684     11.8518   7.5281315467e+01   5.4243769465e+01    0.1777515    0.1577448 -88.93 0.0003757197    1.298    0.230
        19 -12.2190    150.7946      8.0116   6.7991169928e+01   4.6637256900e+01    0.5066368    0.3251569  43.47  0.002546554    1.554    0.356
        20 -10.3445     60.8642      2.8668   8.7866288736e+01   6.7273880392e+01    0.2208903    0.1653219  43.30 0.0005862819    1.378    0.274
        21 -10.7370     55.3249      7.8948   9.2613386310e+01   6.7641976377e+01    0.3021972    0.2492657 -63.67  0.001278177    2.143    0.533
        22 -11.2978     57.3829      4.8878   9.0247299789e+01   6.7649397850e+01    0.4345009    0.3818159 -86.77  0.002795998    1.989    0.497
        23 -10.8636     53.3092      4.6602   9.1760043878e+01   6.8342147031e+01    0.3026247    0.2443158 -57.17  0.001868951    2.103    0.524
        24 -11.1712     22.1766      9.3809   1.0897575339e+02   7.1811310877e+01    0.2977244    0.1840972  -8.84 0.0008981985    1.601    0.375
        25  -9.6513     10.2765      1.5694   1.1166077925e+02   7.4073391219e+01    0.1724819    0.1224784   9.54  0.001204693    1.384    0.278
        26 -11.7756      4.1271      8.8877   1.1882901142e+02   7.3392691460e+01    0.3362916    0.3246464  51.01  0.001493025    1.656    0.396
        27 -10.6434      1.9724      3.0160   1.1738586798e+02   7.4480195293e+01    0.1956445    0.1370881 -31.30  0.001262937    1.061    0.058
        28 -10.8117     11.8185      7.6482   1.1382762935e+02   7.3022064200e+01    0.3687384    0.3147737  -6.11  0.002900275    1.258    0.205
        29 -10.7376      7.9975      5.3161   1.1489986068e+02   7.3688573537e+01     0.213623    0.1777099   7.99 0.0009581171    1.371    0.270
        30 -11.7889     69.3058      6.6424   8.6719604473e+01   6.5366425993e+01     0.742376    0.2475496  49.83 0.0009516546    2.834    0.647
        31 -12.0233     80.3428      1.9127   8.0835682347e+01   6.3704928446e+01    0.4601568     0.186821  44.36  0.001286256    2.112    0.526
        32 -10.9297    217.6684      7.1322   5.9877895520e+01   2.9609783675e+01    0.2802802    0.1600197 -88.31  0.001380509    1.724    0.420
        33  -9.3928    182.9199      7.6967   6.3562508912e+01   3.8340728595e+01    0.2451551   0.05002303  52.98 0.0004371544    4.446    0.775
        34 -11.0453    145.4720      4.6704   6.7686837736e+01   4.8299589870e+01    0.4636171    0.2342714  18.44  0.001543891    3.105    0.678
        35 -10.5989    243.8646      3.0228   5.6849313056e+01   2.3853642967e+01    0.2650452    0.2046992 -14.86  0.001612835    1.686    0.407
        36 -11.2459    198.0372      3.3936   6.0738904412e+01   3.4881252652e+01    0.2825917    0.1771635  78.17  0.001462919    1.435    0.303
        37 -11.4551    130.5879      3.5702   6.9796791663e+01   5.2139460718e+01    0.3077636    0.2342806  76.67  0.001713804    1.320    0.242
        38 -10.0815    120.5107      4.2495   7.1965188475e+01   5.4547081819e+01    0.2972914    0.1639451  54.29  0.001300008    1.546    0.353
        39 -10.4206     19.8561      2.3968   1.0661679947e+02   7.3058049412e+01    0.2164689    0.1472362 -26.75 0.0009549481    1.194    0.163
        40  -9.5262     16.7147      3.3128   1.0886044811e+02   7.3239254094e+01     0.152352   0.09867851  17.97 0.0002413914    1.550    0.355
        41 -10.9235     93.0517      9.1532   8.0502382344e+01   6.0375117027e+01    0.2473109    0.1905492  28.12 0.0004257809    1.175    0.149
        42  -9.3127     67.3412      1.2921   8.4725464269e+01   6.6272306802e+01    0.1320047   0.07853254  22.89 0.0003301718    1.652    0.395
        43 -10.6171     32.4318      1.2268   9.9349287840e+01   7.1764455604e+01    0.2763292   0.09982106  37.27 0.0008820975    2.817    0.645
        44  -9.5263     21.4009    126.1911   1.3916687794e+02   4.7529160756e+01    0.1755179    0.1293003 -79.79  0.000309518    1.101    0.092
        45 -12.4768      5.2015    240.7147   1.5048481139e+02   2.5237899181e+01    0.4386134    0.1864407  52.71  0.002923925    1.667    0.400
        46 -11.2778      1.8078    248.7512   1.5130696942e+02   2.4189446003e+01     0.334331    0.1591535  87.70  0.002348816    1.712    0.416
        47 -12.8039      9.6067    245.3449   1.4997271482e+02   2.4002362088e+01    0.5152347    0.2276041  32.30   0.00307028    2.852    0.649
        48 -10.1990      3.3120    118.9962   1.4326613899e+02   5.0484579258e+01    0.1697654    0.1224918 -80.55  0.000555843    1.072    0.067
        49 -10.4646      4.1258    113.8243   1.4250394045e+02   5.1608821775e+01    0.2847005    0.1373793  -1.56  0.001371311    3.740    0.733
        50 -10.1075    249.0139    111.7157   8.1692488710e+01   7.8196157136e+00    0.1876211    0.1798494  -7.45 0.0008205955    1.083    0.077
        51 -10.4692     65.5389    111.0604   1.2394245025e+02   4.6358299898e+01    0.2823091    0.1205723 -57.30  0.001168891    2.068    0.516
        52 -10.9765      9.0105    111.9616   1.4091700902e+02   5.1725107068e+01    0.1779695     0.134157  82.20  0.001185957    1.251    0.201
        53 -11.5767      4.9154    108.8411   1.4172619985e+02   5.2693974482e+01     0.287764    0.2228961   9.05  0.001992076    1.737    0.424
        54 -10.4185     58.4544    107.5424   1.2537798508e+02   4.8112634219e+01    0.2343467    0.1697512 -31.59 0.0009419693    1.655    0.396
        55  -9.6216     79.2751    106.9755   1.1889130391e+02   4.5322212295e+01    0.2035952     0.175849 -59.32 0.0004327894    1.071    0.067
        56  -9.2958     34.4475    107.4707   1.3274604845e+02   5.0757935502e+01    0.1281877    0.1069877 -74.42 4.281931e-05    1.039    0.037
        57  -9.5509     18.6643    104.6980   1.3712493974e+02   5.2724264144e+01    0.1248038   0.07698215 -44.90 0.0003493481    1.662    0.398
        58  -9.8075    113.4873    102.5065   1.0774735726e+02   4.0219601984e+01    0.1504711     0.146647 -62.79 0.0001241798    1.002    0.002
        59  -9.7529     66.6372    101.8433   1.2160534648e+02   4.8369193075e+01    0.1997777    0.1223328 -67.74 0.0009406794    1.685    0.406
        60 -10.5647     57.9840    101.4765   1.2425183053e+02   4.9593607649e+01    0.2242185    0.1690714 -60.54  0.001253768    1.175    0.149
        61  -9.3826    129.5033     97.5113   1.0200773654e+02   3.7912699810e+01    0.1529337    0.1515651 -68.74 0.0002592076    1.000    0.000
        62  -9.8680    100.9889     96.1662   1.0963175577e+02   4.4056684421e+01    0.3793726    0.2020968 -63.70    0.0014049    2.598    0.615
        63 -10.2213     38.6263     96.8026   1.2950628941e+02   5.2844670993e+01    0.2657515    0.1729913  88.46 0.0004247412    1.863    0.463
        64 -11.4164     17.9065     94.4920   1.3580960273e+02   5.5125176785e+01    0.3300143    0.2200535 -40.86  0.002008664    1.555    0.357
        65 -10.7411     20.4857     91.4583   1.3446774449e+02   5.5631771238e+01    0.2150566     0.175911 -62.43 0.0006369807    1.034    0.033
        66 -10.6456     78.8220     94.8469   1.1607060114e+02   4.8183277001e+01    0.2101755    0.1818669 -33.95 0.0003467411    1.182    0.154
        67  -9.9276      3.3958     95.2532   1.4051651838e+02   5.5860293125e+01    0.1640842   0.09150426 -82.72 0.0005034679    1.582    0.368
        68 -10.7222     84.1513     93.8499   1.1413548310e+02   4.7550095129e+01    0.2963904    0.2427832  20.84  0.001268671    1.399    0.285
        69 -11.1431     27.6093     91.0658   1.3203872580e+02   5.5164016114e+01    0.5400243    0.2828973  56.05   0.00259344    2.653    0.623
        70  -9.7704     25.4098     85.1739   1.3166501146e+02   5.6684449962e+01    0.2643164    0.1710293 -75.71 0.0007475514    1.480    0.324
        71 -10.3529     58.1111     91.6950   1.2199672148e+02   5.1839053482e+01    0.2788348     0.198032 -13.16 0.0009575841    1.916    0.478
        72  -9.2923     38.4777     92.4515   1.2869093567e+02   5.3864282293e+01    0.1301675      0.10832 -55.18 -3.768404e-06    1.058    0.055
        73 -11.3731     11.1828     88.1049   1.3698759171e+02   5.7022361840e+01    0.5607786    0.1960096 -68.17   0.00258708    2.218    0.549
        74 -10.3308     16.1187     89.1675   1.3552458872e+02   5.6462236242e+01    0.2362853    0.1659058 -16.28 0.0009648853    1.822    0.451
        75  -9.6637    118.6517     90.3102   1.0289331220e+02   4.1777931957e+01    0.1567549    0.1221716  89.93  0.000704504    1.711    0.416
        76 -10.5126     76.4206     89.2429   1.1537102762e+02   4.9819958918e+01    0.2457493    0.2339103 -46.93 0.0003981373    1.033    0.032
        77  -9.9346     44.1009     89.6290   1.2621060473e+02   5.3939494654e+01    0.2632926    0.1431665  42.07  0.001307599    2.126    0.530
        78 -10.4688      1.7715     89.6822   1.4028730121e+02   5.7198303359e+01    0.2095352     0.121756 -69.69 0.0002186226    1.312    0.238
        79 -10.9794    104.0300     88.0025   1.0642880933e+02   4.5249374701e+01    0.2382613     0.186639 -88.30 0.0008215182    1.708    0.415
        80  -9.1096    250.6724     87.7074   7.5878900549e+01   1.1178444600e+01    0.1334531    0.1052866  13.48 0.0002285465    1.623    0.384
        81  -9.8048    124.0467     86.8628   1.0039267385e+02   4.1325928149e+01    0.2360128    0.2106998 -87.49 0.0008361675    1.266    0.210
        82 -10.8724     54.6443     84.4142   1.2139300372e+02   5.3921485325e+01    0.3116955    0.2102784 -59.59 0.0009516189    1.354    0.261
        83  -8.8313    129.2936     83.7077   9.8036943047e+01   4.0791788355e+01    0.1515079    0.1225837 -82.37 0.0002144871    1.554    0.357
        84  -9.8624     78.1042     83.2344   1.1317003015e+02   5.0884079810e+01    0.1830028    0.1768856  44.28 0.0003258898    1.126    0.112
        85 -10.2996      3.9769     82.7788   1.3856734546e+02   5.8626221185e+01     0.219756     0.136949 -69.28 0.0008742253    1.248    0.199
        86 -10.1709     89.2769     80.5383   1.0876669222e+02   4.9587119566e+01    0.3292428    0.1843645 -51.50  0.001194232    1.767    0.434
        87 -11.6974     63.8499     79.0652   1.1680771562e+02   5.3912322770e+01    0.6733654     0.427336 -45.49  0.003449534    1.421    0.296
        88  -9.3062    124.3882     79.2009   9.7971377145e+01   4.2787450157e+01    0.2105141    0.1407295 -51.79 0.0004981179    1.607    0.378
        89  -9.7682    250.3772     80.8151   7.4299859091e+01   1.2279485189e+01    0.1925615    0.1230856 -24.54 0.0006525831    1.632    0.387
        90  -9.6113     19.3386     79.6912   1.3272024588e+02   5.8374844671e+01    0.1183876   0.08612623  74.04 0.0004088095    1.684    0.406
        91 -10.0054    176.9718     77.0533   8.5039844393e+01   3.0411504177e+01    0.2439923    0.2356713  87.10  0.001300579    1.024    0.024
        92 -10.9534     55.6673     75.6638   1.1874316914e+02   5.5732624288e+01    0.3002393    0.2455646  -3.05 0.0006325681    1.397    0.284
        93 -10.4226     15.5260     75.9451   1.3335651512e+02   5.9468835899e+01    0.1661599    0.1559535 -38.68 0.0007730651    1.200    0.167
        94  -9.4478     74.9632     75.5678   1.1198803114e+02   5.3031055647e+01    0.1863707     0.137548  34.25 2.069489e-05    1.460    0.315
        95 -11.5330     34.3159     72.9116   1.2580816290e+02   5.8660432565e+01    0.4938523    0.3440435  18.67  0.002940738    1.702    0.413
        96  -9.8888    136.6682     74.0918   9.3161001567e+01   4.0934538107e+01    0.2136162    0.1945048 -27.83 0.0004551355    1.120    0.107
        97 -10.9181      3.7259     73.7461   1.3719957224e+02   6.0635653831e+01    0.2906121     0.201213  17.67  0.001152444    1.822    0.451
        98  -9.2108     95.6733     73.2632   1.0449423958e+02   4.9923274045e+01    0.1387787    0.1159668  84.34 0.0002842864    1.565    0.361
        99 -10.2967     81.0712     72.5343   1.0900136082e+02   5.2677771891e+01    0.2772073    0.1956186 -64.22  0.001307918    1.725    0.420
       100  -9.6427    216.8231     72.2270   7.6820226636e+01   2.1259595733e+01    0.1926514    0.1723678  14.41 0.0004977401    1.313    0.238
       101 -10.2408    105.8549     71.4729   1.0079629024e+02   4.8274976716e+01    0.2452493    0.2025649 -38.54 0.0004721035    1.182    0.154
       102  -9.6295     92.4606     72.4589   1.0525435442e+02   5.0686790148e+01    0.2648041    0.1802338 -71.26 0.0001079321    2.243    0.554
       103 -10.2411     47.1110     69.2898   1.2009943365e+02   5.8132327995e+01    0.3918803    0.1773695  17.12  0.001524391    3.398    0.706
       104 -10.1065     10.2614     68.7436   1.3388204750e+02   6.1375807557e+01    0.2620449     0.122064 -57.66  0.001427147    1.597    0.374
       105  -9.4825    114.7512     66.7537   9.6648044492e+01   4.7298353815e+01    0.2402971    0.1758315 -80.37   0.00104604    2.112    0.526
       106  -8.9582     57.3351     67.6520   1.1583904084e+02   5.7234498036e+01      0.13099     0.104514  85.51 0.0007048058    1.776    0.437
       107 -11.5691     34.2918     65.1187   1.2383341453e+02   6.0350679571e+01    0.2547778    0.2011448 -40.61 0.0004225541    1.103    0.094
       108 -11.4117     39.7369     61.8824   1.2081645764e+02   6.0500222821e+01      0.64484    0.2370267 -40.40  0.002510857    2.728    0.633
       109 -11.0441     16.9787     64.2122   1.3034720897e+02   6.1935623155e+01    0.2800839     0.249655  -4.98  0.002030105    1.305    0.234
       110 -10.5697    131.0326     63.9649   9.1326552185e+01   4.4102859975e+01    0.5868085    0.3655561  74.09  0.002300008    2.409    0.585
       111  -9.0160    101.5063     65.4738   1.0012879615e+02   5.0312742167e+01    0.1445215    0.1388415 -14.29 0.0008100147    1.017    0.017
       112  -9.0690    109.6757     64.2872   9.7282764790e+01   4.8846935636e+01    0.1439294     0.118884 -84.94 0.0003265475    1.605    0.377
       113 -10.0178     72.7345     63.4922   1.0896513112e+02   5.5870756701e+01     0.285439    0.1588967 -57.32  0.001127891    2.142    0.533
       114 -10.4694      2.5357     60.1093   1.3513103945e+02   6.3640619043e+01        0.263    0.1680341  71.27  0.001555386    2.198    0.545
       115 -10.8063      7.7055     55.8953   1.3215554727e+02   6.4268056105e+01    0.2215035    0.2138688  86.69 0.0009660135    1.293    0.227
       116 -11.0756      7.4594     63.1943   1.3383161866e+02   6.2731977498e+01    0.2875905     0.173167 -27.15  0.001746477    1.814    0.449
       117 -10.6456      8.7746     59.6054   1.3255214403e+02   6.3425616574e+01    0.2209986    0.1806973 -24.61  0.001241869    1.300    0.231
       118 -10.6316     62.8568     62.2950   1.1213685641e+02   5.7588524037e+01    0.2716454    0.1726351 -38.88   0.00100723    1.443    0.307
       119 -10.9137     54.4528     57.2069   1.1364155623e+02   5.9749310878e+01    0.6089672    0.2782286 -56.87  0.002596822    2.475    0.596
       120 -10.4974      2.4536     53.9497   1.3387866936e+02   6.4942844637e+01    0.3947635    0.1297199 -32.21  0.001330542    3.733    0.732
       121 -11.1364     11.0293     48.6605   1.2899012931e+02   6.5576810166e+01    0.5867262    0.2133769  18.18  0.002846776    3.285    0.696
       122 -11.2356     16.7212     44.7513   1.2540995654e+02   6.5995667183e+01    0.3534685    0.3181171 -30.19  0.002191904    1.164    0.141
       123 -12.7037     20.9963     57.7793   1.2718428255e+02   6.3019119053e+01    0.4325329    0.3604515  75.80  0.002239807    1.577    0.366
       124 -11.1818     20.2499     50.9007   1.2564315531e+02   6.4499299935e+01    0.4792438    0.1703776 -52.78  0.001537389    2.090    0.522
       125 -10.4200     51.5353     59.3188   1.1544926546e+02   5.9692988656e+01    0.3699152    0.2126136 -62.20   0.00128405    2.078    0.519
       126 -11.1200     83.4533     56.9704   1.0301285152e+02   5.5334242212e+01    0.2965351    0.2121247 -41.07 6.277442e-05    1.342    0.255
       127 -11.8314     87.3667     53.9882   1.0062981133e+02   5.5171002604e+01    0.4406934    0.3082868  37.76  0.001305179    1.459    0.315
       128  -9.6272     71.4314     57.7227   1.0748159123e+02   5.7209090131e+01    0.1817478    0.1191304 -33.92 0.0002999232    1.458    0.314
       129 -10.4025     60.5321     57.8331   1.1153370965e+02   5.8807778049e+01    0.2181931    0.2164061 -11.56 0.0006824509    1.191    0.160
       130  -9.6784    157.8996     56.5614   8.2706801911e+01   3.8692097161e+01    0.2871687    0.1620124 -53.45  0.001127496    2.150    0.535
       131 -11.9722     66.5516     52.6285   1.0747705945e+02   5.8936154548e+01    0.6038043     0.318029  34.77  0.002418551    2.032    0.508
       132 -11.0371    114.9095     53.9908   9.2216823572e+01   4.9526571976e+01    0.3461677    0.2877716  34.09  0.001619473    1.193    0.162
       133 -10.1267    106.5598     53.4786   9.4426748921e+01   5.1433525507e+01    0.3654029    0.2418772 -64.39  0.001558354    2.357    0.576
       134  -9.4436    162.4913     54.4715   8.1115666354e+01   3.7838876163e+01    0.1509747    0.1455955  64.64  0.000463845    1.011    0.010
       135  -9.8070     34.6757     53.2566   1.2028388805e+02   6.2784112131e+01    0.2515539    0.1357394 -30.33 0.0009298753    1.983    0.496
       136  -9.3059    176.1923     52.3384   7.7883363880e+01   3.4610542330e+01    0.2023974    0.1380714  73.16 0.0009124409    1.544    0.352
       137 -10.0334     46.4064     49.7895   1.1433752649e+02   6.2206667355e+01    0.4284447     0.133531 -39.62  0.001573406    3.258    0.693
       138  -9.1938    147.6114     49.8243   8.2703541518e+01   4.2354189564e+01    0.2087296    0.1347839 -44.76 7.147589e-05    1.640    0.390
       139  -9.8978     38.1905     49.0163   1.1746974412e+02   6.3275396368e+01     0.197005    0.1390263 -30.41  0.001181109    1.286    0.223
       140  -9.4434     53.6242     48.2307   1.1088090759e+02   6.1600672454e+01    0.1880272    0.1039676 -37.23 0.0004487394    1.645    0.392
       141  -9.9199    105.4928     47.4736   9.2547700942e+01   5.2661010531e+01    0.2651415    0.1404005  61.71  0.001034415    2.572    0.611
       142 -10.6853     77.9455     46.1503   1.0094045637e+02   5.8248696517e+01    0.3436579     0.246893  21.31 0.0008980061    1.495    0.331
       143 -10.2748     68.6239     46.8639   1.0458946957e+02   5.9673604855e+01    0.2107018    0.1745146  21.47 0.0002637732    1.225    0.184
       144  -9.4372     64.6855     46.2761   1.0584928941e+02   6.0390476653e+01    0.1976774    0.1319633  38.29 0.0004163973    1.614    0.381
       145  -9.7296     30.6999     46.9970   1.1998863726e+02   6.4412574757e+01    0.2243678    0.1797101 -45.25 0.0009186451    1.098    0.089
       146 -10.9619     19.7389     31.7007   1.1974652869e+02   6.8278286447e+01     0.501365    0.2498092  -8.11  0.002180781    2.898    0.655
       147 -11.1234     25.4067     43.2520   1.2108895536e+02   6.5617801581e+01    0.3299694     0.220899 -61.16 0.0008884885    1.554    0.356
       148  -9.7850     26.3435     30.6645   1.1620362831e+02   6.7894754852e+01    0.1682914    0.1395654 -62.04  0.001068956    1.545    0.353
       149 -10.3921     22.7412     38.5950   1.2074855211e+02   6.6740155653e+01    0.2115306    0.1911414 -53.84 0.0007335737    1.279    0.218
       150 -11.1324     26.5351     35.1877   1.1780566156e+02   6.7052752931e+01    0.3743353    0.1943481 -37.53  0.001200403    1.627    0.385
       151  -9.4300     91.4419     44.5161   9.5755874209e+01   5.6024433170e+01    0.1397689    0.1271307  -0.55 7.679915e-05    1.017    0.016
       152 -10.1613    182.1935     40.7753   7.3412950386e+01   3.4688341819e+01    0.3608986    0.2481602  56.94  0.001182924    1.398    0.284
       153 -10.4772     70.3810     41.1687   1.0173808112e+02   6.0381730680e+01    0.3407722     0.207091 -26.81  0.001075795    1.661    0.398
       154 -10.4192      2.7980     41.6930   1.3080581206e+02   6.7435037803e+01     0.348769    0.1566807 -24.71  0.001836489    2.536    0.606
       155  -9.0183    212.2855     41.0333   6.9221723269e+01   2.6928320898e+01    0.1586902    0.1236788 -34.94 0.0002973902    1.295    0.228
       156 -10.9178    139.6706     40.3088   8.1211076886e+01   4.5740954269e+01     0.364421    0.2256181 -38.68  0.001354955    1.680    0.405
       157 -10.2214     36.0424     40.5718   1.1547295101e+02   6.5121110584e+01    0.3295619    0.1636915 -39.51  0.001708814    1.724    0.420
       158  -9.3686     51.2599     39.6033   1.0861871295e+02   6.3493365654e+01    0.2506127    0.1419015 -53.31 0.0009886824    2.061    0.515
       159  -9.1213     42.9876     40.7424   1.1253001374e+02   6.4318992975e+01    0.1413859    0.1042113  21.21 0.0004245632    1.453    0.312
       160 -10.6160     13.0252     38.2263   1.2511706741e+02   6.7532528548e+01    0.3488826    0.1192822 -53.33  0.001695649    2.155    0.536
       161 -11.9340    121.4165     36.5817   8.4153765147e+01   5.0705574110e+01    0.5349689    0.4468356 -88.35  0.002837876    1.488    0.328
       162 -10.1940    130.7976     37.8459   8.2350303009e+01   4.8277163381e+01    0.2634226    0.2042186  53.57 0.0009377638    1.224    0.183
       163 -11.7576    145.0543     33.0377   7.7565046289e+01   4.5356989795e+01    0.3001137     0.263979 -48.23  0.001647726    1.216    0.178
       164 -10.4278    140.0099     27.4852   7.6650337282e+01   4.7327069675e+01    0.4879797    0.3904496  86.52  0.002564899    1.399    0.285
       165 -10.1839     70.2039     35.3786   9.9463562042e+01   6.1363479253e+01    0.3583585     0.166472 -30.26  0.001571396    2.218    0.549
       166 -11.0312      2.3140     34.7165   1.2911510166e+02   6.8835144122e+01    0.4004688    0.1633687 -50.80  0.001745379    1.727    0.421
       167  -9.3856     54.6889     34.6322   1.0521924082e+02   6.3883238362e+01    0.2238633    0.1184337  23.82  0.001072123    2.223    0.550
       168 -10.9762     50.3300     33.7610   1.0667326556e+02   6.4630649882e+01     0.247432    0.2004424 -17.91 0.0004011933    1.059    0.055
       169 -11.0868    134.3302     33.9678   8.0157625192e+01   4.7931188929e+01    0.2457454    0.1874684  46.59 0.0003301077    1.235    0.190
       170  -9.9157    166.7414     31.8701   7.3196329353e+01   3.9892159392e+01    0.3989928    0.1345053 -38.64  0.001394046    2.900    0.655
       171 -11.6524     44.0309     28.8932   1.0735584276e+02   6.6264990452e+01     0.490568    0.3306199 -21.12  0.002924348    1.379    0.275
       172 -10.3963    150.2705     29.6113   7.5380796287e+01   4.4451850487e+01    0.3996366      0.17175  64.78   0.00138833    2.271    0.560
       173  -9.4280    187.5291     29.4984   6.9305436223e+01   3.4747970198e+01    0.2740166    0.1068531  55.42  0.001033949    2.376    0.579
       174  -9.7499    104.0163     29.4251   8.5996611781e+01   5.5642847815e+01     0.309297     0.153689  37.04   0.00130281    2.134    0.531
       175 -10.2707     69.6686     28.3386   9.6678566035e+01   6.2536506514e+01    0.2398873    0.1914001 -38.47 0.0009303961    1.364    0.267
       176 -10.2212    194.9985    249.7478   1.1779423638e+02  -2.8336487745e+00    0.1589333   0.07954436  38.94 0.0006795349    1.553    0.356
       177 -11.4730     16.9927    249.4950   1.4898323387e+02   2.2537603426e+01    0.2450037   0.07968102  38.56  0.001357458    2.706    0.630
       178  -9.6337    218.6270     25.7923   6.4504770535e+01   2.7285083136e+01    0.1998034    0.1090087 -43.49  0.000869323    1.701    0.412
       179  -9.2834    200.9813     26.0092   6.6569944941e+01   3.1695397354e+01    0.1662424    0.1517253 -71.94  0.000967232    1.041    0.040
       180 -10.1352    153.9116     25.9204   7.3475968914e+01   4.3955277431e+01    0.3403081    0.2021508  75.85  0.001107815    1.816    0.449
       181 -10.1817     59.0367     24.4487   9.9062704634e+01   6.4846224380e+01    0.2483764    0.1573335 -17.39  0.001035502    1.595    0.373
       182  -9.5853     34.3673     25.1815   1.1017263974e+02   6.8026177030e+01    0.1570102    0.1009791 -47.28 0.0005818154    1.585    0.369
       183 -10.2683     50.6152     23.1670   1.0197233247e+02   6.6290457605e+01    0.2249188    0.1995764  67.26    0.0011271    1.808    0.447
       184  -9.9519     85.8629     17.1410   8.6172963544e+01   6.1000675131e+01    0.2108139    0.1704556  52.91 0.0003157005    1.337    0.252
       185  -9.6170     89.3842     22.8000   8.7554271414e+01   5.9596096466e+01    0.2360787    0.1580699 -28.26 0.0009738534    1.502    0.334
       186  -9.8146     85.0079     21.2165   8.8244397629e+01   6.0674857773e+01    0.3774047    0.1333941  41.47  0.001264089    2.761    0.638
       187 -11.1245     33.3852    247.5332   1.4625575365e+02   2.1085708004e+01    0.2369608    0.1437334  30.11  0.001329597    2.303    0.566
       188 -11.6835     23.9128    121.8589   1.3793935820e+02   4.8326720702e+01     0.457197    0.2215681  89.41 0.0005858896    2.337    0.572
       189  -9.2244    136.3265    245.6624   1.2791115789e+02   7.0708848455e+00     0.123171    0.0784054  63.60 0.0005020389    1.726    0.420
       190  -9.4205    124.8322     21.7396   7.7773146405e+01   5.1759833920e+01    0.1805042    0.1617994 -62.76  0.001030244    1.287    0.223
       191 -10.7754     20.0122     16.8170   1.1362129300e+02   7.0850524403e+01    0.3309337    0.1909711   9.97  0.001349163    1.899    0.473
       192 -11.1346     13.1222     20.2289   1.1868082555e+02   7.0844168448e+01    0.3066084    0.2910255  67.20  0.001495569    1.630    0.387
       193  -9.6631    217.4853    245.0000   1.1316933194e+02  -5.7148626002e+00    0.2581677   0.05326688  40.69 0.0009309858    3.904    0.744
       194  -9.7485      1.7739     21.5523   1.2518029835e+02   7.1339298216e+01     0.207462     0.120383 -52.19  0.001309925    1.380    0.276
       195  -9.9275      7.5599     28.0377   1.2444543628e+02   6.9816421067e+01    0.1829879    0.1465823  29.33  0.000824436    1.619    0.382
       196  -9.8402    146.6649    244.3095   1.2584549718e+02   5.6219159032e+00    0.1222553   0.07979777  61.52  0.000704318    1.678    0.404
       197 -10.3313     46.0047     16.4736   1.0085025798e+02   6.7920460144e+01    0.2106886    0.1439433  -7.71 0.0008087506    1.405    0.288
       198 -10.3420     31.1128     19.9004   1.0940645490e+02   6.9245792706e+01    0.2386151    0.1473106 -42.12  0.001446269    1.495    0.331
       199 -10.8114     37.6695    241.7574   1.4522574845e+02   2.1597531392e+01      0.35449    0.1111681  65.80   0.00153099    3.675    0.728
       200  -9.8255    175.5086     20.4779   6.8312564061e+01   3.8940738284e+01    0.1423345    0.1297604  74.39  4.17779e-05    1.026    0.025
       201  -9.1058    131.6602     20.6604   7.5904251657e+01   5.0206405911e+01    0.1546275   0.09694623  31.74 0.0007050129    1.766    0.434
       202  -9.6908    202.5000    240.0864   1.1507450475e+02  -2.8049535699e+00    0.1507269    0.1159461 -27.68  0.000767626    1.529    0.346
       203 -10.1384    199.9238     17.0692   6.4246860661e+01   3.2991558489e+01     0.213863    0.1859716 -73.90 0.0005687605    1.060    0.057
       204  -9.9064    108.2081     16.7579   7.9743580196e+01   5.6230769780e+01    0.1793293    0.1750143  28.91 0.0003744245    1.123    0.110
       205  -9.1961     60.5017    241.0000   1.4124049385e+02   1.8937190916e+01    0.2344389    0.0517758  38.68  0.000923602    3.845    0.740
       206 -12.6506     25.5754    236.0396   1.4695056834e+02   2.3969265712e+01    0.4049597    0.2491017  40.60  0.002658148    1.655    0.396
       207 -13.2702      9.6416    229.7621   1.4931214791e+02   2.6750574580e+01    0.6266199     0.322329  88.17  0.003850037    1.586    0.369
       208 -11.8952      4.2543    232.5997   1.5031657492e+02   2.6761627484e+01    0.2850086    0.1632549  68.29 0.0004800845    1.222    0.182
       209  -9.2844    228.6404     16.2721   6.1148099096e+01   2.5961145384e+01    0.1425174   0.08518104 -67.13 0.0007000532    1.650    0.394
       210  -8.7163      1.2772     15.3161   1.2313614530e+02   7.2477013354e+01    0.1149082   0.05890028 -33.34 0.0002602576    1.569    0.363
       211 -10.4353    190.7136     13.9974   6.4452169816e+01   3.5687497509e+01    0.1905014    0.1753054 -71.33 0.0005867179    1.074    0.069
       212  -8.8116    155.5618    235.5052   1.2307044075e+02   5.4945880614e+00    0.1242147      0.10017  42.22 3.778219e-05    1.009    0.009
       213  -9.5833     76.0646     14.5518   8.8179908926e+01   6.3218756869e+01    0.1858567    0.1148107  42.90 0.0004923849    1.519    0.342
       214  -9.7954    249.1912    234.1329   1.0608822392e+02  -9.1429590082e+00    0.1736361    0.1198539  14.00 0.0005226778    1.171    0.146
       215  -8.8906     80.3099    231.6708   1.3689763208e+02   1.7924183440e+01    0.1257299   0.07067434  65.85 0.0007041004    1.665    0.399
       216  -9.3240    109.5713     13.0230   7.7882156803e+01   5.6311266418e+01    0.1862947    0.1306324 -19.46 0.0005878742    1.507    0.336
       217  -9.7816    140.0724    227.0504   1.2492601504e+02   9.4182816443e+00    0.2022533    0.1330241  64.18 0.0007053341    1.706    0.414
       218 -11.3736      2.2512    220.2980   1.5014020056e+02   2.9195489581e+01    0.3228105    0.1077923 -87.44  0.001706834    2.619    0.618
       219 -10.1002     32.6982    225.0634   1.4510179230e+02   2.5193689890e+01    0.2673037   0.09913783  50.69  0.001462266    2.042    0.510
       220 -10.1875     25.7054    225.0081   1.4633254755e+02   2.5972280712e+01    0.1553548    0.1093517  79.14 0.0005927918    1.108    0.098
       221 -11.1750      7.6901    217.6459   1.4909170569e+02   2.9182604938e+01    0.2591214     0.178357  83.55  0.001454626    1.139    0.122
       222  -9.6895    246.4833    216.5025   1.0357321403e+02  -6.7330968630e+00    0.1218935   0.09390514  11.37 0.0001172637    1.035    0.034
       223 -10.6314      3.7794    212.7625   1.4954548906e+02   3.0475088401e+01    0.2181587    0.1093339  50.13  0.001449785    1.617    0.382
       224  -9.6292    209.4159    211.8042   1.0930332769e+02  -1.6144138204e-01    0.1679358    0.1146601 -18.11 0.0009477373    1.646    0.392
       225 -10.8334     15.9199    211.8501   1.4734433775e+02   2.9490186944e+01    0.1562637    0.1288894  83.24 0.0008480391    1.251    0.201
       226  -9.7791    246.8529    206.9403   1.0182001257e+02  -5.6189978679e+00     0.189528    0.1373603   1.95  0.001076652    1.243    0.196
       227  -9.4370    197.1903    204.1466   1.1027707500e+02   3.0918548892e+00     0.170184    0.1498013  52.62 0.0005538232    1.304    0.233
       228 -10.9495      9.4816    203.2968   1.4805620206e+02   3.1785967493e+01    0.2128223     0.140081  70.69 0.0007379882    1.126    0.112
       229  -8.9538    181.5038    199.4836   1.1252458800e+02   6.6744001916e+00    0.1349733    0.1183571  37.14 0.0008099889    1.048    0.046
       230  -9.5365     23.2145    197.3865   1.4510658341e+02   3.1631953693e+01    0.1594102   0.08073951  50.13 0.0004943163    1.676    0.403
       231  -9.9748      6.5792    191.6743   1.4796818616e+02   3.4382535405e+01    0.1510557   0.07948055  84.74 0.0009312337    1.517    0.341
       232  -9.5683     15.3914    185.2156   1.4584641703e+02   3.4913451934e+01    0.1640088   0.08338839  86.83 0.0009425643    1.666    0.400
       233  -9.3999      1.3153    183.2660   1.4852187024e+02   3.6557375672e+01    0.1506579   0.07628303  88.78 0.0005515347    1.558    0.358
       234  -9.1650    250.3073    183.3368   9.6816443290e+01  -3.0886775223e+00    0.1330528   0.08623461   4.89  0.000677887    1.676    0.403
       235 -10.7373      4.7728    167.4701   1.4686673687e+02   3.9604352478e+01    0.2849874    0.1423378  57.87  0.001491584    1.793    0.442
       236  -8.8550    111.7156    162.6968   1.2135361820e+02   2.6938607247e+01    0.1325669    0.1145095 -15.30 0.0002548525    1.558    0.358
       237  -8.8573     41.7011    158.3427   1.3772176283e+02   3.8134072357e+01    0.1338702   0.08005372  72.51 0.0007035524    1.671    0.401
       238  -9.0829    247.4591    155.5358   9.1643840516e+01   1.3717961237e+00    0.1335464    0.1161563  -6.23 0.0001100559    1.005    0.005
       239 -10.1426      2.7599    153.5740   1.4634986552e+02   4.2778666311e+01    0.1544058   0.08803304  48.69 0.0009624709    1.722    0.419
       240  -9.6036     14.7958    150.5941   1.4334098202e+02   4.2495748486e+01    0.1530206   0.09489319  50.07 0.0009411901    1.601    0.376
       241 -10.2430     22.0428    143.2361   1.4089034737e+02   4.3544375826e+01    0.2243768    0.1459462 -80.02  0.001009163    1.251    0.201
       242 -10.7633     12.7820    130.5201   1.4193347385e+02   4.7209806198e+01    0.3509305    0.1585756  68.48  0.001216293    2.645    0.622
