#   1 NUMBER                 Running object number                                     
#   2 MAG_AUTO               Kron-like elliptical aperture magnitude                    [mag]
#   3 X_IMAGE                Object position along x                                    [pixel]
#   4 Y_IMAGE                Object position along y                                    [pixel]
#   5 X_WORLD                Barycenter position along world x axis                     [deg]
#   6 Y_WORLD                Barycenter position along world y axis                     [deg]
#   7 A_WORLD                Profile RMS along major axis (world units)                 [deg]
#   8 B_WORLD                Profile RMS along minor axis (world units)                 [deg]
#   9 THETA_WORLD            Position angle (CCW/world-x)                               [deg]
#  10 FWHM_WORLD             FWHM assuming a gaussian core                              [deg]
#  11 ELONGATION             A_IMAGE/B_IMAGE                                           
#  12 ELLIPTICITY            1 - B_IMAGE/A_IMAGE                                       
         1 -10.9880    156.4861     16.0029   4.3682501880e+01   4.3389058390e+01    0.3072144     0.261419  14.25 0.0008543676    1.397    0.284
         2  -9.4469    182.8321      9.0033   3.8560224736e+01   3.7254238722e+01    0.2211623    0.1502698  24.14  0.001082818    2.024    0.506
         3 -10.1420    159.0091      1.7133   3.8543354474e+01   4.4104837037e+01     0.199309    0.1715727  88.14 0.0006133266    1.066    0.062
         4 -11.3929     86.3130    248.8787   1.0985469912e+02   1.4646729638e+01    0.1259153    0.1128069  55.06 0.0008061448    1.239    0.193
         5 -16.5282    241.9508    224.0483   7.8759789023e+01  -2.3760756318e+00     3.504989     1.192905 -31.46   0.01884587    2.943    0.660
         6 -21.0771    108.9258    183.1020   9.8183459851e+01   2.2927006303e+01     9.635381      7.13217  35.77   0.05390635    1.201    0.167
         7  99.0000    179.2412    226.7853   8.9697330878e+01   5.3701817307e+00    0.3319449    0.1770319  13.71  0.001732178    2.328    0.571
         8 -10.1844    204.8014    220.7471   8.4303686446e+01   2.6473032085e+00    0.1640176   0.07914129  39.88 0.0009109607    1.973    0.493
         9 -10.6756    204.6863    215.8530   8.3593079368e+01   3.2455156328e+00    0.1389561    0.1160148  12.64  0.000288741    1.165    0.142
        10 -10.5899    214.6312    211.0713   8.1161026345e+01   2.4726781599e+00    0.1656973    0.1226898  18.97 0.0003878258    1.090    0.083
        11  99.0000    201.4872    206.3204   8.2682497471e+01   4.8674722659e+00     0.164413     0.140253  33.81 6.743358e-05    1.378    0.274
        12 -10.0027    198.6380    204.1013   8.2837366585e+01   5.5585328860e+00    0.1459121    0.1166202   9.90 0.0004155454    1.037    0.036
        13  -9.0636    209.3060    208.6098   8.1681602767e+01   3.4915257701e+00    0.2765018    0.2001799 -60.13  0.001561577    3.077    0.675
        14  -8.9650    205.3184    204.7532   8.1762268392e+01   4.5241759122e+00    0.1925532    0.1817342  45.02 0.0002040478    1.595    0.373
        15 -10.8754    208.0337    202.0109   8.0850283888e+01   4.4854839116e+00    0.2342564    0.1655105 -25.46 0.0003519164    1.444    0.307
        16 -10.9424    206.1182    198.8650   8.0672055831e+01   5.1582510880e+00    0.1726849    0.1396212   3.89 0.0002790335    1.064    0.060
        17  -9.9753    220.2719    195.7166   7.7734893578e+01   3.5451079272e+00    0.2878325    0.2255007  58.39  0.001494699    2.273    0.560
        18  -8.7082    201.3180    198.2008   8.1409633631e+01   5.9401049959e+00    0.1160892   0.07403684  16.74 0.0001796037    1.475    0.322
        19  -9.9930    212.0651    196.5408   7.9259105309e+01   4.6017784798e+00    0.1860536    0.1563905 -12.26 0.0009542662    1.224    0.183
        20 -10.0962    212.9061    188.3333   7.7726619677e+01   5.5303074819e+00    0.3195993     0.146449 -37.45  0.001299322    2.308    0.567
        21 -12.3233    112.4073    250.1015   1.0496220343e+02   1.1195332145e+01    0.2146792    0.1210593  39.70   0.00109109    1.303    0.233
        22  -8.4973      2.6200    158.4636   1.2283703201e+02   4.1090531767e+01    0.3029372    0.2132825 -66.79  0.001931323    1.519    0.342
        23  -8.9867      2.3274    150.9049   1.2257760811e+02   4.2831996926e+01    0.3512834    0.1110755  66.88  0.001410216    3.118    0.679
        24  -9.3301     12.3052    150.7628   1.1985294094e+02   4.2110191576e+01    0.1387821    0.1283668 -73.39 0.0003445535    1.258    0.205
        25  -9.5089      3.6686    145.2622   1.2193735921e+02   4.4043848340e+01    0.1461772    0.1191922 -67.08  0.000477608    1.331    0.249
        26 -10.9907     14.2062    141.3927   1.1871098853e+02   4.4163835844e+01     0.279111     0.174307  29.13  0.001282844    1.659    0.397
        27 -10.3510     18.8826    134.0043   1.1676242302e+02   4.5558874995e+01    0.1830519    0.1556604  81.05 0.0003054256    1.020    0.020
        28  -9.0114     12.9370    133.8832   1.1855265549e+02   4.6066133939e+01    0.1598218    0.1171484  64.14 -0.0006383859    1.202    0.168
        29 -11.4624     56.1932    250.4866   1.1571621525e+02   1.7926426147e+01    0.1437168   0.08598819  38.59 0.0003777868    1.249    0.199
        30  -9.4219     11.3279    129.6962   1.1873654688e+02   4.7202775956e+01    0.1842826   0.09534244 -69.62 0.0009327118    1.746    0.427
        31  -9.7907     15.0276    128.3156   1.1748257972e+02   4.7258328613e+01    0.1931826    0.1523439  87.04 0.0009751125    1.092    0.084
        32 -10.1116      6.8904    125.4667   1.1981359632e+02   4.8546745098e+01    0.1717404    0.1400847  84.71 0.0002916887    1.033    0.032
        33 -11.3634     24.0025    123.4984   1.1418264590e+02   4.7701454470e+01     0.317849    0.2159484  64.26 0.0008354943    1.394    0.282
        34 -10.1251     37.2182    119.1462   1.0931278776e+02   4.7511039537e+01    0.2328593    0.1784671  46.19 0.0003449135    1.284    0.221
        35 -10.5523     32.4804    117.1245   1.1064089227e+02   4.8502776066e+01    0.2242064    0.1871323  42.29 0.0003255095    1.229    0.186
        36 -12.1525     29.9437    112.6243   1.1093152399e+02   4.9881781895e+01    0.2781247    0.2404332  63.25 0.0003051165    1.116    0.104
        37 -11.2992     24.4538    110.8666   1.1262529244e+02   5.0824796712e+01    0.2353089    0.2174422 -79.97 0.0002723626    1.093    0.085
        38 -10.9723     64.8487    247.0728   1.1386349629e+02   1.7482448075e+01    0.2547259    0.1197885  48.44  0.001547829    1.597    0.374
        39 -11.0514     61.6959    242.6445   1.1420022672e+02   1.8555029821e+01    0.1690546    0.1509827 -70.84   0.00135956    1.482    0.325
        40 -11.1561     32.9518    107.3199   1.0914587948e+02   5.0930911733e+01    0.2840926    0.2230919  84.84 0.0003099983    1.205    0.170
        41 -12.6873     60.5201    249.9977   1.1486748300e+02   1.7517091549e+01    0.1899646    0.1573374  55.90 0.0008552176    1.177    0.151
        42  -9.2293     38.2860    106.0220   1.0703320321e+02   5.0709069220e+01    0.1866093    0.1619935 -85.78  0.000271425    1.051    0.048
        43 -11.2237     59.5874    246.1587   1.1482131686e+02   1.8230418853e+01    0.1824903    0.1539913  52.23 0.0004891575    1.180    0.153
        44 -10.8387    155.9849    248.3835   9.6646487614e+01   5.7620165965e+00    0.1229523   0.08048292  28.10 0.0005127629    1.150    0.131
        45 -10.6264    159.3740    247.8582   9.5969942981e+01   5.3856976092e+00     0.110883   0.05608631  21.66 0.0001292485    1.971    0.493
        46 -11.3089     42.1482     97.9073   1.0422794702e+02   5.2337518754e+01    0.4536443     0.282822 -35.92  0.001011156    1.984    0.496
        47 -10.3123     47.9406    247.1489   1.1710648931e+02   1.9365354573e+01    0.1112416   0.09405149  66.14  0.000305324    1.243    0.195
        48 -11.0594     43.3012    245.8605   1.1792622609e+02   2.0073049744e+01    0.1363871    0.1088409  52.28 0.0003787909    1.135    0.119
        49 -10.8007     47.7559     89.5887   1.0041792503e+02   5.3762832092e+01    0.2643671    0.2278839  76.80 0.0003431125    1.192    0.161
        50 -11.3688     44.4690     86.4919   1.0104722559e+02   5.4942797267e+01     0.278235    0.2547377 -89.41 0.0007556408    1.068    0.063
        51 -10.4437     38.1483     90.1556   1.0431682263e+02   5.4744264500e+01    0.2033464    0.1756256 -50.98  0.000304658    1.161    0.139
        52 -10.9033    128.9658    249.5170   1.0177574674e+02   9.1396326955e+00    0.1493846    0.1406947  26.26  0.001227942    1.281    0.219
        53 -11.9743    157.6017    241.1378   9.5511010182e+01   6.4663021341e+00    0.2288791    0.1827212   1.39  0.001697518    1.323    0.244
        54 -10.8308    150.3199    242.3103   9.7000409477e+01   7.2856088655e+00    0.1202894    0.0770692  42.18 0.0005696499    1.390    0.281
        55 -10.5084     17.7446     87.9573   1.1215270757e+02   5.7162905838e+01    0.2100763    0.1823548  49.27 0.0002590902    1.223    0.182
        56 -16.8504     12.4122    227.6270   1.2317037469e+02   2.6262828341e+01     3.124881     1.449352 -88.40   0.01929366    2.167    0.539
        57 -10.5058    210.0486    236.1480   8.5615394728e+01   2.3729598472e-01    0.1383502   0.09935855  14.39            0    1.028    0.027
        58 -10.2999     65.4159     82.1433   9.1751024566e+01   5.3085969124e+01    0.2322069    0.2017277  18.07 0.0003825083    1.283    0.221
        59 -10.6519    192.0342    235.8677   8.8646714963e+01   2.5605907752e+00    0.1100574   0.08857138   5.03  0.000279513    1.166    0.142
        60 -10.2615    137.4107    236.4604   9.8786045545e+01   9.8212350877e+00    0.1155264   0.08862478  23.18 0.0001088471    1.159    0.137
        61 -11.0730    168.0384    235.7138   9.2922860654e+01   5.7595617424e+00    0.1024001   0.07880152  26.97 0.0002767972    1.057    0.054
        62 -10.7763    157.2668    234.4685   9.4768758864e+01   7.3834958640e+00    0.2515636   0.08842671  36.20  0.001212229    2.190    0.543
        63 -11.7218    163.5588    233.3390   9.3451135863e+01   6.6731800004e+00    0.1339062    0.1080778  22.33 0.0005367154    1.069    0.065
        64 -10.4827    195.6376    231.8139   8.7468424742e+01   2.5613308783e+00    0.1173138     0.097087 -12.16 0.0002797348    1.321    0.243
        65 -10.8780     93.9460     76.3178   7.9812870662e+01   4.9196507839e+01    0.2684514    0.2208826 -47.56 0.0004587048    1.208    0.172
        66 -10.8079     90.9785     73.3152   7.9845909599e+01   5.0457893253e+01    0.2645001    0.2232015 -47.84 0.0007047827    1.176    0.149
        67 -11.3238     49.4435     75.6117   9.6404462165e+01   5.7006441454e+01    0.2651436    0.2373872 -35.35 0.0007479401    1.157    0.135
        68 -11.0011    170.7812    232.0254   9.1945968960e+01   5.8583691719e+00    0.1314094    0.1109274   6.23 0.0004820864    1.183    0.155
        69 -10.9854     82.8604     73.0774   8.2591096359e+01   5.2120840850e+01    0.2481955     0.244168 -71.63  0.000381214    1.012    0.012
        70 -10.5623     66.9357     70.4971   8.7770357939e+01   5.5584873455e+01    0.2213569      0.14398  39.40  0.001027228    1.584    0.369
        71  -9.9105    176.0918    231.2733   9.0875036814e+01   5.2322890311e+00    0.2446765   0.08853586  34.48  0.001031772    2.190    0.543
        72 -11.4012    114.0772     72.3313   7.2327171686e+01   4.5629224591e+01    0.2940835      0.22652 -51.02  0.000562227    1.332    0.249
        73 -10.4792     47.1293     68.8784   9.5571750162e+01   5.8944645087e+01    0.2116138     0.187543  81.45 0.0004698354    1.229    0.186
        74 -11.9253    199.7711    228.6977   8.6317839103e+01   2.3822754727e+00    0.2544893    0.1681431  47.60  0.001523843    2.058    0.514
        75  -9.9263     66.8466     63.1760   8.5427385701e+01   5.7264346126e+01    0.1980751    0.1693048 -17.13  0.000268199    1.300    0.231
        76 -10.3813    190.6479    229.9042   8.8079030961e+01   3.4445161251e+00    0.1284823    0.1047606   9.80 0.0002332784    1.129    0.114
        77  -9.3198    180.4400    230.4432   8.9975436516e+01   4.7475355879e+00    0.1235285    0.1093267  11.96  0.000131411    1.241    0.194
        78 -10.8986    124.7795    245.8141   1.0219967398e+02   1.0195866353e+01     0.285188    0.1453269 -41.73  0.001654869    2.740    0.635
