#   1 NUMBER                 Running object number                                     
#   2 MAG_AUTO               Kron-like elliptical aperture magnitude                    [mag]
#   3 X_IMAGE                Object position along x                                    [pixel]
#   4 Y_IMAGE                Object position along y                                    [pixel]
#   5 X_WORLD                Barycenter position along world x axis                     [deg]
#   6 Y_WORLD                Barycenter position along world y axis                     [deg]
#   7 A_WORLD                Profile RMS along major axis (world units)                 [deg]
#   8 B_WORLD                Profile RMS along minor axis (world units)                 [deg]
#   9 THETA_WORLD            Position angle (CCW/world-x)                               [deg]
#  10 FWHM_WORLD             FWHM assuming a gaussian core                              [deg]
#  11 ELONGATION             A_IMAGE/B_IMAGE                                           
#  12 ELLIPTICITY            1 - B_IMAGE/A_IMAGE                                       
         1 -11.2314    186.0208     26.1687   7.0172795373e+01   3.5376858639e+01    0.7701809    0.5206378  78.93  0.003182942    1.497    0.332
         2 -11.4797    193.4133     18.8027   6.7077413019e+01   3.4319578750e+01    0.9540334    0.7087079 -56.27  0.004615042    1.353    0.261
         3 -10.9881    199.7393     11.4143   6.4283996491e+01   3.3501785151e+01      0.57925    0.3946001  20.49  0.001257496    2.053    0.513
         4 -10.8030     41.4962     10.3956   1.0080203003e+02   6.8669216963e+01    0.2728755    0.2520157 -82.80  0.001871805    1.947    0.486
         5  -9.2385     59.4741      8.9919   9.2786010274e+01   6.6156723072e+01    0.1897594    0.1084838 -25.91  0.001042924    1.624    0.384
         6 -10.6878    208.3309      2.4085   6.1015172671e+01   3.2253567517e+01    0.6298293    0.2861619  74.21  0.002838568    2.033    0.508
         7  -7.9766     73.6833      2.3083   8.4592170423e+01   6.4361371448e+01    0.1121619   0.09818684 -55.38 0.0004683468    1.633    0.388
         8 -10.7113     75.3018    241.5408   1.3955855929e+02   1.7055847678e+01    0.3338772    0.1687324  60.39  0.001362443    1.708    0.414
         9  -9.6571    127.4679    249.3316   1.3117761821e+02   8.2733599786e+00    0.2341246    0.1153058 -60.59  0.001305364    2.630    0.620
        10  -9.5271    114.9201    247.7028   1.3321036327e+02   1.0415192690e+01    0.4552666    0.1027604 -57.16  0.001783513    5.345    0.813
        11 -11.7071    103.3880    242.7151   1.3474894858e+02   1.2912153135e+01    0.6484269    0.4443908  78.14  0.004289296    1.537    0.349
        12 -16.5365      7.9534    140.0857   1.4434177494e+02   4.5001863434e+01     17.47567     1.928665 -74.74   0.04388264    8.335    0.880
        13 -12.8418     51.6330    227.2241   1.4258069394e+02   2.2603905254e+01     1.600064    0.4692613 -67.74  0.004136206    3.296    0.697
        14  -9.7809    127.1370    225.1531   1.2847196959e+02   1.2153049835e+01    0.2586968    0.1788156 -64.48  0.001123545    1.712    0.416
        15  -8.9477     71.4995    238.5239   1.3997444787e+02   1.8075561718e+01    0.1599601    0.1300869 -84.65 0.0009905668    1.316    0.240
        16 -13.9949     58.9568    213.2541   1.4014304631e+02   2.4291582116e+01     3.081104     1.140456  57.57   0.01434602    2.648    0.622
        17  -8.4393    153.3014    229.6675   1.2414517940e+02   7.1447524456e+00    0.1207131   0.08662532  66.91 0.0003709575    1.653    0.395
        18 -11.5670    133.7909    230.6919   1.2790448206e+02   1.0171359767e+01    0.5849706    0.3111755  41.71   0.00320677    1.562    0.360
        19  -9.3826    163.9906    223.8145   1.2133849871e+02   6.2535570689e+00    0.1695707    0.1358356  -7.74  0.001052108    1.607    0.378
        20 -11.9977    102.8259    229.0082   1.3346581449e+02   1.5285568562e+01    0.6966177    0.5897874  24.18  0.004773573    1.569    0.363
        21  -8.7648    227.6659    203.7023   1.0637522409e+02  -1.6997706619e+00    0.2127136    0.1836277 -43.34 0.0007365988    1.537    0.350
        22  -9.1567     67.3514    196.2041   1.3689653850e+02   2.6554758408e+01    0.2716953    0.1645485  65.19 0.0009478036    1.532    0.347
        23 -10.3000     74.1076    191.9786   1.3505601462e+02   2.6494908198e+01     0.391696    0.2665274 -46.39  0.001673456    1.976    0.494
        24 -10.1848     78.5400    185.2308   1.3333299781e+02   2.7267838584e+01    0.2695173    0.2241819 -59.26 0.0009742062    1.368    0.269
        25 -11.9330    115.1312    230.7375   1.3137455539e+02   1.3114264502e+01     0.830447    0.3084044  39.49  0.003804789    2.391    0.582
        26  -9.6845     86.5474    173.7244   1.3007577464e+02   2.8534641522e+01    0.2417009    0.2183304 -77.59 0.0005866875    1.145    0.127
        27  -8.9386    114.3000    173.9501   1.2389043505e+02   2.3981526745e+01    0.1960136    0.1760515 -76.05  0.001142576    1.126    0.112
        28 -11.5734     74.4419    170.9138   1.3241494192e+02   3.0913156397e+01    0.4467589    0.2823334 -44.57  0.001337361    2.056    0.514
        29 -10.7982     92.5508    165.8613   1.2755535638e+02   2.9315886986e+01    0.5503119    0.4792206 -29.45  0.001816808    1.520    0.342
        30  -9.6534     83.3857    162.7589   1.2921550426e+02   3.1408854286e+01    0.3243698    0.1929626 -83.09  0.001237205    1.970    0.492
        31 -11.0819     74.5389    155.3371   1.3020332857e+02   3.4361839785e+01     0.877021    0.4350161  78.77  0.003048094    4.036    0.752
        32 -11.5953     67.7744    143.9924   1.3012958249e+02   3.7887808638e+01    0.7322799    0.4521469  67.84  0.003640824    1.872    0.466
        33  -9.3267    103.7876    149.0460   1.2204636947e+02   3.1193316706e+01    0.2512114     0.203464  46.96  0.001136946    1.235    0.190
        34 -11.3873     41.2696    145.2727   1.3689254121e+02   4.0807472083e+01    0.4752075    0.2552305 -50.80  0.002461927    2.005    0.501
        35 -10.5081     92.9586    148.3502   1.2457794169e+02   3.3152397713e+01    0.2667235    0.2606808 -19.74 0.0005109861    1.232    0.189
        36 -11.5066     58.6959    133.6350   1.3081739688e+02   4.1466157320e+01    0.8160906    0.2502554 -65.65  0.002941309    3.151    0.683
        37  -8.8927    113.7113    134.8026   1.1676169509e+02   3.2612577031e+01    0.2995513    0.2350165   1.43  0.001357269    1.846    0.458
        38 -11.3718     44.7493    129.9706   1.3392220700e+02   4.3949653104e+01      0.56321    0.1993794 -68.45  0.002303523    2.561    0.610
        39  -8.1490    109.2528    122.7679   1.1526299398e+02   3.6139257716e+01    0.1922928    0.1714012 -18.54 0.0005195264    1.314    0.239
        40  -9.1154    100.9690    132.0777   1.1944520615e+02   3.5512918860e+01    0.3013428    0.2110084 -41.49 0.0007594413    1.560    0.359
        41  -8.7171    168.4402    113.1203   9.8484727176e+01   2.5655320629e+01    0.3001194    0.2419808 -86.07  0.001220787    1.580    0.367
        42  -8.0276    114.6726     40.6785   8.9012609662e+01   5.1202501615e+01    0.1513243    0.1057066  18.05 0.0005709319    1.688    0.407
        43  -8.6664    164.0000    248.0422   1.2459219935e+02   2.7645857065e+00     0.264219   0.06819984 -47.11  0.001055589    4.973    0.799
        44  -9.7565    142.6649    247.1139   1.2825081626e+02   6.2517905992e+00    0.2248103    0.1299524  50.04  0.001344793    1.432    0.302
        45  -9.7423     59.7057    247.0541   1.4261033158e+02   1.8155134125e+01    0.1504999    0.1129045  72.03  0.001010702    1.094    0.086
        46 -10.0161     83.0000    242.4349   1.3829930050e+02   1.5859786695e+01    0.2722745    0.1108801 -70.09   0.00142056    2.870    0.652
        47  -9.7396     86.6552    240.9577   1.3753378491e+02   1.5599196982e+01    0.2335317    0.1596462  58.38 0.0003525389    1.135    0.119
        48  -9.5483     83.7906    237.5952   1.3774204458e+02   1.6565309481e+01    0.2422394    0.1526033  58.77 0.0008232184    1.271    0.213
