#   1 NUMBER                 Running object number                                     
#   2 MAG_AUTO               Kron-like elliptical aperture magnitude                    [mag]
#   3 X_IMAGE                Object position along x                                    [pixel]
#   4 Y_IMAGE                Object position along y                                    [pixel]
#   5 X_WORLD                Barycenter position along world x axis                     [deg]
#   6 Y_WORLD                Barycenter position along world y axis                     [deg]
#   7 A_WORLD                Profile RMS along major axis (world units)                 [deg]
#   8 B_WORLD                Profile RMS along minor axis (world units)                 [deg]
#   9 THETA_WORLD            Position angle (CCW/world-x)                               [deg]
#  10 FWHM_WORLD             FWHM assuming a gaussian core                              [deg]
#  11 ELONGATION             A_IMAGE/B_IMAGE                                           
#  12 ELLIPTICITY            1 - B_IMAGE/A_IMAGE                                       
         1 -12.5564    212.1051     27.2006   4.0095603203e+01   2.9046350934e+01    0.9431257    0.7650593  33.63  0.003167943    1.587    0.370
         2 -12.6954    200.5775     38.8927   4.4416887645e+01   3.0318223570e+01     1.298601     1.079243  30.51  0.007387287    1.481    0.325
         3 -10.4161     33.0000     18.4875   8.1713459382e+01   6.8642498000e+01    0.7968646   0.07052941 -39.29  0.001868176    9.654    0.896
         4 -11.1222    237.1107      3.3712   3.2472823571e+01   2.6095463159e+01    0.7561852    0.3544866  76.85   0.00399153    1.997    0.499
         5 -10.3533    162.5367    226.0797   9.5146843860e+01   4.4017422831e+00    0.3600725    0.3106218 -16.63  0.002270941    1.261    0.207
         6  -9.8891    116.8759    248.9607   1.0744691020e+02   7.6708373672e+00    0.3224856    0.2271496 -75.59  0.001625707    1.812    0.448
         7 -11.0332     27.8427    215.1741   1.2194478738e+02   2.5721464339e+01    0.6610581    0.2884601  86.76  0.002460907    2.416    0.586
         8 -11.7890     25.0100    226.0690   1.2319254713e+02   2.3819976152e+01    0.9219266    0.3755295  57.10  0.004921085    2.113    0.527
         9 -12.2326     42.6979    201.6222   1.1785702267e+02   2.6977378377e+01      1.47508    0.7304567  67.01  0.002893626    2.151    0.535
        10 -12.3126     52.9043    190.5810   1.1454654409e+02   2.8231067545e+01     2.297949     1.228834 -88.13   0.01114488    2.058    0.514
        11 -15.1656      6.9148    199.9662   1.2507389264e+02   3.0889460679e+01     18.07104     1.131285 -76.55  0.007816995   13.339    0.925
        12 -10.1861     49.4053    217.1354   1.1780444056e+02   2.2917000668e+01    0.6067309    0.3382701  60.91  0.003414894    1.642    0.391
        13  -9.8975     76.9690    220.7590   1.1247388128e+02   1.8649436003e+01    0.3974529    0.1978829  59.41  0.001913277    2.128    0.530
        14 -14.3500     37.5132    248.9218   1.2233135784e+02   1.8139186164e+01     8.562576     2.772021  25.74   0.02230819   11.819    0.915
        15  -8.8588     65.5775    207.1133   1.1347507958e+02   2.3008144765e+01    0.3107046    0.2894214  32.50  0.002095557    1.297    0.229
        16  -7.8734     31.9100    202.7485   1.2021521019e+02   2.7908919952e+01    0.2033163   0.09972861  57.74  0.001071498    1.884    0.469
        17  -8.4162    110.0333    200.9676   1.0278398601e+02   1.7827844063e+01    0.2003786    0.1874151  56.99 0.0003819649    1.030    0.029
        18  -8.3515     62.6950    200.9433   1.1345536903e+02   2.4713472394e+01    0.1725911    0.1409029  88.49 0.0003720848    1.121    0.108
        19 -11.5198     57.7009    240.8553   1.1810249887e+02   1.7245533310e+01    0.3970805    0.2581613  71.17 0.0004745806    1.392    0.281
        20 -11.2150     12.2843    189.1341   1.2329352130e+02   3.2755274467e+01     0.221296     0.189642  64.03 0.0009866422    1.196    0.164
        21  -8.3244     66.4201    195.2556   1.1199560850e+02   2.5483170013e+01     0.223057    0.1855854  63.92   0.00127928    1.079    0.073
        22  -7.9401     23.6495    193.7299   1.2124203037e+02   3.0700982525e+01    0.1646583   0.09292508 -89.10 0.0007393226    1.574    0.365
        23 -14.7068      8.1322    241.7325   1.2700696846e+02   2.2508615733e+01     1.637932     1.246767  72.88   0.00996794    1.092    0.085
        24  -8.4040     99.4938    180.6775   1.0220326185e+02   2.3967471088e+01    0.2359895    0.1252012  37.06 0.0006549575    1.838    0.456
        25  -8.4470     42.2071    179.5444   1.1584876166e+02   3.1982528085e+01    0.2164549     0.156345 -81.73 0.0005628189    1.225    0.184
        26 -10.3033     72.3092    170.5086   1.0741511239e+02   3.0391556632e+01    0.3478588    0.2633239 -45.74 0.0008867423    1.468    0.319
        27 -10.4199     67.5617    175.7696   1.0932278517e+02   2.9790803891e+01    0.4665343    0.2889235 -38.36  0.001304842    2.184    0.542
        28  -8.9936    110.4809    173.4607   9.8297843176e+01   2.3803935095e+01    0.1429436    0.1375256  62.75 0.0001484548    1.005    0.005
        29 -10.6841     87.9230    154.6421   1.0080162173e+02   3.1922735778e+01    0.6325445    0.4258097 -22.44  0.002081066    2.239    0.553
        30 -11.5170     57.8834    130.4610   1.0493261266e+02   4.2052761021e+01     0.919606    0.4865332 -84.75  0.003530943    2.869    0.651
        31 -11.3735     81.2115    161.3909   1.0373216992e+02   3.1306592406e+01    0.9221584    0.4565868  56.19 0.0004338792    2.567    0.610
        32 -11.9668     69.1927    156.8721   1.0617985311e+02   3.4096069895e+01    0.6220761    0.4809155 -24.26  0.001452783    1.698    0.411
        33 -12.0802     68.7084    144.4637   1.0427864911e+02   3.7201243670e+01    0.9785708    0.6341766  76.92  0.002864292    2.023    0.506
        34  -8.6151     39.2471    146.5271   1.1270820442e+02   4.0168800561e+01    0.2245635    0.1202109  36.07 0.0006519258    1.991    0.498
        35  -8.8202    133.5270    142.0616   8.6087842162e+01   2.6776088092e+01    0.5272459    0.2032654 -58.03  0.001490564    3.990    0.749
        36  -9.5834     33.0024    143.5586   1.1400722123e+02   4.1503019837e+01    0.2267752    0.1479958 -70.55  0.001249762    1.303    0.232
        37  -8.7081     83.3579    143.0456   9.9918530048e+01   3.5448339292e+01    0.2101859    0.2027044  -3.33 0.0003883553    1.145    0.126
        38  -9.5688    102.0107    139.8880   9.4070441192e+01   3.3181392042e+01    0.4922066    0.3047879 -32.00  0.002043883    2.057    0.514
        39 -10.4511     89.3715    139.6851   9.7569628591e+01   3.5333653026e+01    0.3000704    0.2588531 -36.66 0.0006215362    1.218    0.179
        40  -9.2395     35.0269    139.6688   1.1294057171e+02   4.2260219706e+01    0.3009727    0.1675603  51.58  0.001268865    2.010    0.502
        41 -10.0468     25.2007    137.1992   1.1533079547e+02   4.3745166664e+01    0.3034664    0.1791606  33.21  0.001388816    1.900    0.474
        42  -8.5428    134.4963    148.4403   8.7269191355e+01   2.5134572952e+01    0.3261169    0.1514629 -48.80  0.001004628    2.164    0.538
        43  -9.2370    111.3270    130.3387   8.9347148139e+01   3.3788704995e+01    0.2892997    0.2208314 -12.30 0.0009261267    1.687    0.407
        44  -7.9929     59.3363    220.5414   1.1608542103e+02   2.1006426243e+01    0.2377701    0.1165534  29.42  0.001168583    2.349    0.574
        45  -8.6860    105.7825    130.5618   9.0957872694e+01   3.4750830674e+01    0.3029827    0.2552908 -75.85  0.001519063    1.321    0.243
        46  -9.0371     98.3975    126.3675   9.2112234310e+01   3.7060528779e+01    0.3110237    0.2302654 -14.77  0.001413443    1.775    0.437
        47  -7.7815     92.4879    124.9926   9.3527095300e+01   3.8396746450e+01    0.1999623     0.132464 -82.91 0.0004266504    2.259    0.557
        48  -8.1000    107.6995    119.1127   8.7678131505e+01   3.7108174827e+01    0.2054612    0.1888044 -35.99 0.0003237582    1.060    0.056
        49  -7.4094     77.5057    226.5184   1.1294879358e+02   1.7428266155e+01    0.1246217    0.1027238  61.51 0.0003325472    1.015    0.015
        50 -10.0983     24.3468    114.9605   1.1250396812e+02   4.9219057401e+01    0.3217562    0.1207114 -61.65 0.0008879134    2.045    0.511
        51 -10.9478     18.1682    109.7516   1.1363657979e+02   5.0933663973e+01    0.4014805    0.1888076 -66.22  0.001974959    1.694    0.410
        52  -9.0566     32.5676    108.2769   1.0879769808e+02   5.0155900555e+01    0.3383928    0.1016415 -61.78  0.001153634    2.594    0.614
        53  -7.9049    205.6167    109.8541   6.1905302510e+01   1.7841293481e+01    0.2149629    0.1297721 -45.89 0.0009372302    1.635    0.388
        54  -9.3481     41.6982    104.3182   1.0504773552e+02   5.0254500823e+01    0.3052357    0.2373815  66.86  0.001527924    1.583    0.368
        55  -8.0159    134.7519    104.2609   7.6199945167e+01   3.4946431001e+01    0.2613533    0.1274328 -32.75 0.0009017498    2.427    0.588
        56  -8.7213    247.3244    102.6863   5.3471218903e+01   1.0445032236e+01    0.1375961   0.09750573 -61.79            0    1.662    0.398
        57  -8.6943     32.4422     99.6278   1.0723022695e+02   5.2246018758e+01    0.2818475    0.1333831  13.94  0.001247953    2.788    0.641
        58  -7.9882    127.7046     95.6725   7.5659500209e+01   3.8293930413e+01    0.1600175    0.1227531  -2.10 0.0007023663    1.629    0.386
        59  -8.4903    243.6933     92.6622   5.1703998572e+01   1.2761083637e+01    0.1338911    0.1039623   0.89 0.0007041657    1.677    0.404
        60 -11.0922     85.6473    222.5780   1.1085560427e+02   1.7077066162e+01    0.5292479    0.3281067  58.91 0.0006051365    1.546    0.353
        61  -8.0508     54.9847     65.5074   9.0241108932e+01   5.7546893806e+01    0.1757211    0.1135825  54.15 0.0008089514    2.448    0.591
        62  -9.0593     59.6530    231.3091   1.1695824579e+02   1.8824216012e+01    0.2327676     0.155924  84.60 0.0006735954    1.448    0.309
        63 -11.8286    191.1560     45.7996   4.7560492228e+01   3.1675701752e+01    0.7871647    0.4904198  46.86  0.002789359    1.730    0.422
        64  -8.7834     44.2606    230.0298   1.1983223001e+02   2.0929871951e+01    0.2497037    0.1416953  74.52  0.001465409    1.677    0.404
        65  -8.6873     92.2164    216.7049   1.0879837379e+02   1.7309738882e+01    0.2045465    0.1598743  86.32  0.001228236    1.335    0.251
        66  -9.2959    141.7941     46.9625   5.6835922527e+01   4.3695079715e+01    0.3185988    0.2347727  82.69 0.0007390236    1.706    0.414
        67  -8.3821    145.0308     41.7360   5.4442094492e+01   4.3630407016e+01    0.2007414    0.1753444  55.55 0.0002862544    1.082    0.076
        68  -8.7490     33.4390    227.2829   1.2169272586e+02   2.2685892458e+01    0.1816828    0.1342054 -70.13 0.0006958549    1.455    0.313
