#   1 NUMBER                 Running object number                                     
#   2 MAG_AUTO               Kron-like elliptical aperture magnitude                    [mag]
#   3 X_IMAGE                Object position along x                                    [pixel]
#   4 Y_IMAGE                Object position along y                                    [pixel]
#   5 X_WORLD                Barycenter position along world x axis                     [deg]
#   6 Y_WORLD                Barycenter position along world y axis                     [deg]
#   7 A_WORLD                Profile RMS along major axis (world units)                 [deg]
#   8 B_WORLD                Profile RMS along minor axis (world units)                 [deg]
#   9 THETA_WORLD            Position angle (CCW/world-x)                               [deg]
#  10 FWHM_WORLD             FWHM assuming a gaussian core                              [deg]
#  11 ELONGATION             A_IMAGE/B_IMAGE                                           
#  12 ELLIPTICITY            1 - B_IMAGE/A_IMAGE                                       
         1 -11.7710      5.0979     39.2943   8.4536893130e+01   6.6145557911e+01    0.5428454    0.1369699 -62.27  0.002298422    3.224    0.690
         2 -11.0542     27.4007     31.0462   7.2841654974e+01   6.6162885022e+01    0.6838179    0.0845343 -44.88  0.002199767    4.966    0.799
         3 -10.5965     49.9255     30.0597   6.3303140749e+01   6.3978651341e+01    0.4527649    0.1194341 -38.03   0.00164225    3.588    0.721
         4 -10.2557     40.9371     14.0340   6.0272683577e+01   6.7598512359e+01    0.1788914    0.1369069 -15.42 0.0003308068    1.044    0.042
         5 -10.3231     99.1851    225.0715   8.9087858770e+01   1.6962925110e+01    0.1660056    0.1423156  59.48 0.0005910607    1.208    0.172
         6 -10.4202     60.9723    223.4831   9.5587102993e+01   2.2589579455e+01    0.1715903   0.05838865  57.53 0.0008102918    2.659    0.624
         7 -11.0627    126.1523    220.6357   8.3727247739e+01   1.3438121406e+01    0.1923679    0.1524252  83.47  0.000608758    1.313    0.238
         8 -10.1722     75.0019    219.4865   9.2831172105e+01   2.1433937701e+01    0.1726225   0.09223153  47.41 0.0008954824    1.581    0.367
         9 -11.4188    100.4982    206.6434   8.6865829686e+01   2.0028968752e+01    0.2975613    0.1407909  65.59  0.001338486    2.619    0.618
        10 -10.0203    164.3468    202.6626   7.4026736774e+01   9.6935689040e+00    0.1345915   0.09581146  72.04 0.0004244465    1.779    0.438
        11 -12.4498    249.2878    195.3356   5.7200169673e+01  -4.8057510612e+00    0.4284627    0.2610535 -40.85  0.002344574    2.064    0.515
        12 -11.9938    113.9586    198.2269   8.3232490629e+01   1.9424328588e+01    0.3376344    0.1651575  55.84  0.001617673    1.946    0.486
        13 -12.0822     88.8915    198.3898   8.8148784407e+01   2.3352271612e+01     0.351216    0.2014254  78.03   0.00184524    1.987    0.497
        14 -11.9134    125.7737    197.5932   8.0815596978e+01   1.7536292676e+01    0.2694266    0.2221849  48.24   0.00168384    1.146    0.128
        15 -11.4477     66.9033    194.7206   9.1990512081e+01   2.7173054456e+01    0.3093093    0.1397182  69.29  0.001423693    2.692    0.628
        16 -10.1391    162.3241    193.6792   7.2980580820e+01   1.1573938283e+01    0.1350944   0.09919149  73.18 0.0004191676    1.678    0.404
        17 -11.9173     78.3451    192.6983   8.9566687478e+01   2.5996000837e+01    0.2784949    0.1621182  71.05  0.001475549    1.721    0.419
        18 -10.5938     43.8359    193.0261   9.6182229042e+01   3.0374131624e+01    0.2019755   0.09829179  76.04  0.001088688    2.069    0.517
        19 -12.9239     87.7409    189.2687   8.7315469655e+01   2.5303873187e+01     0.358991    0.2161428  67.28  0.001639144    1.636    0.389
        20 -13.4145     97.3158    187.5546   8.5174332421e+01   2.4175094681e+01    0.5746765    0.2494317  48.53  0.002698209    2.044    0.511
        21 -13.4816     93.1042    182.5835   8.5394061784e+01   2.5826176221e+01    0.4672146    0.3393728  61.54  0.002020621    1.214    0.176
        22 -10.9790    172.7991    195.5978   7.1247637013e+01   9.2645694856e+00    0.1934077    0.1118074  52.47 0.0009410416    1.644    0.392
        23 -12.0717    120.8433    185.8779   8.0134478740e+01   2.0602263133e+01    0.3596385    0.1881646 -69.28   0.00162356    2.451    0.592
        24 -12.9711    110.6665    185.5279   8.2175923305e+01   2.2408550114e+01    0.4181949    0.3210867  66.86  0.001395654    1.176    0.150
        25 -11.4180     55.4933    186.5495   9.3390122283e+01   3.0263368312e+01    0.2882659    0.1325004  69.59  0.001391045    2.470    0.595
        26 -10.6480    139.4976    189.9949   7.6952770214e+01   1.6488335470e+01    0.1813988    0.1131138 -83.78 0.0008103748    2.530    0.605
        27 -12.6669     74.9261    183.7084   8.9240616999e+01   2.8275033175e+01    0.3403525    0.2191761  79.16   0.00173976    1.508    0.337
        28 -11.1881     66.3024    184.4713   9.1053462250e+01   2.9295278615e+01    0.2202811    0.1254111  85.06  0.001193349    1.828    0.453
        29 -12.4302    249.9169    178.2407   5.3789652565e+01  -2.7340831769e+00    0.4395745    0.1675623 -31.01  0.001867686    2.664    0.625
        30 -13.4618     79.1489    176.0820   8.7464321358e+01   2.9241055945e+01      0.59231    0.3050692  66.50  0.002786316    2.229    0.551
        31 -10.6294     44.4935    182.0152   9.5103667028e+01   3.2491785125e+01    0.1745174   0.09557271 -77.79  0.001030676    1.591    0.372
        32 -12.4793     89.0346    177.0064   8.5511784178e+01   2.7588150824e+01    0.3255433    0.1956144  61.45   0.00173465    1.612    0.379
        33 -11.7281     60.3195    176.6996   9.1425549172e+01   3.1664954019e+01    0.2774132    0.1577325  71.00  0.001384331    1.756    0.430
        34 -12.3923    106.9746    175.3817   8.1489855632e+01   2.5058537418e+01    0.4139987    0.2211221  59.08  0.001940345    1.959    0.490
        35 -11.1987    135.4627    172.1169   7.4881294251e+01   2.0644875460e+01    0.2971066    0.1654461  58.80  0.001324006    1.949    0.487
        36 -12.9737    122.5943    169.4422   7.7201675160e+01   2.3554176145e+01    0.5372524     0.335294  71.60  0.002354982    2.018    0.505
        37 -10.3399     44.9938    171.5109   9.4011543291e+01   3.4591596803e+01    0.1703891   0.07069972  58.43 0.0008094322    2.471    0.595
        38 -11.9425    243.9283    181.0592   5.5371190288e+01  -2.0339760345e+00    0.3002093    0.1719194 -40.38  0.001450878    2.034    0.508
        39 -11.7196     55.3734    169.0336   9.1611933370e+01   3.3884304990e+01    0.3219485    0.1661954  82.51  0.001593806    2.226    0.551
        40  -9.6692    206.6420    169.3228   5.9795008020e+01   6.8679038424e+00    0.1374601    0.1123541  84.45 0.0007044611    1.770    0.435
        41 -12.1093     88.6704    168.4571   8.4429046150e+01   2.9426444566e+01    0.2889079     0.198221  80.17  0.001356792    1.500    0.333
        42 -11.7101    112.3550    167.5500   7.9124750049e+01   2.5754266178e+01    0.3141202    0.1935498  70.86  0.001478172    1.972    0.493
        43 -11.6834     74.8057    167.8961   8.7350670639e+01   3.1574538970e+01    0.2487888    0.1565157  88.30  0.001347966    1.649    0.393
        44 -13.0223    100.1345    166.1231   8.1583420925e+01   2.8108626024e+01     0.580585    0.2772527  57.51   0.00250894    2.319    0.569
        45 -13.3183     93.7358    159.9974   8.2069768333e+01   3.0440748382e+01    0.5771998    0.3680529  71.75  0.002368931    1.760    0.432
        46 -12.0438    140.4575    165.6852   7.2673846284e+01   2.0964092208e+01    0.4416629    0.2237683  58.28  0.001791903    2.305    0.566
        47 -13.6306     80.0807    163.0995   8.5562722260e+01   3.1845574266e+01     0.862456    0.4076728 -83.89  0.003362084    3.308    0.698
        48 -12.9753     82.2516    154.2861   8.3807041632e+01   3.3435857678e+01    0.5436313    0.3404396  72.77  0.002523861    1.801    0.445
        49 -11.8455     70.2991    162.8394   8.7676411533e+01   3.3275549690e+01    0.3024065    0.1842039  82.29  0.001597396    1.773    0.436
        50 -10.3288     37.9947    164.0138   9.4712109041e+01   3.6933732297e+01    0.1975728    0.1115303  72.94  0.001134514    1.704    0.413
        51 -10.3360    213.7105    163.3635   5.7225061469e+01   6.3832479301e+00    0.1345509    0.1132288 -77.75  0.000702546    1.698    0.411
        52 -10.0923     47.3161    163.6554   9.2722056214e+01   3.5978303594e+01     0.128756   0.07435299  73.57 0.0007048274    1.717    0.418
        53 -13.4405    248.8319    149.4551   4.7964783067e+01   1.4704840824e+00    0.7168411    0.2800662 -35.82  0.002907455    2.476    0.596
        54 -10.2535    152.8212    160.8670   6.9093637667e+01   1.9463792141e+01    0.2023905    0.1674173  77.48 0.0007058801    1.336    0.251
        55 -11.6293     62.2043    160.1627   8.9109764935e+01   3.4919951867e+01    0.3279385     0.184157  83.68  0.001655583    2.019    0.505
        56 -11.2288    129.2831    159.3160   7.3973385624e+01   2.4393669363e+01    0.2941762    0.1530675  61.14  0.001170769    2.432    0.589
        57 -13.1565    106.8594    158.0708   7.8799586701e+01   2.8694393288e+01    0.5696332     0.306486  59.86  0.002529054    2.105    0.525
        58 -12.5277    120.1427    155.3387   7.5310570848e+01   2.6924592538e+01    0.4366919    0.2930285  88.82  0.002020912    1.972    0.493
        59 -11.9585     50.0851    154.7589   9.1122622904e+01   3.7567995416e+01    0.4298195    0.2188645  69.80  0.002112063    2.290    0.563
        60 -12.8804     69.7532    153.4154   8.6534404881e+01   3.5393270723e+01     0.568934    0.3119485  55.70  0.002919401    1.851    0.460
        61 -11.8608    134.0751    153.2298   7.1759859922e+01   2.4733441581e+01    0.4094408    0.2702336  79.62  0.001795241    2.163    0.538
        62 -12.1677     91.5624    151.1884   8.1176368975e+01   3.2694506086e+01    0.4261189     0.232133 -75.16  0.001861447    2.168    0.539
        63 -12.4235     99.0951    150.4822   7.9306289913e+01   3.1635923686e+01     0.352363    0.2377924 -79.93  0.001492802    1.623    0.384
        64 -10.7388    189.8641    149.5998   5.8951525612e+01   1.3759130558e+01    0.3636175     0.244986 -58.60  0.001645915    1.930    0.482
        65  -9.8188    143.3171    149.6502   6.8969573584e+01   2.3635485919e+01    0.1520232    0.1123994  84.64 0.0007047691    1.733    0.423
        66 -13.6549    108.6950    145.6344   7.6195267540e+01   3.1061355831e+01    0.8238058    0.4381582  65.76  0.003225325    2.760    0.638
        67 -11.8645     78.4578    146.3692   8.3478638022e+01   3.5731507397e+01    0.3102948    0.2178463 -89.10  0.001530078    1.451    0.311
        68 -11.9319    149.8769    145.1348   6.6560329473e+01   2.3208675419e+01    0.5257039    0.3336989  77.78  0.002063901    2.611    0.617
        69 -12.9004    125.9923    143.2084   7.1653398182e+01   2.8407416688e+01    0.6312329    0.4065511  81.42  0.002652406    2.358    0.576
        70 -13.0747     88.5212    143.2043   8.0569956080e+01   3.4929953741e+01    0.5346398    0.3591799 -81.44  0.002349397    1.598    0.374
        71 -12.6082     56.3018    144.8972   8.8466299602e+01   3.8991681694e+01     0.616276     0.315008  89.48  0.002805949    2.488    0.598
        72 -12.5708     68.9996    138.1954   8.4466389458e+01   3.8868281769e+01    0.6036767    0.2707658 -76.45  0.002415067    2.869    0.652
        73 -11.7331     81.4222    138.7965   8.1539932258e+01   3.6986165315e+01    0.3543575    0.2106051 -81.80  0.001669514    1.994    0.499
        74 -12.4276    249.5542    136.9076   4.5063208146e+01   3.1775474814e+00    0.6017095     0.137721 -35.92  0.001860549    3.971    0.748
        75 -11.3492     39.5625    146.9242   9.2557939226e+01   4.0432798057e+01    0.4067443    0.2005577  80.49  0.001948562    2.460    0.593
        76 -10.3522    205.3972    161.5889   5.8440168568e+01   8.3849205444e+00     0.270333    0.1197233 -50.87  0.000954728    3.336    0.700
        77 -11.4969     38.9927    135.3416   9.1294362735e+01   4.3034964367e+01    0.2811472    0.1460269 -79.86  0.001374483    1.781    0.439
        78 -12.5932    113.5005    133.3710   7.2653987919e+01   3.2886797224e+01    0.4440362    0.2743073  61.54  0.001979389    1.888    0.470
        79 -12.2619    132.8083    131.7044   6.7619891821e+01   2.9524615409e+01    0.4534389     0.318999 -83.03  0.001974218    1.938    0.484
        80 -13.3675     84.0449    129.8757   7.9317046959e+01   3.8598437750e+01    0.8759338    0.4113821 -68.02  0.003622235    2.391    0.582
        81 -11.0972    143.6963    131.7175   6.5047060861e+01   2.7273302546e+01     0.310985    0.2188011  87.24  0.001336035    2.066    0.516
        82 -10.9060     22.8284    137.1608   9.5278567525e+01   4.4160085137e+01    0.4111729    0.1766722  81.30  0.001817306    3.086    0.676
        83 -10.9323    153.6735    129.6885   6.2270865004e+01   2.5551831889e+01    0.3123062    0.2229061 -88.82  0.001334193    2.062    0.515
        84 -13.4271     99.4476    127.0693   7.4870729688e+01   3.6762650399e+01    0.8046393    0.4669622 -75.51  0.003388193    2.329    0.571
        85 -11.9918     73.1268    128.5052   8.1838057220e+01   4.0487526409e+01    0.4843392    0.2279825 -72.17  0.002021099    2.471    0.595
        86 -10.2626    169.3260    129.6870   5.8758578841e+01   2.2073967866e+01    0.1549056    0.1217266 -89.11 0.0004143665    1.664    0.399
        87 -10.8403     12.1187    127.5686   9.6758202259e+01   4.7101002935e+01    0.4013247    0.1512502 -84.97  0.001839268    2.709    0.631
        88 -12.5146    119.0142    125.6321   6.9645070951e+01   3.3552806308e+01    0.6390428    0.3710818  69.17   0.00244258    2.729    0.634
        89 -12.5222     59.2765    122.6776   8.4395018264e+01   4.3608452102e+01    0.7800105    0.3632437 -79.88  0.003105646    3.018    0.669
        90 -11.8385     27.9714    121.0315   9.2154925525e+01   4.7246596971e+01    0.7286612    0.3084823  79.37  0.002602461    4.777    0.791
        91 -10.8995    158.9745    121.4790   5.9098577660e+01   2.6044915835e+01    0.3136425      0.19261 -77.78  0.001037846    3.427    0.708
        92 -12.1695    142.2921    119.0930   6.2421747156e+01   3.0217487413e+01     0.518517    0.3545034 -78.28   0.00215666    2.165    0.538
        93 -11.8009     71.3209    119.5989   8.0700071472e+01   4.2750614697e+01    0.3968687    0.2277872 -82.30  0.001784686    2.268    0.559
        94 -11.9420    131.4291    118.8420   6.5005799870e+01   3.2559087422e+01    0.4941958    0.3257978  85.84  0.001945553    2.543    0.607
        95 -11.2238      2.0000    114.0249   9.7795132368e+01   5.0703899457e+01    0.3967962      0.11382 -76.21   0.00175931    2.816    0.645
        96 -11.9700    109.3389    113.6048   6.9384731404e+01   3.8012551500e+01    0.6302395    0.3663926 -70.86  0.002517305    2.443    0.591
        97 -12.2200     79.0340    111.5335   7.7039069115e+01   4.3485436136e+01    0.7345783    0.3661935 -75.39  0.002706401    3.256    0.693
        98 -12.0478     92.7507    111.0501   7.3211035689e+01   4.1466646293e+01    0.7768633    0.3403061 -62.16  0.002926873    2.652    0.623
        99 -11.3671    122.5209    112.3723   6.5681899700e+01   3.5756536043e+01    0.3269186    0.2354368 -86.22  0.001109455    1.917    0.478
       100 -10.2591    159.4962    111.9911   5.6599667932e+01   2.7835677323e+01    0.2205091    0.1325635 -64.19 0.0008096195    2.461    0.594
       101 -10.0181    175.3193    111.6767   5.2991662430e+01   2.4193465920e+01    0.1589909    0.1243439 -80.75 0.0006171974    1.673    0.402
       102 -11.9657     66.4500    109.0706   7.9993059723e+01   4.5781596018e+01    0.5510982     0.256565 -69.86  0.002292109    2.482    0.597
       103 -11.2485     14.1696    108.9072   9.4133588334e+01   5.1005907869e+01    0.4690236    0.2001674 -73.60   0.00246864    1.873    0.466
       104 -10.7757    133.6944    109.3859   6.2115019859e+01   3.4098840809e+01    0.2423469    0.1854913  87.90  0.001024044    1.704    0.413
       105 -12.4285     43.4300    120.7157   8.8178667062e+01   4.5838725541e+01    0.9257909    0.3892954 -84.10  0.003391651    3.880    0.742
       106 -11.3596    140.5683    104.9195   5.9256213714e+01   3.3549374188e+01    0.4000978    0.2855196  87.01  0.001688001    2.081    0.519
       107 -12.5779     45.0836    100.0664   8.4279686706e+01   5.0298276984e+01    0.9886941     0.459758 -79.66  0.004008958    3.118    0.679
       108 -12.7577     22.0062     99.0479   9.0654225334e+01   5.2589140029e+01    0.9917249    0.4003438 -81.08  0.004226262    3.037    0.671
       109 -10.4079    167.1953    103.8048   5.2710109104e+01   2.7646910983e+01    0.2670144    0.1736315 -80.23  0.000948075    2.831    0.647
       110 -11.7833    150.3846    102.6244   5.6270097644e+01   3.1814322747e+01    0.5038928    0.2471195 -57.43  0.001682113    2.953    0.661
       111 -11.8062    129.0899    102.0134   6.1370242590e+01   3.6624982036e+01    0.3901295    0.3024381  83.26  0.001837158    1.659    0.397
       112 -11.6493      6.8228    100.6275   9.5035732449e+01   5.3290919318e+01    0.5399494    0.1063553 -66.46  0.002205476    3.148    0.682
       113 -10.2731    160.3314    101.6532   5.3684294693e+01   2.9694959548e+01    0.1637228    0.1244268 -80.23 0.0007049522    1.763    0.433
       114 -12.3302    109.4664     98.4522   6.5617890279e+01   4.1297829056e+01    0.7315283    0.4782449  87.34  0.002867386    2.810    0.644
       115 -10.9603     82.0737     99.4514   7.3517236954e+01   4.5739587479e+01    0.3415541    0.2170909 -76.95  0.001562678    2.087    0.521
       116 -11.1571     94.9758     96.5052   6.9135599151e+01   4.4315662745e+01    0.2857385    0.1952274 -66.13  0.001164426    1.628    0.386
       117 -12.0340     63.3770     93.7745   7.7651378474e+01   4.9603199434e+01    0.7736958    0.3261888 -64.52  0.003123108    2.590    0.614
       118 -11.2974    139.2599     92.1822   5.6110456184e+01   3.6441851029e+01     0.419057    0.2588024 -63.49  0.001640082    2.269    0.559
       119 -12.2433    124.7597     90.2995   5.9300430966e+01   3.9972373669e+01    0.5075823    0.3077754 -63.13  0.002029344    2.254    0.556
       120 -10.1500     57.9963     92.0404   7.8868293017e+01   5.0649889849e+01    0.1916867    0.1464752  81.27 0.0003062774    1.592    0.372
       121 -12.1298      5.4911     88.3878   9.3780909948e+01   5.6004720430e+01    0.6446021    0.1755925 -60.02  0.003054129    2.404    0.584
       122 -12.2086      9.2857     78.6569   9.1169596822e+01   5.7865556164e+01    0.5685658     0.135452 -65.03   0.00241673    2.848    0.649
       123 -11.6471     34.8232     87.1152   8.4851382442e+01   5.4151723468e+01    0.7308483     0.213954 -61.93  0.002993961    2.702    0.630
       124 -11.4572     86.3801     85.3377   6.8716699020e+01   4.8150529564e+01    0.5479316    0.2799495 -63.37    0.0021708    2.591    0.614
       125 -12.1223     48.3913     82.3951   7.9656680205e+01   5.3853942539e+01    0.7029242    0.3285938 -67.38  0.003160781    2.313    0.568
       126 -11.7194    104.6165     82.4394   6.2586793628e+01   4.5594105929e+01    0.4694359    0.2860216 -61.25  0.002023983    2.042    0.510
       127 -10.4329    158.3544     82.6704   4.8790883755e+01   3.3814890358e+01    0.1644111    0.1242797 -78.58 0.0007045826    1.779    0.438
       128 -12.6504     25.7329     76.0198   8.5498886764e+01   5.7313486159e+01     1.034413    0.2787383 -51.95  0.004426188    2.679    0.627
       129 -10.4403     74.5855     79.7973   7.0807852504e+01   5.1130440970e+01    0.3859658    0.1629421 -59.78  0.001463276    2.809    0.644
       130 -10.6532    150.4082     80.2092   4.9914041294e+01   3.6190102765e+01     0.227427     0.142881 -48.29 0.0009526895    1.688    0.407
       131 -10.6312    119.3991     80.1705   5.7798987606e+01   4.3143009062e+01    0.2202245     0.135896 -52.68 0.0009494309    1.750    0.429
       132 -12.0781     62.5208     70.8262   7.2203895773e+01   5.4666119631e+01    0.9939276     0.121905 -49.58  0.002616405    5.733    0.826
       133 -10.1645    157.6679     76.3207   4.7062265777e+01   3.5150352043e+01    0.1610179    0.1237519 -76.38 0.0007049245    1.697    0.411
       134 -11.3867    128.0705     74.7006   5.3819398084e+01   4.2364315755e+01    0.4752121    0.2286882 -51.12  0.001745911    2.459    0.593
       135 -11.3972     82.1625     70.7780   6.5884753887e+01   5.1864737737e+01    0.6587095    0.2266482 -51.80  0.002344457    2.989    0.665
       136 -10.4502    116.0000     72.0010   5.6238309476e+01   4.5449932228e+01    0.2474339   0.08171391 -41.34  0.000763572    2.935    0.659
       137 -10.7927     42.5015     71.0606   7.8890256880e+01   5.6893311426e+01    0.3434802    0.1040233 -57.66  0.001368097    2.748    0.636
       138 -10.9306    141.0225     83.0054   5.3021837336e+01   3.7854817174e+01    0.2527529    0.1947604 -79.22  0.001141834    1.736    0.424
       139 -10.6077     94.9055     70.2728   6.1809170190e+01   4.9831601604e+01    0.3631606    0.1762148 -58.17  0.001332509    2.953    0.661
       140 -11.6997     51.3116     67.0015   7.4886351880e+01   5.6811669105e+01    0.7457191    0.2245577 -58.83  0.002600253    3.674    0.728
       141 -10.8679      6.0070     70.0606   9.0747510451e+01   5.9867872078e+01    0.2986947    0.1247712 -65.83  0.001627561    1.776    0.437
       142 -11.6994     17.5798     64.1094   8.5732201205e+01   6.0417077665e+01    0.4701497    0.1049789 -54.96  0.001986754    2.783    0.641
       143 -10.5119    146.9933     67.7420   4.6906005177e+01   3.9284851596e+01    0.2059971    0.1315511  51.80 0.0007007406    1.554    0.356
       144 -10.9489    138.7195     65.7476   4.8279472745e+01   4.1603090613e+01    0.3231864    0.1718399 -54.48  0.001179669    2.563    0.610
       145 -10.4085    140.6837     75.3333   5.0796476989e+01   3.9394586184e+01    0.1571202    0.1223449 -76.09  0.000540368    1.689    0.408
       146 -11.3469     37.3218     62.0033   7.8372731752e+01   5.9282567932e+01    0.4935443    0.1487007 -51.21  0.002105099    2.479    0.597
       147 -10.2929    100.4958     59.9968   5.6825733377e+01   5.0786380853e+01     0.203725    0.1199155 -60.45 0.0008106682    2.598    0.615
       148 -11.0986     73.2743     57.0530   6.4482166074e+01   5.5945398141e+01    0.7250993    0.1846721 -46.16  0.002422202    3.520    0.716
       149 -10.7931     25.2713     57.6168   8.1530616394e+01   6.1205520585e+01    0.3786491    0.1371903 -52.36  0.001848243    2.017    0.504
       150 -12.2453      7.9344     53.6388   8.6865272876e+01   6.3153011494e+01    0.6913969    0.1187734 -58.46  0.002818387    3.179    0.685
       151 -10.3254    119.2450     55.2517   4.9857832915e+01   4.7832688722e+01    0.2385837    0.1095937 -46.29 0.0008915117    2.432    0.589
       152 -11.7860     44.8936     50.9498   7.2512885999e+01   6.0747963538e+01    0.6338801    0.1712766 -45.87  0.001774341    2.944    0.660
       153 -10.9298     53.8972     51.9944   6.9569059051e+01   5.9525195314e+01    0.4851304    0.1631419 -56.25  0.001709565    3.796    0.737
       154 -11.3090     31.0692     48.6936   7.6994210027e+01   6.2521991320e+01    0.5720342    0.1516114 -55.64  0.002274128    3.101    0.678
       155 -10.7639     92.2981     48.8021   5.5467708461e+01   5.4318863197e+01    0.5241251     0.143387 -43.70  0.001675927    3.715    0.731
       156 -10.5767     20.6724     49.6290   8.1180232188e+01   6.3156994955e+01    0.4078903    0.1739038 -39.51  0.002109438    2.118    0.528
       157 -10.5177     82.0000     45.5656   5.7610743689e+01   5.6676619002e+01    0.3012808   0.07081652 -40.99 0.0009355207    3.941    0.746
       158 -10.6630     63.0000     49.5158   6.5508949913e+01   5.8834687174e+01    0.4618086    0.1377952 -39.38  0.001643178    3.328    0.700
       159 -11.0338     17.0113     41.8273   8.0474369705e+01   6.4942936952e+01    0.4568491    0.0914497 -50.74  0.001890408    3.015    0.668
       160 -10.5748    237.8363    229.1522   6.5039881061e+01  -6.8465481646e+00    0.1744211    0.1119297  22.41  0.001083548    1.353    0.261
       161  -9.5877    113.6068     41.4903   4.6523519954e+01   5.1298815720e+01    0.1442919    0.1283012   3.68 7.912999e-05    1.077    0.072
       162 -10.5266     68.7253     39.1711   5.9786752225e+01   5.9878183338e+01    0.3182643    0.1014086 -40.04  0.001219153    2.832    0.647
       163 -10.7381     36.8392     38.5530   7.1580840658e+01   6.3924687129e+01    0.4172356    0.1003412 -44.80  0.001614159    3.190    0.687
       164 -10.4168    192.0744    225.9747   7.2465238311e+01   1.2351468312e+00    0.1919414     0.151152  35.48 0.0006412839    1.039    0.037
       165 -11.2731    162.3146    224.9958   7.7680617953e+01   6.5749817366e+00     0.360068    0.2169257  35.17  0.001542622    1.583    0.368
       166 -10.9649     12.7451     27.9755   7.8059334794e+01   6.7828985000e+01    0.4638017    0.0522664 -54.31   0.00154287    5.029    0.801
       167 -10.6726     57.9146     41.0407   6.4385500362e+01   6.1062399629e+01    0.3426574    0.1544314 -54.19  0.001447104    2.828    0.646
       168  -9.5888     40.5987     21.4537   6.3617540994e+01   6.6489546216e+01     0.121428   0.09137369 -21.52 -3.041719e-05    1.077    0.072
       169 -10.6776     60.7704     30.1320   5.9177036729e+01   6.2536303601e+01    0.3624137    0.1254496 -33.04  0.001406905    3.030    0.670
