#   1 NUMBER                 Running object number                                     
#   2 MAG_AUTO               Kron-like elliptical aperture magnitude                    [mag]
#   3 X_IMAGE                Object position along x                                    [pixel]
#   4 Y_IMAGE                Object position along y                                    [pixel]
#   5 X_WORLD                Barycenter position along world x axis                     [deg]
#   6 Y_WORLD                Barycenter position along world y axis                     [deg]
#   7 A_WORLD                Profile RMS along major axis (world units)                 [deg]
#   8 B_WORLD                Profile RMS along minor axis (world units)                 [deg]
#   9 THETA_WORLD            Position angle (CCW/world-x)                               [deg]
#  10 FWHM_WORLD             FWHM assuming a gaussian core                              [deg]
#  11 ELONGATION             A_IMAGE/B_IMAGE                                           
#  12 ELLIPTICITY            1 - B_IMAGE/A_IMAGE                                       
         1 -14.9692      8.8829    146.4814   1.4353114626e+02   4.3498575487e+01     8.951898      3.24996 -89.14   0.03349299    4.040    0.752
         2 -11.8759      2.8078     48.7130   1.2910595483e+02   6.4490880258e+01    0.5715557    0.1486038 -56.52  0.002632588    2.767    0.639
         3 -13.1910    196.9795     29.8072   6.8808833881e+01   3.2509130122e+01     1.372321       1.2856  76.05  0.006830387    1.118    0.106
         4 -13.3431    211.8001      9.8199   6.2171909442e+01   3.1235830453e+01     1.212617    0.9025132  46.85  0.007134208    1.604    0.377
         5 -12.3011      2.8933      6.5008   1.1518301460e+02   7.1339316876e+01    0.9653448    0.2502821 -42.74  0.004824901    2.928    0.658
         6 -10.4290     19.1585    242.4844   1.4918032188e+02   2.2441074705e+01    0.2414014     0.113769  74.36  0.001326341    1.785    0.440
         7 -12.1778    243.1362    248.1505   1.0929664545e+02  -1.3065333324e+01    0.9029863    0.3077289  44.14   0.00392966    3.072    0.674
         8 -11.1744    139.9810    250.0006   1.2864671517e+02   3.6587463368e+00    0.4476595    0.1717013  45.88  0.002020149    2.116    0.527
         9 -10.5957    125.0360    249.9983   1.3142896151e+02   6.1645773712e+00    0.4565442    0.1005852  46.44  0.001589316    3.634    0.725
        10  -9.7410    111.9064    250.5541   1.3390832032e+02   8.2145795558e+00     0.190477     0.100559  44.88 0.0005486943    1.579    0.367
        11 -10.0295     46.5416    249.1926   1.4519785195e+02   1.7952541553e+01    0.2647693    0.1413455  78.54  0.001024641    1.682    0.406
        12 -11.7662     34.8240    245.1818   1.4683713456e+02   2.0140565689e+01    0.5290313    0.4001924 -68.96  0.003926234    1.603    0.376
        13  -9.7683     28.5410    249.5474   1.4812603222e+02   2.0076968141e+01    0.1954043    0.1541645 -72.66 0.0008149503    1.577    0.366
        14  -9.2354     29.7016    246.6648   1.4776057854e+02   2.0471190815e+01    0.1506866   0.08628583 -79.00 0.0005451529    1.551    0.355
        15  -9.9311     17.7169    249.3575   1.4980171745e+02   2.1335401255e+01    0.2123561    0.1682797 -38.24  0.001481632    2.763    0.638
        16 -11.9273     12.1077    240.6735   1.5018435806e+02   2.3536811382e+01    0.4153808     0.204671  80.03  0.002654775    1.633    0.388
        17 -10.7453      2.2288    249.7377   1.5215467757e+02   2.2899811387e+01    0.5359861    0.1192818  40.96   0.00267079    3.629    0.724
        18 -10.1632      2.6894    245.9799   1.5190363685e+02   2.3531104572e+01    0.3125325    0.1293776  82.32  0.001861221    2.036    0.509
        19 -10.0758     51.1072    244.7776   1.4410674542e+02   1.8185335884e+01    0.1851446    0.1577029  42.06  0.001357248    1.606    0.378
        20  -9.8045     21.2510    237.8564   1.4856452149e+02   2.3079379418e+01    0.1591413    0.1478686 -16.83   0.00123611    2.098    0.523
        21  -9.8676    233.9928    237.1743   1.0907915835e+02  -1.0277757066e+01    0.1844722    0.1362248  56.91 0.0006989519    1.992    0.498
        22 -11.0703     50.1590    235.2375   1.4351630056e+02   2.0124685964e+01    0.3426716    0.1794969 -61.43  0.001461723    2.094    0.522
        23 -14.1456    103.5668    229.0910   1.3301592519e+02   1.3521132007e+01      8.28754          nan  45.86   0.01352776   16.323    0.939
        24 -11.4596      5.8396    241.0162   1.5117383359e+02   2.4121812534e+01    0.3687151    0.1971164  41.87 0.0003913344    1.967    0.492
        25  -9.4724     54.5079    229.5210   1.4226628352e+02   2.0678001828e+01    0.2861305    0.1268314  67.98  0.001289402    2.427    0.588
        26 -12.5731     33.1774    232.7857   1.4625107578e+02   2.2692533736e+01    0.2893431    0.2301062 -79.61  0.000768575    1.359    0.264
        27 -10.5679    162.0174    249.5030   1.2444277522e+02  -2.4175645651e-02    0.3038318   0.09870408  46.63  0.001219983    2.630    0.620
        28 -10.2829      5.1595    227.9539   1.5056911045e+02   2.6653577946e+01    0.2224128    0.1301212 -55.96  0.001430845    2.396    0.583
        29  -9.6256    173.0523    222.6315   1.1825910432e+02   2.4549482382e+00    0.3259641    0.1144323  42.58  0.001254789    2.492    0.599
        30  -8.6823    152.4890    213.0087   1.2087647036e+02   8.0244196902e+00    0.1830198    0.1382841 -54.50 0.0003740514    1.476    0.322
        31 -12.3307      9.5821    206.8492   1.4851618503e+02   3.0409250942e+01    0.6500348    0.4138905  38.48  0.003039502    1.854    0.461
        32  -9.5370    191.8746    193.0088   1.0915064503e+02   4.1880766828e+00    0.4317846    0.2307002 -64.82  0.001427148    4.211    0.763
        33 -11.7903     14.3402    196.5744   1.4691412532e+02   3.2081614814e+01    0.2935845    0.1770873  63.97 0.0008474191    1.454    0.312
        34 -11.4102     60.1025    198.7886   1.3817539473e+02   2.6336901043e+01    0.2681022    0.2231128 -66.30 0.0004765197    1.326    0.246
        35 -11.6904     66.4791    190.4319   1.3587167950e+02   2.7312236788e+01    0.2706985    0.2301373 -69.06 0.0004898148    1.242    0.195
        36 -10.5543      2.1499    190.2952   1.4870864739e+02   3.4518492932e+01    0.3633938      0.12809 -77.45  0.001854483    2.213    0.548
        37 -10.5991      2.0740    183.6778   1.4824492458e+02   3.5920282018e+01    0.3286486    0.1217642 -76.63  0.001707749    2.079    0.519
        38 -10.4052      6.4251    188.4806   1.4778112820e+02   3.4526557345e+01     0.262971     0.147498  87.53  0.001215453    1.429    0.300
        39 -13.0080     63.4992    175.6187   1.3463014542e+02   3.1077862110e+01    0.5137146     0.277347 -46.65  0.002292671    2.306    0.566
        40 -10.5736     76.7903    177.5750   1.3190015278e+02   2.8751139979e+01    0.2389043    0.2062851 -78.73 0.0003144442    1.088    0.081
        41  -8.8977     97.4888    173.6447   1.2653245491e+02   2.6398671420e+01     0.294575    0.1322619 -58.57  0.000980285    2.157    0.536
        42 -11.5049     84.3150    168.5105   1.2879232768e+02   2.9712960644e+01    0.5840861    0.5520555 -48.40  0.002186188    1.265    0.210
        43 -13.7054     38.5253    225.5197   1.4478190740e+02   2.3486373331e+01    0.7705908    0.5819545  71.24  0.002533462    1.082    0.076
        44  -9.5965     97.2261    152.4971   1.2287505841e+02   3.1386061831e+01    0.2737292    0.2461472 -72.33 0.0007108834    1.042    0.041
        45 -11.7529     85.7713    151.5856   1.2557558935e+02   3.3468579435e+01    0.3031767     0.245409 -47.17  0.000558194    1.314    0.239
        46  -8.7712    100.1012    148.1714   1.2132057901e+02   3.1915282723e+01    0.2092135    0.1916783 -35.01 0.0004180036    1.246    0.198
        47 -12.0481     67.3305    143.6113   1.2884712936e+02   3.8056834005e+01     0.676347    0.4468041  69.54  0.002675199    1.809    0.447
        48 -10.1507     96.2717    134.6614   1.1956242287e+02   3.5755360737e+01    0.2605092    0.2236632 -35.79 0.0003430912    1.280    0.219
        49  -9.5628    109.2310    137.4172   1.1676196582e+02   3.2814517972e+01    0.4573098    0.2772216 -26.30  0.001420606    2.799    0.643
        50 -10.5049     31.4536    131.5238   1.3615876466e+02   4.4987012816e+01    0.3091614    0.1924042  55.96  0.001130869    1.870    0.465
        51  -8.7990     78.8698    131.2913   1.2351372076e+02   3.9325675042e+01    0.2399392    0.1428242  74.33 0.0009489148    2.789    0.641
        52  -8.9856     87.6668    128.9886   1.2066280080e+02   3.8506980176e+01    0.2301295    0.1830568  76.83 0.0005900752    1.442    0.306
        53 -11.4898     22.5053    126.7203   1.3777820183e+02   4.6872303520e+01    0.3627741    0.2439722  57.64   0.00176716    1.723    0.420
        54  -9.7215    167.9021    113.1431   9.6403074165e+01   2.5689273974e+01    0.3356063     0.267381 -79.94 0.0008083635    1.517    0.341
        55  -8.7936    203.3826    111.7511   8.8678528085e+01   1.7566531591e+01    0.2123818    0.1449897 -29.53  0.000532753    1.610    0.379
        56  -8.6428    106.3824    124.0063   1.1449778973e+02   3.6451554521e+01    0.1985893    0.1724865 -55.13 0.0003811037    1.098    0.089
        57  -9.6626    242.6701     93.6698   7.7732375941e+01   1.1888099733e+01    0.1387572    0.1128114   9.61 0.0007051696    1.715    0.417
        58  -9.5078    158.1929     77.1407   8.8787520551e+01   3.5006953650e+01    0.2140463    0.1810954 -77.22 0.0004736554    1.339    0.253
        59 -11.1040      2.3537     62.3939   1.3252095060e+02   6.1922836562e+01    0.3393939     0.151435 -60.59  0.001924014    1.766    0.434
        60  -8.8381     31.7752     62.1130   1.2191077287e+02   5.9928741686e+01    0.1671004    0.1461697 -51.08 0.0005605831    1.231    0.188
        61 -11.5983     11.8114     53.9692   1.2705568707e+02   6.2992399113e+01    0.4303966    0.2410306  46.40   0.00229774    2.996    0.666
        62 -11.5572    149.5051    248.6194   1.2668019864e+02   2.2633521649e+00    0.5308383    0.2108743  51.17  0.002304288    2.381    0.580
        63 -11.4031     99.7344    247.4700   1.3579576235e+02   1.0695755919e+01    0.3611455    0.3206847  20.41  0.002443199    1.666    0.400
        64 -10.2768     23.3207    246.0208   1.4873441494e+02   2.1322334757e+01    0.2532875    0.0983769  55.69  0.001259273    2.007    0.502
