#   1 NUMBER                 Running object number                                     
#   2 MAG_AUTO               Kron-like elliptical aperture magnitude                    [mag]
#   3 X_IMAGE                Object position along x                                    [pixel]
#   4 Y_IMAGE                Object position along y                                    [pixel]
#   5 X_WORLD                Barycenter position along world x axis                     [deg]
#   6 Y_WORLD                Barycenter position along world y axis                     [deg]
#   7 A_WORLD                Profile RMS along major axis (world units)                 [deg]
#   8 B_WORLD                Profile RMS along minor axis (world units)                 [deg]
#   9 THETA_WORLD            Position angle (CCW/world-x)                               [deg]
#  10 FWHM_WORLD             FWHM assuming a gaussian core                              [deg]
#  11 ELONGATION             A_IMAGE/B_IMAGE                                           
#  12 ELLIPTICITY            1 - B_IMAGE/A_IMAGE                                       
         1 -15.9667      8.1248    154.5281   2.9274614586e+02   5.9604252998e+00    0.2460593   0.08721589 -64.94   0.01806322    3.122    0.680
         2 -12.2707     25.0157     12.9963   2.9168564525e+02   7.4807160246e+00   0.02642301    0.0182144  64.86  0.002659891    1.803    0.445
         3 -13.7389    162.7694     11.4562   2.9004703074e+02   6.6561259025e+00   0.03300877   0.01628049  36.55  0.002339448    1.926    0.481
         4 -15.3882    162.9637      3.5999   2.8999665584e+02   6.7448359364e+00    0.1589367   0.03635859  28.45  0.009875647    4.090    0.756
         5 -11.4568     40.5696      9.0767   2.9147758434e+02   7.4308530977e+00   0.01367297  0.008660816  44.46  0.001362572    1.616    0.381
         6 -11.5230    241.5822     10.7269   2.8911271151e+02   6.1800159784e+00   0.01312226  0.006142464 -57.13  0.001141601    2.091    0.522
         7 -12.4274     85.6740      6.0636   2.9092539131e+02   7.1900499150e+00   0.02184392   0.01125419 -71.80  0.001879955    2.357    0.576
         8 -11.1434     43.6616      5.4924   2.9141910201e+02   7.4530478658e+00   0.01167907  0.006241967 -61.65  0.001071134    1.905    0.475
         9 -14.2282    136.8147    188.1614   2.9143131875e+02   4.7896973111e+00   0.04306418    0.0361165  86.20  0.004952178    1.346    0.257
        10 -11.2478    124.1640    195.1758   2.9162314376e+02   4.7865433039e+00   0.01155725  0.009892246 -70.49 0.0008305826    1.225    0.183
        11 -11.8343    125.2398    191.1162   2.9158578654e+02   4.8265493669e+00   0.01785662   0.01320174   6.85  0.001899666    1.513    0.339
        12 -12.2831    149.1443    191.9832   2.9130917921e+02   4.6704538839e+00   0.01946699   0.01456811  40.03  0.001923762    1.318    0.241
        13 -12.8811     60.5942    191.8861   2.9235315342e+02   5.2122447160e+00   0.02407531   0.01471848 -48.78  0.002388464    1.655    0.396
        14 -11.4296     14.0450    215.5222   2.9304563709e+02   5.2242345613e+00   0.02388257   0.01143281 -41.89  0.002008098    2.388    0.581
        15 -11.1253    118.5592    175.5458   2.9156993963e+02   5.0460288755e+00   0.01673511   0.01104287 -20.02  0.001193444    1.969    0.492
        16 -12.9945     26.7317    160.6492   2.9256347754e+02   5.7770043127e+00   0.03222865   0.02315394  -6.34  0.003046059    1.695    0.410
        17 -11.3777    117.7767    181.6627   2.9161635631e+02   4.9806241513e+00   0.01555209   0.01107281  72.34  0.001234555    1.777    0.437
        18 -12.6894    145.6309    165.9280   2.9119209201e+02   4.9908380201e+00   0.01332419   0.00954379  37.03 0.0006354003    1.359    0.264
        19 -13.0585    157.7465    160.7301   2.9101756005e+02   4.9763167015e+00   0.01995575   0.01179204  -4.64  0.001527349    2.583    0.613
        20 -10.0744     40.6274    161.2294   2.9240288557e+02   5.6857595981e+00   0.00920381   0.00597743 -50.82 0.0003524213    1.544    0.352
        21 -14.3802    136.5776    154.1387   2.9122712628e+02   5.1814580193e+00   0.03887549   0.01958128 -43.87  0.003427286    2.152    0.535
        22 -11.5482    117.5104    157.4817   2.9147245241e+02   5.2596943596e+00   0.01234527  0.005434106 -50.03 0.0007282607    2.262    0.558
        23 -14.4287    155.9482    143.8681   2.9093606479e+02   5.1807153795e+00   0.03261127   0.01889591 -65.77  0.003120035    1.833    0.454
        24 -13.5775    128.3950     91.9903   2.9094501760e+02   5.9442484745e+00    0.0506549   0.02183425  14.40  0.003573898    3.496    0.714
        25 -12.9094    109.6327     89.7692   2.9115307644e+02   6.0844902920e+00   0.02745119    0.0114783  33.04  0.002293677    2.221    0.550
        26 -14.4898    113.2035     95.7477   2.9114734428e+02   5.9941071631e+00   0.03782954   0.03263787 -10.00  0.003925018    1.244    0.196
        27 -13.7005    123.9000     88.0476   2.9097405548e+02   6.0169565934e+00   0.05095745   0.02817724   8.08  0.004330134    2.483    0.597
        28 -15.7296    134.7749    118.0393   2.9102851445e+02   5.6065264539e+00    0.1122662   0.07232226 -32.06   0.01100493    1.839    0.456
        29 -11.4891     48.9485    178.5065   2.9240945747e+02   5.4367741358e+00   0.02508217  0.009533063 -68.51   0.00180385    3.300    0.697
        30 -15.2946    136.6060     99.8721   2.9089613675e+02   5.8036288772e+00   0.07039545   0.05539058  17.59  0.007901098    1.298    0.229
        31 -13.9871    102.6362    104.5239   2.9132564899e+02   5.9580736688e+00   0.04255248   0.02058398 -70.18  0.003566709    2.473    0.596
        32 -10.6830    155.7008    178.3209   2.9114876313e+02   4.7870669486e+00  0.006933367  0.005030737  62.63 0.0002164947    1.623    0.384
        33 -11.0228    123.4429    176.7964   2.9151992912e+02   5.0018331694e+00  0.009362357  0.006053416 -48.90 0.0003969294    1.564    0.361
        34 -10.2378     91.4266    117.5060   2.9153712007e+02   5.8776620718e+00  0.006556852  0.006477397  28.06 0.0001836464    1.015    0.015
        35  -9.8294     81.5415     99.4851   2.9154417287e+02   6.1447212626e+00  0.006660813  0.006417329 -11.90 0.0001588024    1.047    0.045
        36 -11.6644    132.1264    192.5355   2.9151319756e+02   4.7681734794e+00   0.01755829   0.01344359  63.56  0.001115678    1.499    0.333
        37 -11.4136     95.9806    108.9987   2.9143152529e+02   5.9474228550e+00   0.02254135   0.01311747  -9.33  0.001859756    2.761    0.638
        38 -10.9922     19.8020     95.4455   2.9224941751e+02   6.5673732443e+00   0.01272485   0.01001136  62.95 0.0006410528    1.434    0.303
        39 -12.1022    114.3270    122.3165   2.9129597089e+02   5.6825476092e+00   0.01219121   0.01019793 -28.64 0.0009110958    1.276    0.217
        40 -10.4931     87.1983     89.2113   2.9141474147e+02   6.2279939510e+00   0.01199446  0.006514593 -26.11 0.0009539031    2.820    0.645
        41 -10.2703     73.4873     88.4345   2.9157205169e+02   6.3206172262e+00  0.006630499  0.006414759   4.57 0.0001086166    1.028    0.027
        42 -10.9045     17.8766     87.2812   2.9222254625e+02   6.6727319978e+00   0.01310841  0.009500161 -50.49 0.0008060323    1.389    0.280
        43  -9.9019     47.5044    123.4760   2.9209235068e+02   6.0771215160e+00  0.006800198  0.006287348 -18.80 0.0002222048    1.115    0.103
        44 -11.6544    108.3762     80.9689   2.9111425951e+02   6.1930668057e+00   0.01852991  0.008980529   7.95  0.001326892    3.474    0.712
        45  -9.9302    117.3058     78.3146   2.9099257471e+02   6.1688764794e+00  0.006961542  0.005013896 -25.72 0.0007025658    1.623    0.384
        46 -12.8278    134.2758     70.4328   2.9074402688e+02   6.1553460033e+00   0.02260359   0.01515116 -11.21  0.002187709    1.961    0.490
        47 -12.4226    131.5813     68.1763   2.9076207865e+02   6.1977049167e+00   0.03484271   0.01837784 -23.23  0.002628777    3.299    0.697
        48 -10.1784    164.5533     72.5096   2.9039922265e+02   5.9460242201e+00  0.006592919  0.006474788   6.66 0.0001182784    1.011    0.011
        49 -11.6475     98.5817     72.5711   2.9117877797e+02   6.3492171013e+00   0.01140635   0.01116749  24.76 0.0001398508    1.007    0.007
        50 -11.5412    141.9897     63.1833   2.9060866133e+02   6.1911743794e+00   0.02671959   0.01077754 -46.07  0.002104522    2.658    0.624
        51 -11.6644     30.8144     64.4572   2.9193062692e+02   6.8557109460e+00   0.02077331   0.01451156  36.09  0.002132948    1.389    0.280
        52 -11.3662     80.2895     55.8512   2.9129303189e+02   6.6526304976e+00    0.0113933   0.01025351  17.04 0.0003236163    1.106    0.096
        53 -10.8227     83.1475     52.1769   2.9123682553e+02   6.6772822057e+00   0.01555716   0.01065028 -27.53 0.0008934958    1.741    0.426
        54 -10.4280    118.3439     55.3593   2.9084021885e+02   6.4256088152e+00    0.0107384  0.007606229 -26.64 0.0007526976    1.658    0.397
        55 -10.3286     12.4658     52.9745   2.9207781885e+02   7.0990157694e+00   0.01027516  0.006529147 -59.91  0.001027492    1.587    0.370
        56 -10.0301    130.3058     50.6717   2.9067026010e+02   6.4060875890e+00  0.006997852  0.005020871  62.63 0.0003910225    1.653    0.395
        57 -10.5370     86.8743     42.1547   2.9113160331e+02   6.7693551816e+00  0.009427253  0.007811307 -10.87 0.0008488832    1.329    0.248
        58 -10.9918     81.8964     33.2069   2.9113585556e+02   6.9022811707e+00    0.0135688  0.007686893 -37.17  0.001227528    2.076    0.518
        59 -10.8542      4.9470     32.4577   2.9204187841e+02   7.3798745339e+00   0.01279765  0.009612956  87.39  0.001218177    1.618    0.382
        60 -11.6350     60.0002     28.0308   2.9136328688e+02   7.0952666048e+00   0.01695125  0.009090649 -51.91  0.001579758    1.847    0.459
        61 -11.1449    124.7533     14.9558   2.9051761704e+02   6.8491356156e+00  0.008835479  0.005664443 -60.26 0.0006675859    1.579    0.367
        62 -10.9585    138.1501    200.3224   2.9148950084e+02   4.6420098738e+00   0.01227801  0.008871621 -48.16  0.001312973    1.403    0.287
        63 -13.0574    144.2359    180.8843   2.9129954876e+02   4.8278006015e+00   0.01861008   0.01608766  70.72  0.002174383    1.272    0.214
        64 -12.6670    137.9018    181.5578   2.9137834193e+02   4.8588118178e+00   0.02371833   0.01483934  -4.52  0.001874503    2.238    0.553
        65 -12.0167    134.3204    179.1089   2.9140568754e+02   4.9088052058e+00   0.01287085   0.01154215  72.24 0.0006528635    1.203    0.169
        66 -10.6348    138.1428    195.1590   2.9145820096e+02   4.7012944531e+00  0.009217619   0.00762404  55.84 0.0002747237    1.286    0.223
        67 -11.1030    141.9434    192.7706   2.9139886838e+02   4.7054588235e+00   0.01255947   0.00991633  18.88 0.0007471477    1.283    0.221
