#   1 NUMBER                 Running object number                                     
#   2 MAG_AUTO               Kron-like elliptical aperture magnitude                    [mag]
#   3 X_IMAGE                Object position along x                                    [pixel]
#   4 Y_IMAGE                Object position along y                                    [pixel]
#   5 X_WORLD                Barycenter position along world x axis                     [deg]
#   6 Y_WORLD                Barycenter position along world y axis                     [deg]
#   7 A_WORLD                Profile RMS along major axis (world units)                 [deg]
#   8 B_WORLD                Profile RMS along minor axis (world units)                 [deg]
#   9 THETA_WORLD            Position angle (CCW/world-x)                               [deg]
#  10 FWHM_WORLD             FWHM assuming a gaussian core                              [deg]
#  11 ELONGATION             A_IMAGE/B_IMAGE                                           
#  12 ELLIPTICITY            1 - B_IMAGE/A_IMAGE                                       
         1 -14.6276    161.7449     54.5785   7.4997115368e+01   3.7836149792e+01     2.124833     1.595814  18.42  0.006356337    1.496    0.332
         2 -14.1660    174.7235     39.5707   6.7553838880e+01   3.6600364330e+01    0.9461693    0.9411738  53.12  0.003023709    1.045    0.043
         3 -14.6371    192.6771      7.8399   5.4941333185e+01   3.5399557096e+01     1.185183     1.076113  36.88  0.004306349    1.154    0.133
         4 -13.3342    218.5032      2.7359   5.0960949751e+01   2.9353834588e+01     2.021681    0.3084741  73.35  0.005190356    6.527    0.847
         5  99.0000     35.7803    212.4695   1.3616994715e+02   2.7363624002e+01    0.1519592   0.09403445  29.90   0.00102505    1.772    0.436
         6 -12.8192    248.5946    244.1994   1.0066318829e+02  -5.8653504798e+00    0.4953701    0.2774412  17.22  0.003371621    1.363    0.266
         7 -11.2973    153.3704    201.9664   1.1161152192e+02   1.3376986666e+01    0.2358083    0.1591845 -61.99  0.001315999    2.146    0.534
         8 -12.2721    152.9558    193.1058   1.1036697639e+02   1.4851920123e+01    0.3110211    0.2674957  65.80  0.001279434    1.416    0.294
         9 -10.5526    162.6518    202.0599   1.0975584086e+02   1.1853552599e+01     0.326474    0.2145291  62.62  0.001057936    2.310    0.567
        10 -19.1501     46.0245     98.7742   1.2225351038e+02   5.0460414602e+01     16.26492    0.8743054 -64.81   0.02571044   16.365    0.939
        11 -10.2650    172.9795    188.9999   1.0558897013e+02   1.2116230541e+01    0.1917661    0.1578868  64.37  0.001129852    1.648    0.393
        12 -10.3675    175.4593    185.8892   1.0455585315e+02   1.2168054476e+01    0.2976644    0.2272867  72.42  0.001109411    2.176    0.541
        13 -10.5936    183.0000    206.4794   1.0644024182e+02   7.9054634410e+00    0.3246689    0.1851503 -34.80  0.001796093    2.062    0.515
        14 -12.1473    152.6443    185.2735   1.0919539131e+02   1.6193455582e+01    0.3661956    0.2883081  89.81  0.001455003    1.942    0.485
        15 -11.9650     34.4389    184.3069   1.3471966397e+02   3.2728360518e+01    0.1778108    0.1646978 -80.34 0.0002368797    1.301    0.232
        16 -10.0436    242.2917    183.6809   9.1611545173e+01   1.2490684073e+00    0.1032821   0.09882832 -11.19 0.0002101246    1.603    0.376
        17 -10.9301    169.1747    182.0372   1.0518187838e+02   1.3866955371e+01     0.246558    0.1667546  37.12  0.001055553    1.272    0.214
        18 -11.2988    204.3412    175.3613   9.6906852772e+01   8.6721474524e+00    0.5585837    0.3109715 -52.81  0.002357634    3.402    0.706
        19 -11.0207    201.5103    169.0142   9.6226183140e+01   1.0097826345e+01    0.3630274     0.265714 -64.73  0.001724411    2.660    0.624
        20 -12.0720    204.4576    165.4488   9.4945640652e+01   1.0089018727e+01    0.4722903    0.3431973 -37.05  0.001446344    1.564    0.361
        21  -9.6398    199.1516    178.2271   9.8453013782e+01   9.1728596607e+00    0.1659607    0.1499143  37.56 0.0005333677    1.313    0.239
        22 -10.9085    167.9245    176.2032   1.0441609692e+02   1.5033801670e+01    0.2570814    0.2117855 -67.18 0.0005913633    1.730    0.422
        23 -12.2833    194.0816    167.0269   9.7302917537e+01   1.1747986068e+01    0.4046747     0.325005 -37.14 0.0008201406    1.441    0.306
        24 -11.1694    190.3460    161.0278   9.6859437302e+01   1.3373965276e+01    0.3370737    0.2685733  28.95 0.0009545634    1.109    0.099
        25 -11.7197    189.7397    155.6316   9.5877192437e+01   1.4349317025e+01    0.4826278    0.4119974  10.14  0.001813119    1.057    0.054
        26 -11.7849    230.1572    166.3703   9.0357316343e+01   5.4032642541e+00    0.2811894    0.1890947 -36.28  0.001561015    1.715    0.417
        27 -10.4937     26.6500    165.2996   1.3508508900e+02   3.7278905675e+01    0.3426872    0.1297548  20.62  0.001525956    3.797    0.737
        28 -11.2682    119.8102    163.5350   1.1298599215e+02   2.5726790721e+01    0.2406813    0.2154959  56.30 0.0003724093    1.091    0.083
        29 -11.9648    113.9032    161.0205   1.1397742314e+02   2.7199498899e+01    0.3663968    0.2785484  83.64   0.00106639    1.644    0.392
        30 -10.5023    132.2877    159.7262   1.0939671241e+02   2.4341416202e+01    0.2220231    0.1762016 -54.52 0.0007023755    1.403    0.287
        31 -12.7195    134.0000    144.9741   1.0620778886e+02   2.6941509211e+01     1.278887    0.3345765 -54.61  0.003141623    6.714    0.851
        32 -11.3079    166.2270    154.3106   1.0060936006e+02   1.9084386393e+01    0.4050685    0.2679722  65.36  0.001772035    2.408    0.585
        33 -12.6798    144.2022    145.8744   1.0393438953e+02   2.4856656821e+01    0.6846222    0.4603707  74.86  0.002862244    2.644    0.622
        34 -12.4663    193.8344    196.1707   1.0267907359e+02   7.5482262499e+00     1.175194     0.691299 -54.30  0.005606605    3.100    0.677
        35 -10.8120    174.2825    148.6541   9.7672436143e+01   1.8513627143e+01    0.3100893    0.2705604 -76.89  0.001141065    1.613    0.380
        36 -12.5982    135.2204    124.1690   1.0144057288e+02   3.0935740428e+01     1.159643    0.2506403 -49.25  0.002877099    5.638    0.823
        37 -11.8215    118.4943    128.8954   1.0683333749e+02   3.3109691770e+01    0.3263381    0.2639518 -29.83 0.0006937471    1.368    0.269
        38 -11.5582    160.5936    127.7059   9.6073015124e+01   2.5082032910e+01    0.4042271    0.3292273 -61.37  0.001323606    1.547    0.354
        39 -12.3270    122.1097    122.8594   1.0455728445e+02   3.3731413227e+01    0.5737879    0.3515032 -17.98  0.002177402    2.862    0.651
        40 -10.7957    113.2649    118.3176   1.0592501075e+02   3.6339518836e+01      0.25966    0.2412095  64.67 0.0004118648    1.136    0.119
        41 -11.1799    168.2740    113.2633   9.0757268392e+01   2.6131232983e+01    0.3892893    0.3126116 -83.38  0.001018454    1.864    0.464
        42 -11.3257    134.5771    105.7873   9.7091791355e+01   3.4844069959e+01    0.5261783    0.1483892 -44.92  0.001545071    3.633    0.725
        43 -10.7650    205.4256    110.1848   8.2238148525e+01   1.8476140077e+01    0.3134387    0.2328333  39.10  0.000859222    1.321    0.243
        44 -11.2783    130.1814    109.5774   9.9232641916e+01   3.4961783418e+01    0.2912337    0.2360874 -22.46 0.0006785079    1.337    0.252
        45 -11.6230    117.2170    109.3814   1.0272276139e+02   3.7544955929e+01    0.2729108    0.1926165  48.00  0.001293057    1.464    0.317
        46  99.0000     10.4249    207.0664   1.4054729251e+02   3.0650009111e+01    0.3129148    0.2798002  54.16  0.002772368    1.348    0.258
        47  -9.5112    124.6731     92.2668   9.6113156576e+01   3.9686546091e+01    0.1475427    0.1230431  80.97 0.0003716721    1.572    0.364
        48 -12.1393    204.5129    199.9850   1.0130338311e+02   5.2859974147e+00    0.3442213    0.2208987  25.01  0.001782691    1.306    0.234
        49 -11.6340    157.0061    199.1841   1.1046123014e+02   1.3218081683e+01     0.274993    0.2031641  38.50  0.001673877    1.138    0.121
        50 -10.3105    148.8614     81.0163   8.6391873679e+01   3.6528562688e+01    0.2360848    0.2184476 -64.08 0.0008662234    1.250    0.200
        51 -11.1602    160.4438    197.9309   1.0957252617e+02   1.2847105038e+01    0.2429708    0.1853155 -76.73  0.001169076    2.152    0.535
        52 -10.0710    108.2458     74.7555   9.5729345537e+01   4.6640966912e+01     0.212189    0.1726666  -8.08 0.0006579211    1.348    0.258
        53 -18.4159     67.1606    236.8007   1.3195792760e+02   1.9894555804e+01      7.44732     5.562324  87.80   0.04858578    1.406    0.289
        54 -11.8080    167.4038    231.6224   1.1296453402e+02   6.9742830227e+00    0.3141796    0.2220824  -9.02  0.001095386    1.830    0.454
        55 -13.3792    179.1048     32.2108   6.4431569870e+01   3.6374859883e+01    0.5870094     0.483572  23.12  0.001511762    1.289    0.225
        56 -10.4943     13.4435     59.7208   1.2698994488e+02   6.2083317814e+01    0.1904412    0.1698074 -68.40 0.0004002835    1.129    0.114
        57 -12.3358    188.0261     30.7056   6.2581853294e+01   3.4223689653e+01    0.5111224    0.2911387 -45.91  0.001665267    1.884    0.469
        58  -9.7933    121.6556     25.0126   7.3454962679e+01   5.2117132153e+01    0.1999143    0.1838292  -0.50 0.0004910931    1.074    0.069
        59  -9.8003    219.6127    225.0996   1.0262825550e+02  -2.4525077664e-02     0.199371    0.1036818 -40.39  0.001109818    2.713    0.631
