#   1 NUMBER                 Running object number                                     
#   2 MAG_AUTO               Kron-like elliptical aperture magnitude                    [mag]
#   3 X_IMAGE                Object position along x                                    [pixel]
#   4 Y_IMAGE                Object position along y                                    [pixel]
#   5 X_WORLD                Barycenter position along world x axis                     [deg]
#   6 Y_WORLD                Barycenter position along world y axis                     [deg]
#   7 A_WORLD                Profile RMS along major axis (world units)                 [deg]
#   8 B_WORLD                Profile RMS along minor axis (world units)                 [deg]
#   9 THETA_WORLD            Position angle (CCW/world-x)                               [deg]
#  10 FWHM_WORLD             FWHM assuming a gaussian core                              [deg]
#  11 ELONGATION             A_IMAGE/B_IMAGE                                           
#  12 ELLIPTICITY            1 - B_IMAGE/A_IMAGE                                       
         1 -10.4335    195.1451     14.9175   4.7560934772e+01   3.4283134899e+01    0.9871079    0.3374301 -29.10  0.002055843    2.656    0.623
         2 -11.2409    191.8064     51.7040   5.9318348961e+01   3.0506611601e+01     2.061649    0.5792068 -45.51  0.005559048    4.399    0.773
         3 -14.0186    216.1643     73.3456   6.1716752353e+01   2.1235461948e+01     11.94429     3.270021 -46.88   0.02237391    5.777    0.827
         4 -11.6593    249.5316     26.8626   4.5366812105e+01   1.9597665383e+01    0.7517796    0.3014988 -27.86  0.001204306    2.227    0.551
         5 -12.7654    219.1698     53.9088   5.5908815087e+01   2.3328064650e+01     2.186172     1.137738  70.19  0.009069171    2.238    0.553
         6 -12.5901    186.9156    100.3290   7.4252543010e+01   2.3751425835e+01      4.19668    0.6862203 -36.21  0.009605616    5.812    0.828
         7 -11.3342    181.1451     25.6847   5.2773827307e+01   3.6755482700e+01     1.621642    0.7377155 -45.06  0.006246754    2.295    0.564
         8 -14.1525    232.9839     15.5982   4.3933825840e+01   2.4703099167e+01     4.038965    0.9797453  58.98   0.01381949    3.771    0.735
         9 -13.4745    141.7838     39.5431   6.4697789611e+01   4.5213476772e+01     3.878834     2.302331  76.40    0.0153136    2.335    0.572
        10 -13.1205    230.2776     45.9651   5.2321407072e+01   2.1721396953e+01     1.707889    0.9031242  75.54  0.003333726    2.284    0.562
        11 -12.2234    221.2652     37.4745   5.1066227945e+01   2.4990667421e+01    0.9800141    0.5364161 -46.19  0.002616432    1.761    0.432
        12 -12.3113    247.6061     37.8026   4.8304053984e+01   1.8733629471e+01     1.160913      0.44817 -42.09  0.001481129    2.240    0.554
        13 -13.6496    235.9409     66.7067   5.7121280684e+01   1.7592657864e+01     3.609919     1.184174 -43.19   0.01238685    3.009    0.668
        14  -9.1780    115.9543     12.3414   5.9723379625e+01   5.5136299598e+01    0.3125123    0.2935738  21.28  0.001511015    1.027    0.027
        15 -10.4917    120.2156      9.0227   5.7333734393e+01   5.4450596460e+01    0.4021393    0.3738413  30.66 0.0009904127    1.013    0.013
        16  -9.0400    180.0047      4.4078   4.6022036236e+01   3.9319261384e+01    0.4583801    0.2354641  32.77  0.001382129    2.572    0.611
        17  -9.3849    183.5874      2.5672   4.5026068719e+01   3.8542560609e+01    0.4176809    0.2132989 -24.45  0.001843186    1.980    0.495
        18  -8.1471     90.3183      5.6835   6.3289527931e+01   6.1736382295e+01    0.1300021    0.1046247 -56.84 0.0003662888    1.655    0.396
        19  -8.6788    225.5311      3.0602   4.1241627549e+01   2.7793136315e+01    0.1833495    0.1215542 -32.07 0.0003693721    1.423    0.297
        20  -8.0390    205.5722      3.5670   4.3098873955e+01   3.2730814540e+01     0.133938     0.127305 -83.84  0.000181926    1.051    0.048
        21  -9.1223    171.7641      2.7546   4.6463544606e+01   4.1655294541e+01    0.3045874    0.2049583 -50.88  0.001143796    1.558    0.358
        22  -8.4011    138.2786      2.9901   5.1380825168e+01   5.0458110732e+01    0.1926785    0.1739548   0.82  0.000306805    1.143    0.125
        23  -8.5537    216.3948    156.6958   8.2003981352e+01   8.1491941497e+00    0.2077158    0.1520596 -15.47 0.0002520432    1.373    0.272
        24  -8.6100    237.8489    250.6011   9.4459767425e+01  -6.4355593380e+00    0.1552417   0.07535632  34.42 0.0005525195    1.531    0.347
        25  -8.4894    203.8780    152.8497   8.3499206086e+01   1.1146904032e+01    0.2223803    0.1749925  10.30 0.0006908102    1.298    0.230
        26 -10.2832    130.8392    236.4386   1.1059820218e+02   1.0814103070e+01    0.1872956    0.1743878  49.77 5.241796e-05    1.225    0.183
        27  -8.1130    228.3056    220.6588   9.1561184759e+01  -2.1234047154e+00    0.0983455   0.08929785  53.33 0.0007041562    1.683    0.406
        28 -11.8431    200.2511     66.3605   6.2287344534e+01   2.6175374041e+01     1.207112    0.5226473  36.99  0.003830765    3.526    0.716
        29  -8.3194    241.1252    209.1492   8.7589364859e+01  -2.7871087433e+00    0.1406242    0.1230475  17.24  0.000334341    1.297    0.229
        30 -11.8990      2.7629    197.5184   1.3076529127e+02   3.3197090967e+01    0.6343494    0.2312416 -83.07  0.003648839    2.292    0.564
        31 -13.4862     32.7521    175.7735   1.2378948380e+02   3.4662542481e+01     1.447982     1.196711  -7.86  0.001770125    2.080    0.519
        32  -9.1795    134.0000    146.9687   9.6964504847e+01   2.6029563763e+01    0.4408248    0.1006021 -50.93  0.001236412    4.776    0.791
        33 -10.1405     69.6679    145.3314   1.1219959875e+02   3.6926311923e+01    0.3493198    0.2423504  87.46  0.001508075    1.441    0.306
        34 -10.1251     66.4728    144.4841   1.1286984299e+02   3.7540676800e+01     0.427727    0.2575642 -79.02  0.001408176    1.636    0.389
        35  -7.7375    222.6960    145.3582   7.8462910604e+01   8.6377094859e+00    0.1308229    0.1093642 -63.98  0.000403579    1.721    0.419
        36 -10.6412    178.5970    142.7932   8.6312870966e+01   1.7933008080e+01    0.5405914    0.3141735 -53.89  0.002316899    2.201    0.546
        37  -8.4784    192.2085    144.2394   8.3889220121e+01   1.4890562331e+01    0.1821971    0.1695345  82.89 0.0004556278    1.326    0.246
        38 -11.2075    190.3943    138.3829   8.2945341346e+01   1.6266234134e+01    0.5739008    0.2779042  44.57  0.002384308    2.003    0.501
        39  -8.7292    211.1857    137.0265   7.8672585996e+01   1.2206203824e+01    0.2412056    0.1559426  -0.95   0.00107328    2.053    0.513
        40  -9.2059    166.4389    136.0745   8.7389093859e+01   2.1694008887e+01     0.332506    0.2105336 -22.05 0.0009141688    2.102    0.524
        41 -11.1676    181.0634    134.4615   8.3938582318e+01   1.8915160744e+01    0.5331351    0.3522227  16.74  0.002320831    2.065    0.516
        42 -10.9645    159.9384    129.0041   8.7200605385e+01   2.4421604269e+01    0.5107212    0.3874952   2.11  0.002405502    1.752    0.429
        43  -9.2334     80.2958    128.9929   1.0690335214e+02   3.9162963544e+01    0.1994544    0.1776393  57.65 0.0003533464    1.145    0.127
        44  -8.9984     10.0074    128.9833   1.2525681489e+02   4.6807261763e+01    0.1458237    0.1069413 -87.15 0.0005761452    1.047    0.045
        45 -10.5168    200.4130    116.2963   7.5759388711e+01   1.7909987503e+01    0.3944995    0.3381756  -9.33  0.001797263    1.165    0.142
        46 -10.8716    200.4806    124.4077   7.7726449072e+01   1.6520632887e+01     0.768564    0.4741711 -69.72  0.002671914    3.785    0.736
        47  -9.6617    193.3257    117.6857   7.7465790357e+01   1.9237184427e+01    0.3666701    0.2534116 -62.05 0.0008980645    2.028    0.507
        48 -12.8767     44.8920    167.7895   1.2054785791e+02   3.5032141378e+01    0.9276414    0.7931114  82.69  0.002830154    1.120    0.108
        49  -9.1971    157.5255    114.6044   8.4259556836e+01   2.7777459758e+01    0.5762621    0.2582459 -53.48  0.001947024    2.935    0.659
        50 -11.0578    205.1195    110.8618   7.3523364605e+01   1.7781939783e+01    0.5333385    0.4164867  -8.20  0.002686726    1.372    0.271
        51  -9.5461    215.5086    114.9895   7.2686356097e+01   1.4831037957e+01    0.4193263    0.2303664  -4.80  0.001360163    3.412    0.707
        52  -9.6884    134.6424    110.7319   8.8738618957e+01   3.3502175574e+01    0.6526192    0.1411461 -46.03  0.001693048    4.604    0.783
        53 -10.5684    197.5353    106.0923   7.3716971298e+01   2.0296336717e+01    0.3589917    0.2433339 -64.05  0.001526146    2.146    0.534
        54  -8.8183    159.9547    106.9213   8.1728408978e+01   2.8747571150e+01    0.2625725     0.215894 -57.64 0.0006782109    1.326    0.246
        55 -10.0458    216.4321    102.5221   6.9404671126e+01   1.6622656157e+01    0.3817715    0.2475297 -26.23 0.0003358269    1.496    0.332
        56  -9.4452    142.7646    103.8929   8.4962838942e+01   3.3188649732e+01    0.4069029    0.1970268  31.83   0.00134366    3.101    0.678
        57  -9.0779    123.3147    104.2522   8.9982201921e+01   3.7227013050e+01    0.2295931    0.1857327 -49.83 0.0007843422    1.208    0.172
        58  -9.8672    149.4833     99.1144   8.2054383788e+01   3.2661860260e+01    0.4266546     0.352799  45.45   0.00155265    1.223    0.182
        59 -10.7168    197.4185     97.5491   7.1492484983e+01   2.1780623042e+01    0.4390326    0.3788771 -16.02  0.001142367    1.152    0.132
        60  -8.8972    239.3553    191.3734   8.4778150393e+01  -4.8626461046e-01    0.2031187    0.1785737 -34.97 0.0007304125    1.549    0.355
        61  -8.8815      3.6650     95.6676   1.2383761824e+02   5.4813849580e+01    0.1223426   0.06861998 -51.47 0.0007052204    1.734    0.423
        62  -8.9348    135.9745     95.7228   8.4423307520e+01   3.6361573762e+01    0.2564123    0.2204452 -54.11  0.001066049    1.178    0.151
        63  -9.8489    159.2385     92.5837   7.7967834289e+01   3.1691379098e+01    0.4651178    0.3526382 -56.04  0.002165405    1.460    0.315
        64 -10.0061    162.9738     90.9796   7.6675669597e+01   3.1114903735e+01    0.3139401    0.3034856 -57.90  0.001073916    1.070    0.066
        65  -8.8743    226.9836    186.0435   8.5889635260e+01   2.1925680073e+00    0.1852009    0.1544839  15.81   0.00121371    1.044    0.042
        66 -10.0336    144.2735     88.2373   8.0225739861e+01   3.6016641223e+01    0.3513003    0.3053806 -39.08 0.0006338243    1.128    0.114
        67  -8.4281    220.1622    184.1919   8.6731851937e+01   3.5887670015e+00    0.1583894    0.1449875  34.61 0.0004798378    1.293    0.227
        68  -8.7009    210.5237     86.0412   6.6077862922e+01   2.0601993967e+01    0.2370822    0.2009294  50.52  0.001240535    1.240    0.193
        69 -11.4606    159.9792     81.1534   7.4466135011e+01   3.3665549671e+01    0.4036512    0.3269914 -20.52 0.0006919398    1.306    0.234
        70  -8.7538    207.0723     82.9065   6.5806810704e+01   2.1916788667e+01    0.2301515    0.1970241 -58.56 0.0005386389    1.279    0.218
        71  -9.1938     12.0228     81.8120   1.1943342324e+02   5.7524399138e+01     0.195368     0.110767 -38.22  0.001086756    2.012    0.503
        72  -9.0242    202.5850     80.3658   6.5871013458e+01   2.3398510613e+01    0.3535744    0.2245836 -62.32 0.0008098562    2.178    0.541
        73  -9.6758    147.1470     74.6490   7.5417102439e+01   3.7962123097e+01    0.6476306    0.2091544 -50.16  0.001574094    5.213    0.808
        74 -10.0777    144.4459     68.2779   7.4027355804e+01   3.9786008022e+01    0.3245192    0.2999473 -63.50  0.001211333    1.156    0.135
        75  -8.5207    156.3033     69.2742   7.1619840690e+01   3.6713460483e+01    0.3264841    0.1667267 -52.63   0.00115159    2.502    0.600
        76 -10.1492    151.8670     71.8536   7.3436784111e+01   3.7338325667e+01     0.539582    0.3223619 -53.20  0.001729008    1.975    0.494
        77  -8.2193     66.5104     69.5310   9.7598058687e+01   5.4929275490e+01    0.1383738    0.1237845 -56.88 -3.588949e-05    1.072    0.067
        78 -10.2488    118.9123     64.3126   7.9284341207e+01   4.6432376717e+01    0.2802149     0.249724 -36.05 0.0004980568    1.080    0.074
        79 -10.0398    144.4227     59.4243   7.1100825889e+01   4.1363889754e+01    0.3598502    0.2719638 -59.77 0.0006190196    1.554    0.356
        80 -12.4203    178.3950     65.0021   6.5747007973e+01   3.1891914190e+01    0.7854665    0.7173962  58.55   0.00220321    1.124    0.110
        81  -8.4700     72.9226     58.5200   9.1863084452e+01   5.6352389575e+01    0.2123758    0.1696887 -43.91 0.0003869157    1.122    0.109
        82  -9.2478    228.1071    181.3184   8.4818186282e+01   2.6141476387e+00    0.2029393    0.1681352 -20.27 0.0003099658    1.259    0.206
        83  -8.1267    186.5652    180.8146   9.2279160843e+01   1.0017167779e+01     0.158473     0.126638 -54.25 0.0003124228    1.597    0.374
        84  -7.6229     83.0000     51.9928   8.6026954541e+01   5.5994414547e+01    0.2372663   0.07533734 -43.54 0.0007599706    2.895    0.655
        85 -11.6055    179.7418     79.5516   6.9850770049e+01   2.9116622590e+01     0.851173    0.6066931 -14.55  0.001289248    1.626    0.385
        86 -10.9229    186.3881     75.2864   6.7326265925e+01   2.8195476221e+01    0.4219432    0.3757771  18.72  0.000291162    1.195    0.163
        87  -8.5762     94.4231     49.2471   8.1196149495e+01   5.4387797382e+01    0.2072444     0.130465 -47.77 0.0009468381    1.637    0.389
        88 -10.0501    135.4774    124.4030   9.1824408208e+01   3.0440141739e+01    0.8128588    0.2876042 -55.28   0.00243402    3.877    0.742
        89  -8.0386    211.2955    123.3117   7.5456258247e+01   1.4390033388e+01    0.1477971    0.1075745   8.96 0.0006975713    1.596    0.373
        90  -9.4840    205.7478    122.3165   7.6233854240e+01   1.5737895776e+01    0.2326235    0.2201563 -54.69 0.0004374821    1.215    0.177
        91 -10.1660    236.7783    174.7890   8.2100179790e+01   1.9912811194e+00    0.3477727    0.2622139  67.02  0.001790056    2.348    0.574
        92  -9.9240    224.6128    120.3763   7.2419153013e+01   1.2058057463e+01    0.3896568    0.2328351 -56.10  0.001533477    2.580    0.612
        93 -11.6703    245.4360     70.4222   5.6853143780e+01   1.4961479739e+01    0.6988356    0.5664093  -7.52  0.002654552    1.288    0.223
        94  -8.2290    140.6386    121.2681   8.9846943718e+01   3.0039669147e+01     0.151521    0.1171653  79.48 0.0006993322    1.646    0.393
        95 -10.5560    168.0415    114.0014   8.1763235766e+01   2.5558809260e+01    0.3609177      0.31463 -49.39 0.0004780602    1.192    0.161
        96  -8.2777    188.3100     19.1659   4.9713195063e+01   3.5614173175e+01    0.1992929       0.1203 -35.51 0.0003593469    1.600    0.375
        97  -8.5752    152.3082     15.5443   5.3784437612e+01   4.5553930886e+01    0.2635353    0.1587914 -36.35 0.0006660676    1.683    0.406
        98 -10.1203    196.3349    173.4962   8.9066654786e+01   9.3580864266e+00    0.2285145    0.2227201  11.77 0.0002241881    1.191    0.161
        99  -8.2804    141.8447     13.9283   5.5018006442e+01   4.8462466305e+01    0.2358652    0.1480333  14.63   0.00102523    1.985    0.496
       100  -8.2448    149.1163    175.1449   9.8780713149e+01   1.7793486334e+01     0.186933    0.1654061  22.69 0.0003089541    1.189    0.159
       101  -8.6210     82.1818    174.2466   1.1307667305e+02   2.8947298682e+01    0.1652403     0.149325  71.16 0.0004142903    1.116    0.104
       102 -10.0610    228.5540    176.1224   8.3753709097e+01   3.2204532856e+00    0.2359507    0.1704286  34.79 0.0006960086    1.277    0.217
       103  -8.2987    209.8226    165.7982   8.5055178885e+01   8.0243508623e+00    0.1660206    0.1524074  55.14 0.0003899627    1.347    0.257
       104  -8.7203    191.5095    192.0223   9.3309726382e+01   7.4591396193e+00    0.3014145     0.190873 -74.57  0.001038869    5.926    0.831
       105 -11.0395    235.4042    152.7766   7.7874899278e+01   5.1830177172e+00    0.5527633    0.3511005  29.23  0.002927751    1.547    0.353
       106  -8.3049     82.0029    159.0026   1.1114841371e+02   3.2188920065e+01    0.1584873    0.1500655 -37.48            0    1.358    0.264
       107  -8.1948    159.3982    158.2206   9.3535987783e+01   1.8960524630e+01    0.1919075     0.132789 -58.95  0.000941964    1.752    0.429
