#   1 NUMBER                 Running object number                                     
#   2 MAG_AUTO               Kron-like elliptical aperture magnitude                    [mag]
#   3 X_IMAGE                Object position along x                                    [pixel]
#   4 Y_IMAGE                Object position along y                                    [pixel]
#   5 X_WORLD                Barycenter position along world x axis                     [deg]
#   6 Y_WORLD                Barycenter position along world y axis                     [deg]
#   7 A_WORLD                Profile RMS along major axis (world units)                 [deg]
#   8 B_WORLD                Profile RMS along minor axis (world units)                 [deg]
#   9 THETA_WORLD            Position angle (CCW/world-x)                               [deg]
#  10 FWHM_WORLD             FWHM assuming a gaussian core                              [deg]
#  11 ELONGATION             A_IMAGE/B_IMAGE                                           
#  12 ELLIPTICITY            1 - B_IMAGE/A_IMAGE                                       
         1 -14.0902    202.5857     16.3136   6.3746603643e+01   3.2396759410e+01     2.344283      1.35434  46.61  0.009323484    1.989    0.497
         2 -13.7263    207.3217      9.5558   6.1460748581e+01   3.1923026349e+01     3.366279     1.724737  22.26  0.001426932    4.808    0.792
         3 -13.3407      5.9147     10.1002   1.1833786778e+02   7.3073009181e+01     1.720491    0.6986622 -39.63  0.009717385    1.862    0.463
         4 -10.3919    110.9926    249.3152   1.3292203445e+02   1.0428283970e+01    0.1730578    0.1235193  50.41   0.00058874    1.069    0.065
         5 -10.0850    249.9945    249.6932   1.0841760668e+02  -1.0877737849e+01    0.1714783    0.1085618 -21.09  0.001179674    1.642    0.391
         6 -12.1322    126.9499    244.8806   1.2954991386e+02   8.6724720689e+00    0.3389967    0.2475981  37.07  0.002224063    1.286    0.223
         7 -12.4802     81.1352    248.7326   1.3819799522e+02   1.4850321697e+01    0.6724651    0.3105282  39.46  0.003755777    1.919    0.479
         8 -11.1831     41.2958    206.4461   1.4223783401e+02   2.7819924940e+01    0.2483575    0.1813874  65.40 0.0002313668    1.085    0.078
         9 -14.5474     30.2638    247.3409   1.4675605151e+02   2.1470179826e+01     9.921865     2.839172  30.41   0.02520702   13.923    0.928
        10 -15.6872      7.4879    206.4236   1.4858169199e+02   3.1357124637e+01     8.631524       1.1895 -76.03   0.02302422    5.469    0.817
        11 -11.1301    138.8455    250.1581   1.2796262803e+02   5.9970720422e+00    0.2194204    0.2022602  24.47  0.001480601    1.307    0.235
        12 -10.3114    144.4793    243.0620   1.2609886716e+02   6.1612598082e+00    0.1494847    0.1218714 -58.48  0.000411931    1.550    0.355
        13 -11.0736    120.2855    239.6264   1.3020916172e+02   1.0559436505e+01    0.2204524    0.1588985  62.41  0.001419622    1.276    0.216
        14 -11.3866     98.0949    248.7027   1.3518309522e+02   1.2440983561e+01    0.3787075    0.1664443  48.73  0.002063856    1.731    0.422
        15 -10.4452     68.3286    234.6502   1.3935874897e+02   1.9035899200e+01    0.2476462     0.181193  42.20  0.001550522    1.403    0.287
        16 -11.2387    101.4159    246.8543   1.3441496556e+02   1.2254726620e+01    0.3946093    0.2161731  84.48  0.002079319    2.626    0.619
        17  -8.8773    180.2796    232.6590   1.1803681051e+02   1.7995143090e+00    0.1146821   0.09107551  65.58 0.0004037748    1.625    0.385
        18 -11.4892     18.6338    230.3865   1.4783404528e+02   2.5728021420e+01    0.3041804    0.2338561  55.47  0.001812683    1.299    0.230
        19 -13.5446      6.4717    243.9759   1.5041082209e+02   2.4549047042e+01     1.259567    0.8892472 -89.38   0.01042676    1.342    0.255
        20  -8.8885    229.6941    230.3046   1.0876371115e+02  -5.8377573313e+00    0.1027044   0.09090051  50.49 0.0002840637    1.602    0.376
        21 -13.0244     42.3218    229.2072   1.4365056430e+02   2.3313807575e+01    0.4148497    0.3733961  48.52  0.001558987    1.492    0.330
        22  -8.7709     92.7942    214.8731   1.3281628503e+02   1.9216306334e+01     0.170079    0.1191224  67.89 0.0002865332    1.299    0.230
        23  -8.7038    152.6930    213.0294   1.2047884289e+02   9.6055730161e+00    0.1671524    0.1522065  46.34 0.0003666061    1.077    0.071
        24 -14.5938     55.8684    211.0060   1.3976473694e+02   2.5133393093e+01     4.054303    0.9698344  53.09    0.0147368    4.092    0.756
        25 -11.3593    105.5965    246.2724   1.3360227814e+02   1.1727813392e+01     0.239751    0.1737322  47.35  0.000858804    1.135    0.119
        26 -10.3478     33.0800    207.6952   1.4390752627e+02   2.8504060178e+01    0.2235257    0.1327296  75.55  0.000371575    1.396    0.284
        27 -11.1243     23.6969    202.7839   1.4536614321e+02   3.0490195602e+01    0.3098882    0.2517033  20.22  0.002217598    1.892    0.471
        28 -10.1771    193.4485    195.6980   1.0950215282e+02   5.0908832450e+00    0.6805654    0.3441328 -62.98  0.001753875    8.724    0.885
        29 -11.4512     66.6577    195.9268   1.3616512872e+02   2.6780763337e+01    0.3307253    0.2337736 -49.31  0.001113237    1.872    0.466
        30 -11.6020     71.9882    188.5192   1.3422062211e+02   2.7607510024e+01    0.2646699    0.2208634 -60.07 0.0006281145    1.399    0.285
        31  -9.1121    120.1905    188.5196   1.2361407024e+02   1.9948441819e+01    0.2403478    0.1270018  31.00  0.001020644    2.313    0.568
        32  -9.1224    125.0906    186.3672   1.2220136756e+02   1.9516246573e+01    0.4870507    0.1374192  35.25  0.001346394    5.040    0.802
        33 -10.9122     81.1403    176.2586   1.3065870922e+02   2.8943145179e+01    0.2409237    0.2162195 -85.96 0.0004047055    1.124    0.111
        34 -13.0965     68.3694    174.0834   1.3331797100e+02   3.1257254769e+01    0.4664666    0.2748413 -46.51  0.001365425    2.215    0.549
        35 -12.0904     88.5286    167.4186   1.2767866472e+02   2.9778860574e+01      1.13164    0.5612192  57.24  0.004868709    2.225    0.551
        36 -12.7193     67.4365    144.4951   1.2943148340e+02   3.8177207254e+01      1.04969    0.6015586  86.42  0.004663483    2.267    0.559
        37 -12.2265     57.3773    130.5254   1.2989832924e+02   4.2798398720e+01     1.444473     0.505547 -76.07  0.004023792    5.514    0.819
        38  -9.0065     71.4066    163.1906   1.3117943414e+02   3.3288804612e+01    0.1868738     0.115413 -82.87 0.0004619131    1.673    0.402
        39 -12.2848     31.9875    156.1792   1.3980490101e+02   3.9653239400e+01    0.4327267    0.3499905 -74.26  0.002903822    1.174    0.148
        40  -9.9396    100.1712    151.2741   1.2216671925e+02   3.1535524970e+01     0.292955    0.2598852 -68.71  0.000796764    1.114    0.102
        41  -9.2293    102.9615    147.0793   1.2068816807e+02   3.2014460361e+01    0.2820909    0.2025952 -17.15 0.0009488883    2.346    0.574
        42 -12.0693     89.0020    150.4823   1.2485470078e+02   3.3570129769e+01    0.2734975    0.2516383 -45.16  0.000545411    1.262    0.207
        43 -10.1399     45.5223    148.9557   1.3567600326e+02   3.9867924076e+01    0.2022188    0.1101048 -70.87 0.0009591115    1.606    0.377
        44  -9.7740    134.2603    147.3188   1.1294214089e+02   2.6037540419e+01    0.4696613    0.1317984 -53.20  0.001327272    4.173    0.760
        45  -8.5169    192.3829    144.4326   9.9293937550e+01   1.4245581209e+01    0.1438846    0.1399863  -0.66 0.0001375282    1.030    0.029
        46 -13.1771     25.1230    136.5007   1.3938371018e+02   4.4821637152e+01    0.7396156    0.3742404  64.08  0.003711652    2.213    0.548
        47 -11.0093     50.1501    129.9723   1.3180729844e+02   4.3798725494e+01    0.2843901     0.226878  71.77 0.0005852988    1.251    0.201
        48  -9.7685    110.8238    136.7708   1.1661446978e+02   3.2961949853e+01    0.3356476    0.2218465 -32.89  0.001255728    2.002    0.501
        49 -10.4164     98.4759    133.7465   1.1924923815e+02   3.5886136700e+01    0.2645299    0.2299293 -18.22  0.000772788    1.454    0.312
        50  -9.5146    107.8484    123.6075   1.1453120469e+02   3.6544351902e+01    0.2185345    0.1957772 -45.32 0.0003758901    1.152    0.132
        51 -10.7466    168.0230    113.1859   9.6896711383e+01   2.5813784937e+01    0.3497301    0.2992848 -84.40   0.00066449    1.358    0.263
        52  -9.3003    156.3022     76.6638   8.9283277889e+01   3.5681163985e+01    0.1612353    0.1216836 -72.56 0.0004889811    1.663    0.399
        53 -14.1876     48.4743    220.1284   1.4189754903e+02   2.4280291984e+01     1.234282    0.6964054  52.35  0.006280928    1.421    0.296
        54 -10.1005    115.5110    249.5114   1.3212552203e+02   9.7133382948e+00    0.1190953   0.09017289  52.63  0.000284909    1.004    0.004
