#   1 NUMBER                 Running object number                                     
#   2 MAG_AUTO               Kron-like elliptical aperture magnitude                    [mag]
#   3 X_IMAGE                Object position along x                                    [pixel]
#   4 Y_IMAGE                Object position along y                                    [pixel]
#   5 X_WORLD                Barycenter position along world x axis                     [deg]
#   6 Y_WORLD                Barycenter position along world y axis                     [deg]
#   7 A_WORLD                Profile RMS along major axis (world units)                 [deg]
#   8 B_WORLD                Profile RMS along minor axis (world units)                 [deg]
#   9 THETA_WORLD            Position angle (CCW/world-x)                               [deg]
#  10 FWHM_WORLD             FWHM assuming a gaussian core                              [deg]
#  11 ELONGATION             A_IMAGE/B_IMAGE                                           
#  12 ELLIPTICITY            1 - B_IMAGE/A_IMAGE                                       
         1 -10.1196    101.0483     28.2645   3.7220500967e+01   5.4265958086e+01    0.2482105    0.1823697 -64.60  0.001048824    1.620    0.383
         2 -11.5344    161.5181     20.5150   2.5637387655e+01   4.1593480489e+01    0.3306814    0.1900274  30.64  0.001480071    3.991    0.749
         3 -11.8775      3.1362     16.1408   7.2987740121e+01   7.3654849549e+01    0.4821576      0.33333 -61.54  0.002818129    2.533    0.605
         4 -11.3768     77.8415     10.0600   3.6235491322e+01   6.1248328673e+01    0.3939591    0.1674872  49.38 0.0007715466    1.923    0.480
         5 -10.8098     75.5902     15.7008   3.8983027865e+01   6.1217120690e+01    0.4702396    0.3270818  26.98  0.002701434    1.616    0.381
         6 -10.4591     70.7764     13.9743   3.9647890544e+01   6.2418324553e+01    0.2221939    0.1809855 -23.01  0.001346546    1.467    0.319
         7 -11.4223     19.6012     16.4481   6.2402438260e+01   7.1582956155e+01    0.3492967     0.246685  24.01  0.002238572    1.158    0.136
         8 -11.5198     30.8716     13.1249   5.4564251888e+01   7.0246410522e+01    0.2749015    0.2369892 -16.36 0.0004532468    1.324    0.245
         9 -12.1721    238.1013     17.5421   1.9080990005e+01   2.7308673359e+01    0.2163303    0.1383169 -57.20 0.0002934812    1.158    0.137
        10 -11.2890     11.4426     14.1930   6.6338545123e+01   7.2985214073e+01    0.4652337    0.2392756 -11.25  0.002196181    2.791    0.642
        11 -11.5149    233.0160     15.4802   1.9017969392e+01   2.8381829973e+01    0.2098114    0.1264902 -47.45  0.001536959    1.398    0.285
        12 -10.9202    130.4088     13.0396   2.7499610607e+01   4.9175482992e+01    0.3201898    0.2048254 -54.33  0.001916105    1.636    0.389
        13 -10.4686     59.7796     13.5461   4.2858363763e+01   6.4763791436e+01    0.1922392    0.1712448   4.89 0.0007334051    1.249    0.200
        14 -11.6212    155.1226      9.6955   2.3737313704e+01   4.4049247350e+01    0.4134682    0.2040247 -43.64  0.002345525    1.983    0.496
        15  -9.9856     99.2570     12.6520   3.2444559279e+01   5.6249321789e+01    0.2107132    0.1415402 -45.79 0.0007835943    1.723    0.420
        16 -11.3760    176.9956     10.5031   2.1909496830e+01   3.9380076928e+01    0.2952893      0.17373  60.31  0.001457439    1.796    0.443
        17 -11.5955    145.9997      8.1047   2.4304781173e+01   4.6176282791e+01    0.3436123    0.2523703 -22.50  0.002259918    1.802    0.445
        18 -10.4346     34.3487      1.3930   4.6900215880e+01   7.0846662174e+01    0.5041683    0.1114532  54.02  0.001610715    5.111    0.804
        19 -11.2951     18.1813      3.6801   5.6475368191e+01   7.3346894367e+01    0.4203146    0.3044618  56.52   0.00258767    2.099    0.524
        20 -10.3160     22.1397      1.9278   5.3243501149e+01   7.2907265093e+01    0.1805384    0.1648802 -21.48  0.001344847    1.464    0.317
        21 -11.6017      9.2895      8.0913   6.4549408517e+01   7.4074966917e+01    0.3341933    0.2148896  24.70  0.002141523    1.269    0.212
        22 -11.3253     11.4030      2.4587   5.9979947157e+01   7.4479525772e+01    0.2849096    0.1935504 -10.97  0.001442319    1.470    0.320
        23  -9.9538    118.4414      7.9132   2.7728359878e+01   5.2330244764e+01    0.1590416    0.1160639 -37.32   0.00069221    1.586    0.369
        24 -11.1632     36.7879      7.7123   4.9037334989e+01   6.9799289166e+01    0.3321939    0.2036362  54.46 0.0006313444    1.679    0.405
        25 -12.0556     27.2318      3.1079   5.1204212536e+01   7.1940566945e+01    0.2475455    0.2152544  49.78  0.001004026    1.423    0.297
        26  -9.3598     72.5148     10.5086   3.7791907373e+01   6.2365333331e+01    0.2439142    0.1612588  60.19 0.0009031905    1.272    0.214
        27 -11.5781    230.0470      5.4257   1.7467721171e+01   2.9931942661e+01    0.2249116    0.1163757 -81.19  0.001447237    1.644    0.392
        28 -10.8148    222.9613      5.3591   1.7827135187e+01   3.1163477152e+01    0.1736233    0.1289455 -44.69  0.001378934    1.440    0.306
        29 -10.3502    171.9674      4.9945   2.1129812075e+01   4.0941115992e+01    0.1758787    0.1303174 -77.20 0.0004498163    1.076    0.071
        30 -10.5472    164.5205      4.7339   2.1698430954e+01   4.2513783245e+01    0.2117566    0.1436288 -67.55 0.0005266313    1.284    0.221
        31 -10.9495    213.4519      8.2214   1.8877090868e+01   3.2570194116e+01    0.1932487    0.1626698 -46.69 0.0009175247    1.433    0.302
        32  -9.8538      1.2790      5.2045   6.8653081024e+01   7.5416568887e+01    0.1335841   0.09659182 -39.05 0.0002627723    1.687    0.407
        33 -11.7356    243.2025      3.1426   1.6460090076e+01   2.7973902214e+01    0.2222778    0.1301155 -87.41   0.00149999    1.465    0.317
        34 -10.3476    201.0679      3.9034   1.8830045871e+01   3.5293262834e+01    0.1574233    0.1218748 -76.01 0.0004138938    1.076    0.070
        35 -10.9534    178.9951      3.8296   2.0329570508e+01   3.9616342148e+01    0.1698378    0.1328863 -67.37 0.0002646907    1.125    0.111
        36 -10.5884    126.0756      2.6460   2.5187857380e+01   5.1058186170e+01    0.1702655    0.1231976  72.65 0.0007614709    1.128    0.114
        37 -10.5403    168.0779      1.9543   2.0777156033e+01   4.2024273804e+01    0.1681917    0.1263902 -81.63 0.0003078349    1.037    0.036
        38  -9.6196     90.9609      2.0153   3.0427558912e+01   5.8997987980e+01    0.1309784     0.118548  64.80 0.0009322067    1.132    0.117
        39 -10.2309    235.4901      1.4876   1.6543847953e+01   2.9407205919e+01    0.1016403   0.06854846 -67.30 -2.14239e-05    1.024    0.024
        40 -10.1468     73.7909      1.5200   3.3923733761e+01   6.2829557604e+01    0.1831885   0.09656555  61.43  0.001001719    1.502    0.334
        41  -9.4311      1.6625      1.2780   6.6114199068e+01   7.5882226331e+01    0.1016014    0.0808753  35.60  0.000700263    1.615    0.381
        42  -9.7368    215.4151    193.8002   5.3608487420e+01   3.9031461524e+00    0.1773696   0.09397975 -34.00  0.000938131    1.597    0.374
        43  -9.8450    109.9790    250.0336   8.4840149375e+01   6.4394558620e+00     0.161667    0.1406731  10.88 0.0007657931    1.025    0.024
        44 -11.2341     89.3706    249.5695   8.9720520877e+01   9.0130090409e+00     0.339462    0.2246991  16.88  0.001180946    1.409    0.290
        45 -13.0388     19.1354    247.2424   1.0642293398e+02   1.7118154011e+01       1.0177    0.2187557  41.50  0.003805582    3.220    0.689
        46 -12.5000      6.7928    244.8648   1.0914600687e+02   1.8741378588e+01    0.4725077    0.3795564  87.77  0.001699172    1.238    0.192
        47 -10.6267     12.0211    250.5684   1.0824404879e+02   1.7048382888e+01    0.1802228    0.1064995  27.50 0.0004198751    1.537    0.349
        48 -11.3233     15.6948    193.0944   1.0353159774e+02   3.0408794265e+01    0.3313357    0.2230792  18.75  0.001052136    1.564    0.361
        49 -10.8676    244.6898    187.9965   4.8017792869e+01   1.5552137147e+00    0.1673428    0.1177305 -34.90 0.0005043923    1.082    0.076
        50 -10.0312     61.8248    184.4982   8.8954413593e+01   2.7792082280e+01    0.2511975    0.1733938 -58.62  0.001180431    1.442    0.307
        51 -12.7134     18.4780    181.3451   1.0168313332e+02   3.3256135042e+01    0.7782723    0.3946151  11.70  0.002827346    2.275    0.560
        52 -10.9291    244.3055    178.9951   4.6574428798e+01   3.0308255864e+00     0.265147    0.1081857 -37.44  0.001241151    1.933    0.483
        53 -10.1015    118.4880    177.4612   7.1531942931e+01   2.1274800236e+01    0.1516152    0.1417865  -9.77  0.000471862    1.018    0.017
        54 -10.5444     17.9509    172.7919   1.0101373381e+02   3.5586512800e+01    0.3450994    0.1514629  58.48  0.001259037    2.858    0.650
        55 -10.9874    248.0624    168.7125   4.4325741476e+01   4.2502857195e+00    0.1582787    0.1246401 -32.36 0.0005998436    1.063    0.059
        56 -10.3958      5.5242    167.9461   1.0442556701e+02   3.7836405175e+01    0.2175295    0.1270469 -75.52 0.0006082161    1.576    0.365
        57 -10.9711     35.2985    161.0330   9.4056240607e+01   3.7162102666e+01    0.2818312     0.235015  -2.70 0.0001813707    1.304    0.233
        58 -11.1320     36.8566    165.8355   9.4187755409e+01   3.5694096019e+01     0.327788    0.2792896  86.17 0.0004587759    1.214    0.177
        59 -11.1185     33.1496    166.1731   9.5433560895e+01   3.5982122342e+01    0.2433019    0.2044062 -76.13 0.0002846372    1.167    0.143
        60 -11.4331     51.7357    161.5669   8.8713069237e+01   3.5164610526e+01    0.6228637    0.4618638 -70.71   0.00299589    1.378    0.274
        61 -10.2945      8.4088    163.0479   1.0307182484e+02   3.8950769644e+01    0.2617636    0.1890962 -16.91 0.0006933627    1.603    0.376
        62 -11.1782    246.9978    157.9823   4.2650946416e+01   6.0894246511e+00    0.1462641    0.1080252 -38.30 0.0005973607    1.020    0.020
        63 -11.0442     21.1962    156.8489   9.8220346544e+01   3.9633464016e+01    0.3948145    0.3296792 -14.45  0.002130591    1.307    0.235
        64  -9.7536    216.4555    154.5083   4.6418560443e+01   1.0646534539e+01    0.1263934    0.1029541 -39.27 6.316586e-05    1.025    0.024
        65 -11.1330    236.3181    151.8971   4.3035645962e+01   8.4103675301e+00    0.2817078    0.1205315 -41.29  0.001433717    1.830    0.453
        66 -10.5733     10.6261    152.9782   1.0133002013e+02   4.1518371171e+01    0.3126412    0.2110246  18.02  0.001316356    1.585    0.369
        67  -9.7528    222.5365    151.4865   4.4936678807e+01   1.0324548207e+01     0.124365    0.1001234 -41.28 0.0001815479    1.041    0.039
        68  -9.7767     21.1666    147.8757   9.7114575792e+01   4.2083541030e+01    0.2005994    0.1550907 -41.94 0.0002932645    1.282    0.220
        69 -10.3156    234.3682    147.1561   4.2464349553e+01   9.4511242444e+00    0.1780538    0.0896355 -49.01 0.0009476188    1.721    0.419
        70  -9.9478    187.7560    144.1508   4.9243511191e+01   1.6917007171e+01    0.1778013    0.1473163 -17.19 0.0004828266    1.307    0.235
        71 -10.1670     13.9719    139.7781   9.8626191156e+01   4.4859922062e+01    0.1794637    0.1189192  13.66 0.0003766301    1.625    0.385
        72  -9.4968    143.9846    137.2538   5.6804733107e+01   2.6043446388e+01    0.1795654    0.1275893  41.18 0.0004739091    1.472    0.321
        73  -9.8982     43.6096    137.2066   8.7461279289e+01   4.2722932261e+01    0.2265865    0.1268417 -51.85 0.0009474755    1.675    0.403
        74  -9.4704     76.2814    136.3022   7.5849850149e+01   3.8422915016e+01     0.158293    0.1174221 -23.09   0.00025939    1.550    0.355
        75  -9.6665      9.4506    136.4516   9.9847930132e+01   4.6081438846e+01    0.1418636    0.1292014 -58.81 5.930824e-05    1.008    0.008
        76 -12.6971    241.9129    133.5302   3.9066558236e+01   1.0664334984e+01     0.339911    0.2171132 -31.20  0.001366635    1.536    0.349
        77 -10.8599      2.8388    134.1719   1.0198747190e+02   4.7110692960e+01    0.2044977    0.1464189 -46.28 0.0006546868    1.311    0.237
        78 -10.8285     53.8147    132.3952   8.2858281616e+01   4.2729490093e+01    0.3427767    0.2469234  15.80  0.001184273    1.464    0.317
        79 -12.4124     36.3254    131.6214   8.9155263457e+01   4.5040959620e+01    0.4887098    0.2627228 -49.06 0.0006089826    1.745    0.427
        80 -10.7739     73.6200    129.0981   7.5176661628e+01   4.0682620700e+01    0.3174537    0.2925366  60.99  0.001190505    1.188    0.158
        81 -10.5967      4.2906    130.1810   1.0098705523e+02   4.8096487740e+01    0.2350299    0.1805289 -19.12 0.0007002208    1.378    0.274
        82 -10.0786     20.6431    134.7559   9.5506964171e+01   4.5694363916e+01    0.2075837    0.1329743 -83.10 0.0007195115    1.686    0.407
        83 -10.7617     56.7695    126.6256   8.0602815434e+01   4.3837765776e+01    0.2871426    0.2204691 -23.84 0.0004919181    1.407    0.289
        84 -10.9979      7.1834    118.1173   9.8291536057e+01   5.1131613806e+01    0.2194852    0.2099319  -3.10 0.0006949143    1.119    0.107
        85 -11.8489     15.0140    125.4449   9.6276883823e+01   4.8646215120e+01    0.6212607    0.2143882  22.81  0.002280299    2.840    0.648
        86 -11.4605     10.8448    122.2584   9.7435812048e+01   4.9794966405e+01    0.3563156    0.2488297  59.19  0.001501625    1.692    0.409
        87  -9.8420    219.4775    124.4750   4.0356368904e+01   1.5390913725e+01     0.124031    0.1013623 -45.80 0.0008096844    1.015    0.015
        88 -11.6969    243.8258    122.1421   3.6832429443e+01   1.2211198359e+01    0.1795412    0.1283524 -53.71  0.000982187    1.204    0.170
        89 -10.4535     19.8004    121.7953   9.3842128519e+01   4.9241384083e+01    0.1931982    0.1662559  68.13 0.0006280569    1.314    0.239
        90  -9.5864     71.3132    121.2891   7.4196908965e+01   4.3014779821e+01    0.1578956    0.1173519 -17.14 0.0003853592    1.586    0.370
        91 -11.6528     24.3403    117.6902   9.1337056932e+01   4.9932817728e+01      0.38723    0.2575508 -87.89  0.001779224    1.835    0.455
        92 -11.8990    249.6599    117.7287   3.5399361705e+01   1.2095322193e+01    0.2776803    0.1595003 -48.08  0.001279941    1.335    0.251
        93 -12.2627    249.5097    111.8572   3.4400274155e+01   1.3012867355e+01    0.3319944    0.2806866  36.96  0.001971271    1.669    0.401
        94  -9.1979     82.3232    119.2992   6.9950714525e+01   4.1660342298e+01    0.1590474    0.1195041 -13.21 0.0002641211    1.628    0.386
        95 -10.4219      1.3107    118.5557   1.0068301243e+02   5.1355520535e+01    0.2536242    0.1228107 -70.18 0.0001919001    1.850    0.460
        96 -10.0702      3.2753    114.6467   9.9374646398e+01   5.2275643593e+01      0.22865    0.1352229 -76.39 0.0007217151    1.662    0.398
        97 -10.2034     42.1576    117.1856   8.4149628863e+01   4.8183274164e+01    0.2063582    0.1794474  68.15  0.001072114    1.344    0.256
        98 -10.9898    182.1100    114.6910   4.4138209085e+01   2.3424687979e+01    0.3345461    0.2508827  26.10  0.001476476    1.812    0.448
        99  -9.3912     86.2549    116.2969   6.7912945003e+01   4.1684289835e+01    0.1508435    0.1173927 -18.33 0.0006887299    1.496    0.332
       100 -11.0377     52.5008    115.8225   7.9843724862e+01   4.7199785122e+01    0.3500517     0.285653 -52.93  0.001077767    1.208    0.172
       101 -10.1194    105.8234    115.1603   6.1563565340e+01   3.8277623686e+01    0.2134059    0.1824904 -12.82  0.000685713    1.319    0.242
       102 -10.9164      9.9087     99.3144   9.4126304423e+01   5.5817318415e+01    0.1929206    0.1823908  69.92  0.000473441    1.227    0.185
       103 -11.1435     15.9916    115.2328   9.4293726790e+01   5.1277976979e+01    0.2696031    0.2267104 -75.07 0.0009484143    1.217    0.178
       104 -12.8437     14.3071    110.1059   9.4127949893e+01   5.2742913114e+01    0.5361643    0.5048907 -27.53  0.003192974    1.057    0.054
       105 -10.2264     94.2311    111.9396   6.4255606136e+01   4.1229110017e+01    0.2364878     0.214477  84.15 0.0008138471    1.260    0.206
       106 -10.9206     55.0033    109.6106   7.7439348117e+01   4.8403048243e+01     0.283849    0.2219654 -54.37 0.0006141157    1.285    0.222
       107 -12.2719     38.1935    109.1583   8.4022835279e+01   5.0706961501e+01    0.5516142    0.3327026  20.93  0.002245405    1.689    0.408
       108 -10.8064      2.5029    106.1652   9.8470504501e+01   5.4521278291e+01    0.3959481    0.1991902 -61.88   0.00181325    1.702    0.412
       109 -12.2622    248.1416    105.5779   3.3456649109e+01   1.4154629555e+01    0.2544683    0.2149041  81.18  0.001958972    1.435    0.303
       110 -10.5147     37.8432    102.4097   8.2652178254e+01   5.2438259308e+01    0.3013642      0.22846  77.04  0.001358892    1.808    0.447
       111 -11.3114     62.4323     98.6829   7.1812291579e+01   4.9891318268e+01    0.4154163    0.3241677  -8.80  0.001413824    1.431    0.301
       112 -11.6360     25.1908    105.8479   8.8744233065e+01   5.2920010392e+01    0.5419018    0.2867682 -13.35  0.002151772    2.460    0.593
       113 -11.4743     16.7036     99.6699   9.1188396411e+01   5.5224831470e+01    0.3039463    0.1715334 -44.03  0.001225624    1.606    0.377
       114 -11.8455     14.9740     97.2233   9.1475778379e+01   5.5974367206e+01    0.3538639    0.2584045 -22.98  0.001271297    1.333    0.250
       115  -9.6203    144.5857     99.2250   4.7775920238e+01   3.3683006129e+01    0.1929191    0.1340865 -34.36 0.0009370053    1.567    0.362
       116 -10.3224     33.9956     97.6844   8.3186985564e+01   5.4045321123e+01    0.3418976    0.1762471 -48.68  0.001472086    1.794    0.443
       117 -10.4445     21.6476     99.0521   8.8883884994e+01   5.4959592913e+01    0.2414988    0.1954125  30.97  0.001313274    1.326    0.246
       118  -9.3869    111.6885    105.7722   5.7497313273e+01   3.9165282952e+01    0.1426146    0.1156347  12.34 -0.000275831    1.486    0.327
       119 -11.7755    249.4652     92.2141   3.1008202940e+01   1.5940775438e+01    0.3138738   0.09331094 -37.51   0.00130784    3.432    0.709
       120 -10.1717    231.7162     91.3451   3.2664876434e+01   1.8768739964e+01    0.1206193   0.07213159 -62.54 0.0003660188    1.643    0.391
       121 -11.2944    158.8721     89.7987   4.2658775106e+01   3.2436307860e+01    0.4769891    0.2912936  37.49  0.002225643    2.153    0.536
       122  -9.8963     56.5000     90.9533   7.2026430858e+01   5.2596710489e+01    0.2197556    0.1425278 -48.85 0.0005079053    1.553    0.356
       123 -10.7620     10.5131     90.8492   9.2241961572e+01   5.7881894318e+01    0.2383291    0.1790543  -9.45 0.0003691165    1.311    0.237
       124 -10.4662     83.4837     89.0255   6.1526873858e+01   4.8289215616e+01    0.2901978    0.2043511  21.88  0.001103964    1.616    0.381
       125 -11.0961     21.9535     87.7252   8.6237508240e+01   5.7699462050e+01    0.3124866    0.1998104 -64.98  0.001524843    1.657    0.397
       126  -9.8549     94.4680     88.4786   5.7832448147e+01   4.6235945837e+01    0.1464164    0.1409341  39.63 5.120371e-05    1.016    0.015
       127 -10.6524     38.1843     91.2487   7.9784136459e+01   5.5094144516e+01    0.2393056    0.1791658 -37.96 0.0003863446    1.277    0.217
       128 -11.3321    247.0731     84.5016   2.9900410512e+01   1.7404595476e+01    0.1390204    0.1052562  73.47 0.0006795606    1.565    0.361
       129 -10.0091     65.4890     87.0166   6.7388900897e+01   5.1994020390e+01    0.1986274    0.1351676 -79.67 0.0008096559    2.535    0.606
       130  -9.5871     54.0220     85.9567   7.1617355999e+01   5.4095515883e+01    0.1646438    0.1522599   0.96 0.0009185021    1.003    0.003
       131  -9.9012     38.9743     86.2752   7.8126553000e+01   5.6150901627e+01    0.2005332    0.1712179   7.84   0.00110515    1.116    0.104
       132 -10.3806      9.6195     86.0331   9.1677218722e+01   5.9115366876e+01    0.3013518    0.1608904  36.09 0.0008327887    2.112    0.526
       133 -10.3979    157.4345     84.0302   4.1541905426e+01   3.3728374442e+01    0.3902071    0.1276272 -40.70  0.001417847    3.000    0.667
       134 -10.3317    107.1862     84.7472   5.3051809494e+01   4.4336318325e+01    0.2036025    0.1865017  66.22 0.0003453244    1.106    0.096
       135  -9.7364     68.0804     82.8618   6.5181255971e+01   5.2421939241e+01    0.3240925    0.1921679   9.51  0.001216463    2.784    0.641
       136 -11.4481     30.7825     81.5840   8.0576615282e+01   5.8214571079e+01    0.3345324    0.2664561 -14.60 0.0009383991    1.201    0.167
       137  -9.3364     73.6808     91.6290   6.5683381646e+01   4.9559313255e+01    0.1586428    0.1139986 -11.04  0.000703429    1.796    0.443
       138 -10.1750     75.8195     82.0088   6.2101711172e+01   5.1184186726e+01    0.2777892     0.179063  51.82  0.001262077    1.712    0.416
       139  -9.2151     62.4799     82.4543   6.7202669413e+01   5.3479346133e+01    0.1466688    0.1343295   6.82 0.0001667677    1.028    0.027
       140 -10.1737     42.3840     82.2243   7.5496739323e+01   5.6615703898e+01    0.1890334    0.1386493 -64.59 0.0004117162    1.635    0.388
       141 -10.5470      7.4341     81.2643   9.1724036164e+01   6.0404401359e+01    0.3440251     0.212689 -34.28  0.001409624    1.468    0.319
       142 -11.0666     99.9884     76.7904   5.2780463799e+01   4.7340493240e+01    0.2865138    0.2454131 -86.72 0.0008921491    1.378    0.274
       143 -10.8942     88.0702     77.3399   5.6560020492e+01   4.9705690203e+01     0.236143    0.2058629 -52.23 0.0002092451    1.248    0.199
       144  -9.9171     15.6343     83.1716   8.8162407612e+01   5.9339585028e+01    0.3099566    0.1212777  33.71  0.001225825    2.684    0.627
       145 -12.0114     21.9009     74.6479   8.2961561739e+01   6.0731219795e+01    0.4732274    0.2420126 -43.45  0.002064752    1.799    0.444
       146 -14.1483     16.5754     67.3912   8.3662847453e+01   6.2843199406e+01    0.5709192    0.3980316 -37.84  0.001124781    1.298    0.229
       147 -11.7220     44.6143     74.8073   7.2319324224e+01   5.7909004104e+01    0.2625498     0.213102  26.30 0.0003460924    1.182    0.154
       148 -11.8877    167.7404     73.4187   3.7283931076e+01   3.3313342154e+01    0.2311697    0.1960477 -69.35  0.000289601    1.075    0.070
       149 -12.0177      5.9083     71.7788   9.0357557456e+01   6.2711020158e+01    0.5998457    0.4514817 -25.45  0.003493794    1.171    0.146
       150 -12.7448     12.4630     47.7507   7.9844677072e+01   6.7268794414e+01    0.5265602    0.3426919 -64.98  0.002806947    2.078    0.519
       151 -12.1898      2.5862     62.8906   8.9961419896e+01   6.4913439816e+01    0.6877996    0.3352616 -57.85  0.003350155    1.884    0.469
       152 -12.3045      4.7294     49.8973   8.5094328584e+01   6.7505652225e+01    0.7375126    0.5366144 -75.21  0.004207449    1.926    0.481
       153 -10.4485      7.1068     41.4203   8.0846832505e+01   6.8968131159e+01    0.3917843    0.1705595 -46.51  0.001651031    2.091    0.522
       154 -10.7751     10.9127     61.5267   8.5023496937e+01   6.4601601889e+01    0.3123467    0.2367014  34.76  0.001374828    1.519    0.342
       155 -11.1730     12.0649     57.0748   8.3079078186e+01   6.5438527520e+01    0.3656111    0.2372082  43.72  0.001461732    2.006    0.501
       156 -10.7554    245.4929     72.4669   2.7955287654e+01   1.9332167569e+01    0.1107792   0.08196487 -57.70 8.498204e-05    1.011    0.011
       157 -10.9468     54.1977     72.0296   6.7322541301e+01   5.7003771040e+01    0.2178622    0.1906125  13.31   0.00123324    1.054    0.051
       158 -12.1526     50.1863     68.4291   6.7862065755e+01   5.8366732178e+01    0.2961312    0.2523121 -28.50 0.0002422346    1.178    0.151
       159 -10.1705    250.3411     70.3277   2.7175865721e+01   1.8884734483e+01   0.09337702   0.08157927 -19.09 0.0007051424    1.737    0.424
       160  -9.9989      2.9985     77.7503   9.3178571858e+01   6.1511530120e+01      0.18163    0.1565745 -34.54 0.0004102606    1.022    0.021
       161 -11.2553    122.8168     67.2670   4.4177955679e+01   4.4015629920e+01     0.231966    0.2086882 -61.25 0.0003167391    1.143    0.125
       162 -10.3244    139.9630     66.1746   4.0312637703e+01   4.0398819858e+01    0.2393317    0.1665088  56.26 0.0009841233    1.385    0.278
       163 -11.6464    155.9840     63.7854   3.6864325454e+01   3.7275443902e+01    0.2399412    0.2007139 -63.76 0.0002959823    1.128    0.114
       164 -11.0939     32.3986     63.7304   7.4525173917e+01   6.1867714097e+01    0.3794538    0.1829161  31.56  0.001083258    1.963    0.490
       165 -10.9587     28.3884     60.8379   7.5582940102e+01   6.2953017204e+01    0.5606798    0.2302258  22.74  0.001650902    2.459    0.593
       166 -10.8769     76.9086     62.1580   5.5423671712e+01   5.4695435182e+01     0.216291    0.1939382   5.06  0.001250622    1.161    0.138
       167 -10.1252    202.1489     62.2270   3.0285467329e+01   2.8163825153e+01    0.1651793    0.1447965 -54.19   0.00116143    1.198    0.166
       168 -11.0513     46.2738     60.6178   6.6960362865e+01   6.0492046746e+01    0.2862826    0.2262547   0.70  0.000230178    1.266    0.210
       169  -9.8665    168.9892     59.7708   3.3915833461e+01   3.5104246014e+01    0.1715252    0.1481099 -87.03 0.0002501705    1.045    0.043
       170  -9.2007    138.2695     60.2550   3.9070435558e+01   4.1675873821e+01    0.1208889    0.1013075  34.24            0    1.451    0.311
       171 -10.2601    134.8901     58.1790   3.9155287696e+01   4.2734465359e+01    0.2444671    0.1755169 -85.46 0.0004021882    1.590    0.371
       172  -9.9122    119.2609     60.6365   4.3093307960e+01   4.5851854794e+01    0.1874941    0.1172108  48.41 0.0001979926    1.542    0.352
       173 -10.0087    115.0789     60.1271   4.3906191632e+01   4.6861858402e+01    0.2364877     0.144695  33.07  0.001063221    2.157    0.536
       174  -9.1663     98.3177     60.2523   4.8210012115e+01   5.0532883202e+01    0.1366898    0.1022926  28.07            0    1.530    0.346
       175 -11.9683    231.8359     58.1904   2.6613127450e+01   2.3456452069e+01    0.3481374    0.1281881 -51.77  0.001723553    2.213    0.548
       176 -10.7053     58.2455     59.0971   6.1328934112e+01   5.8762549451e+01    0.3491023     0.179849  29.68   0.00104866    2.031    0.508
       177 -10.4537     80.5665     56.2860   5.2234729809e+01   5.4930639000e+01    0.3956644    0.2607144   4.63  0.001536049    2.471    0.595
       178  -9.7253     75.1178     55.8758   5.3911320057e+01   5.6105594989e+01    0.1875674    0.1499833  22.17 0.0004240757    1.292    0.226
       179 -12.5181    104.9955     52.4627   4.4024362382e+01   5.0257025340e+01    0.2580331    0.2396159  68.16 0.0003339139    1.043    0.041
       180  -9.5802     89.0016     54.4914   4.9019526338e+01   5.3443347665e+01    0.1909305    0.1182131  73.26 0.0008090935    2.434    0.589
       181 -12.8056     37.8900     49.5381   6.6885384176e+01   6.3795894105e+01    0.6327577    0.5555267 -18.30  0.003370263    1.148    0.129
       182 -10.6876     27.5008     48.9732   7.1930549817e+01   6.5346112268e+01    0.2205105    0.2124668  29.12  0.001439224    1.323    0.244
       183  -9.9744    106.2355     63.9905   4.7238900219e+01   4.8204355834e+01    0.1778443    0.1755658 -89.43  0.001080001    1.077    0.071
       184 -11.3031    128.8392     50.3072   3.8155144051e+01   4.5214847341e+01    0.3310381    0.2637835 -11.95 0.0006112108    1.703    0.413
       185 -10.5793     27.6805     53.3612   7.3412296645e+01   6.4503624794e+01    0.3996398     0.264027   3.23   0.00151909    1.558    0.358
       186 -11.1274     44.5301     42.9872   6.1243277288e+01   6.3844829647e+01    0.3145736     0.286326 -22.74  0.001232022    1.221    0.181
       187 -11.6428     44.8676     38.1545   5.9156376395e+01   6.4538707146e+01    0.2399211    0.2060145  40.15  0.001499013    1.231    0.187
       188 -11.1702     51.7922     46.6418   5.9464698030e+01   6.2013746420e+01    0.4323331    0.2202273 -47.05  0.001866408    2.365    0.577
       189 -10.1031     82.9895     47.8365   4.8584315675e+01   5.5721934849e+01    0.2203482    0.1552476  77.98  0.001080276    1.982    0.495
       190 -10.1285     78.4449     47.2524   4.9805529431e+01   5.6761421869e+01    0.2097986    0.1354733 -31.44 0.0002800922    1.766    0.434
       191  -9.9314     68.9431     48.1451   5.3339889431e+01   5.8559152102e+01    0.1799942    0.1402361  27.57 0.0003568071    1.240    0.194
       192  -9.6550    143.1764     45.7844   3.4390301808e+01   4.2618625338e+01    0.1624074     0.143515  47.53 0.0004692002    1.303    0.232
       193 -10.5103    112.4479     45.3618   4.0094604608e+01   4.9584857354e+01    0.2197399    0.1801635  55.09  0.001053282    1.121    0.108
       194  -9.8846    104.4977     46.4371   4.2261442132e+01   5.1223133596e+01    0.1348049    0.1192866  60.19 0.0001116678    1.008    0.008
       195 -10.0291     13.9941     34.4963   7.3984583019e+01   6.9532484465e+01    0.1996734    0.1326997   2.34 0.0004320882    1.391    0.281
       196 -11.5383     18.0298     31.0520   7.0119205431e+01   6.9633402048e+01    0.5186767    0.4696788  45.39  0.003486861    1.552    0.356
       197 -11.1573     23.8963     41.9033   7.1199781215e+01   6.7073017787e+01    0.4145783    0.2579735 -39.77  0.001415216    1.625    0.385
       198 -13.0547     27.6475     37.8392   6.7533407656e+01   6.7264534597e+01    0.2962587    0.2543171   3.07 0.0004653773    1.064    0.060
       199 -12.5771     24.9165     34.6757   6.7710811306e+01   6.8154725949e+01    0.2619607    0.2007067  18.17 0.0004421867    1.116    0.104
       200 -10.6648     96.4491     42.4197   4.2972047822e+01   5.3558546895e+01    0.2766946    0.1949317  34.39 0.0007562096    1.554    0.357
       201 -10.0546     72.4462     42.2200   4.9966714810e+01   5.8726280998e+01    0.2935012    0.1161071 -45.87   0.00104527    3.263    0.694
       202 -10.6729     67.1007     42.3988   5.1882093686e+01   5.9780248360e+01    0.2713943    0.1847112 -28.93  0.001104919    1.667    0.400
       203 -10.6536     89.5759     41.2553   4.4409850467e+01   5.5225556126e+01    0.2858961    0.1745376  45.31 0.0008429092    1.488    0.328
       204 -10.2271     80.0883     42.0777   4.7459099932e+01   5.7154622569e+01    0.2527176    0.1677665  55.66  0.001028165    1.404    0.288
       205 -11.1776     37.5518     39.4744   6.3127061866e+01   6.5534504083e+01    0.5475855     0.306086  -3.84  0.002218545    3.157    0.683
       206 -10.3175     39.1321     35.7872   6.0845975812e+01   6.5853621429e+01     0.213563    0.1760004 -10.65 0.0004755648    1.210    0.174
       207 -10.5063     17.7188     42.3426   7.4851059073e+01   6.7734688131e+01    0.3021941      0.16217  10.21  0.001123096    1.958    0.489
       208  -9.7656    130.5449     40.4734   3.5095215132e+01   4.6132901874e+01    0.2062834    0.1310727 -17.04 0.0007000726    2.356    0.576
       209 -10.7123    235.9748     39.6793   2.3003779075e+01   2.5119566235e+01     0.161213    0.1390623 -38.85 0.0006278359    1.525    0.344
       210 -10.2488    226.7567     40.5574   2.3841593818e+01   2.6573642299e+01    0.1416633     0.086731 -84.72 0.0007407282    1.556    0.358
       211  -9.6358    168.5072     40.4892   2.9497504203e+01   3.7798976789e+01    0.1269062    0.0995812 -76.75 -0.0001312522    1.116    0.104
       212  -9.8944    159.3142     38.1430   3.0108902843e+01   4.0052988754e+01    0.1645169    0.1374534 -78.39 0.0003736784    1.048    0.046
       213 -11.3380    248.1343     36.2040   2.1595913202e+01   2.3565078863e+01    0.1697901    0.1245705 -62.07 0.0004645037    1.055    0.052
       214  -9.9937      1.6074     37.0245   8.2758826335e+01   7.0246205895e+01    0.1762664    0.1338947 -28.28 0.0008786367    1.140    0.123
       215  -9.6879    101.8001     36.1914   3.9629897087e+01   5.3164267166e+01    0.1691071    0.1401636  38.95 0.0003999918    1.255    0.203
       216 -10.7698     74.6852     35.9549   4.6925166667e+01   5.9113370307e+01    0.2252647    0.1670098  61.43 0.0004894622    1.370    0.270
       217 -10.9583     77.6788     33.0144   4.4913259167e+01   5.8854884723e+01    0.3083163    0.1817168  34.13 0.0005031761    1.830    0.453
       218 -10.6158    234.9640     35.5263   2.2351212891e+01   2.5787348423e+01    0.1432795   0.09074765  82.81 0.0004689148    1.554    0.356
       219  -9.7766    135.0566     34.9670   3.2817761036e+01   4.5793309284e+01    0.2014493    0.1342921 -75.83  0.000636222    1.649    0.394
       220 -11.1888    111.2309     34.7144   3.7096366634e+01   5.1215496940e+01    0.2463907    0.1829392  57.20 0.0007331367    1.190    0.160
       221 -11.7547      8.1870     31.6380   7.6450868417e+01   7.0633456033e+01    0.3777721     0.293555 -61.10  0.001377365    1.831    0.454
       222  -9.8103    191.2938     33.9955   2.5600622755e+01   3.3935653596e+01    0.1593911    0.1268571 -69.50 0.0004197477    1.041    0.040
       223  -9.6527    177.6370     34.2511   2.7035525960e+01   3.6658421170e+01    0.1505189    0.1106591 -29.77 0.0009445342    1.693    0.409
       224 -10.9199    122.2819     33.3132   3.4535956774e+01   4.8875349732e+01    0.2847683    0.2053111  72.18 0.0008712939    1.238    0.192
       225 -10.0648     34.2394     33.4492   6.2261666491e+01   6.6986260518e+01    0.3007532    0.1553732  47.94  0.001263986    2.351    0.575
       226  -9.7502     30.4795     31.9828   6.3563417714e+01   6.7782321336e+01    0.1755728    0.1226206 -39.51  0.001023538    1.616    0.381
       227 -11.1183    221.6434     31.7159   2.2619081874e+01   2.8528286667e+01    0.1956222    0.1314025 -62.76 0.0002277958    1.144    0.126
       228  -9.7473    100.2421     31.9670   3.8613772307e+01   5.4022703615e+01    0.1959824    0.1597025  71.01 0.0005536778    1.142    0.124
       229 -11.1495    224.5832    247.5583   6.0691610649e+01  -5.6504721850e+00    0.3066958   0.08945001 -42.57  0.001402652    2.967    0.663
       230 -12.0934     57.6487     34.1535   5.2191982550e+01   6.2783630114e+01    0.3222445    0.2506895  20.47 0.0004113843    1.266    0.210
       231 -10.8248     49.3882     29.1902   5.3459941150e+01   6.5001760752e+01    0.3182708    0.2004068 -23.40  0.001302112    1.841    0.457
       232 -10.0343      1.4584     30.9466   8.0595314984e+01   7.1365626310e+01    0.1631299    0.1086408 -43.72 0.0004238272    1.472    0.321
       233 -11.3217    145.0824     29.5940   2.9893155030e+01   4.4180552545e+01     0.268411    0.2085723 -18.44 0.0004908501    1.744    0.427
       234 -12.3344    156.7861     28.2347   2.8027971403e+01   4.1768609144e+01    0.2497041    0.2371071  59.96  0.000383835    1.316    0.240
       235  -9.6964    160.3212    249.3387   7.3353986714e+01   6.0871987865e-01    0.1359836   0.08236334 -13.10 0.0007050311    1.715    0.417
       236 -10.7490    197.6693     28.1345   2.3827941284e+01   3.3377808220e+01    0.1946609    0.1264172 -86.66  0.000610575    1.361    0.265
       237 -11.1502    112.5844     26.4570   3.4287555832e+01   5.1853604829e+01    0.3646691    0.2487572  -8.33  0.001990594    2.158    0.537
       238 -10.1339     83.4758    248.3181   9.1012039392e+01   9.9719263586e+00    0.2426729    0.1308095  42.67 0.0008403636    1.787    0.440
       239 -10.9017      1.6874     25.6704   7.8309065793e+01   7.2261921999e+01    0.2773255    0.1676048  -7.00  0.001350926    1.536    0.349
       240 -10.4056      1.6968     22.6774   7.7019189014e+01   7.2760606028e+01    0.1948752    0.1380486 -11.59 0.0005561007    1.179    0.152
       241 -10.4355    225.9484     23.4897   2.0840623998e+01   2.8716602254e+01    0.2631154    0.1058871 -56.05  0.001270678    1.991    0.498
       242 -10.5223    215.9803     25.1925   2.1829848734e+01   3.0291746859e+01    0.2141028    0.1222527  70.47  0.001065928    1.766    0.434
       243 -10.7540     22.0736     24.2810   6.4728664761e+01   7.0142001009e+01    0.2767305     0.155087  17.06  0.001049979    1.811    0.448
       244 -10.8578      9.4791     24.6818   7.2646079134e+01   7.1653431220e+01    0.4110221    0.1863011  17.28  0.001882461    2.179    0.541
       245 -10.1672     54.4629     23.4427   4.8984871937e+01   6.4757507983e+01    0.1999803    0.1685415  84.56 0.0008442057    1.681    0.405
       246  -9.7913     87.6274     30.8405   4.1328726989e+01   5.6962544001e+01    0.1665425    0.1170169 -47.94 0.0007616325    1.690    0.408
       247 -10.2578     83.3265     22.1831   3.9356165547e+01   5.8874747056e+01    0.2222368    0.1654463  61.39  0.001163754    1.176    0.150
       248 -10.3005     34.6332     21.6152   5.6783879133e+01   6.8579253382e+01    0.2468363    0.1769511 -35.89  0.001513723    1.641    0.391
       249  -9.5645    155.6846     21.7158   2.6576077809e+01   4.2721601264e+01    0.1124035   0.08421357  50.16 0.0003146938    1.581    0.368
       250 -10.9684     59.0362     21.0669   4.6298036627e+01   6.4125888213e+01    0.2091142    0.1668864  53.89 0.0005569149    1.200    0.166
       251 -10.1238    181.3561     19.8799   2.3543424530e+01   3.7526191704e+01    0.1521929    0.1219715 -63.86 0.0004605319    1.136    0.120
       252 -12.4990    132.8842     18.9311   2.8771742888e+01   4.8046699096e+01    0.2901718    0.2093975  64.44 0.0004478827    1.233    0.189
       253  -9.8033     87.4643     20.4132   3.7680154889e+01   5.8145505643e+01    0.1270904     0.105982  61.60 4.879631e-05    1.043    0.041
       254 -10.9697    232.4530    246.4979   5.9203969393e+01  -6.1865670516e+00     0.113486   0.07979554 -17.15 8.289288e-05    1.010    0.010
       255 -11.1944     28.1649    245.1963   1.0416657734e+02   1.6705453091e+01    0.3115404    0.1712858 -67.26  0.001623886    1.932    0.482
       256  -9.4593    124.7134    245.6945   8.0813263168e+01   5.4919751823e+00    0.1341814   0.09151403 -13.28 0.0003275979    1.566    0.361
       257  -9.9436     24.0335     20.0380   6.1610105991e+01   7.0457004349e+01    0.1770705    0.1542825  23.35 0.0006673262    1.231    0.188
       258 -10.6785     72.8492    244.8805   9.3249945890e+01   1.1947772637e+01    0.2748342    0.2287622  25.12  0.001365379    1.066    0.062
       259 -11.6728     28.5927     19.6352   5.8930931350e+01   6.9814568051e+01    0.2929285    0.2021122  12.60 0.0001844028    1.388    0.280
       260 -12.1739     75.6294    238.3754   9.1866985742e+01   1.3026313655e+01     0.628662    0.4517872 -49.31  0.003450137    1.520    0.342
       261 -10.0365     35.4779    238.4921   1.0191345512e+02   1.7469376305e+01    0.1316549    0.1142651  47.40 0.0004568699    1.022    0.022
       262 -10.7769     41.3771     18.9933   5.2406521509e+01   6.7734650742e+01    0.2155022    0.1864167  36.96  0.001156934    1.167    0.143
       263 -11.5784     18.3194    236.7184   1.0597731670e+02   1.9531843806e+01    0.5100792     0.155079  41.96  0.002070008    2.615    0.618
       264  -9.6368     15.4212     13.4705   6.3428295672e+01   7.2560697100e+01     0.140868    0.1094172 -33.80 0.0001640342    1.532    0.347
       265 -10.1779    108.2498     17.8063   3.2410998799e+01   5.3730317617e+01    0.1654117      0.13387  36.74  0.001050009    1.407    0.289
       266 -10.7459    194.1662     16.5590   2.1788338010e+01   3.5333971531e+01    0.2355013    0.1398104 -87.66  0.001515068    1.472    0.321
       267 -10.0977    103.2899     17.0308   3.3098147151e+01   5.4929062121e+01    0.1576821    0.1413626  75.50 0.0002432784    1.085    0.078
       268 -11.7479    185.0735    228.3343   6.5021797371e+01   1.4463692851e+00    0.5392685    0.2014434 -31.78  0.002161904    2.996    0.666
       269 -10.1576    143.6974     16.0892   2.6597261459e+01   4.5922527180e+01    0.1549027    0.1399806  89.52 0.0005769245    1.148    0.129
       270 -10.4903     49.5034     15.9918   4.7639820016e+01   6.6558785529e+01    0.3607254    0.1434019  37.02  0.001568993    2.494    0.599
       271  -9.5788    159.2933     15.6989   2.4737324562e+01   4.2567122210e+01    0.1208995   0.07336734 -70.30 0.0002605987    1.570    0.363
       272 -10.9918    160.2377    235.4345   7.1306552025e+01   3.1005326244e+00    0.2429022    0.1162732  20.66 0.0007562821    2.057    0.514
       273 -10.1201    195.2136    238.5202   6.4641304004e+01  -1.3941261008e+00    0.2231665    0.1460597 -34.20 0.0009157454    1.351    0.260
       274 -10.9035     30.5793    234.6431   1.0283393675e+02   1.8835562430e+01     0.313982      0.15815  86.60  0.001410155    2.404    0.584
       275 -10.4498     87.2002    233.2210   8.8352702964e+01   1.2744341086e+01    0.2003179     0.151114  47.92  0.001078829    1.382    0.277
       276  -9.8442    166.5302    232.5059   6.9503769584e+01   2.8804132560e+00    0.1329033    0.1070532  -8.52 0.0001539165    1.037    0.036
       277 -11.0023     79.3447     28.8145   4.2875695980e+01   5.9004169994e+01    0.2336466    0.1900913  48.43  0.000118102    1.048    0.046
       278  -9.7925     23.8763    232.1638   1.0431764124e+02   2.0055833064e+01    0.1691586    0.1498466 -35.83 0.0005443345    1.331    0.248
       279 -10.1644    151.7494    228.7279   7.2142714619e+01   5.4048715469e+00    0.1679546    0.1545162  33.82   0.00104429    1.337    0.252
       280 -10.4516     38.7899    229.5963   1.0036856985e+02   1.9169697830e+01    0.2060512    0.1040734  36.29 0.0009601381    1.716    0.417
       281 -10.3667    191.5977    226.9097   6.3509064411e+01   9.4978360604e-01    0.2085348    0.1898809 -29.65  0.001423509    1.356    0.263
       282 -10.4057      3.7001    226.1150   1.0890653007e+02   2.3243021208e+01    0.2356437    0.1466033 -77.02  0.001052992    1.584    0.369
       283 -11.8299     14.0906    222.2425   1.0609847392e+02   2.3280366137e+01    0.3821218    0.2274857  15.05  0.001249213    1.833    0.454
       284  -9.7598     42.3248    220.6715   9.8661165006e+01   2.0912568147e+01    0.1496872   0.09111215  55.92 0.0007049947    1.699    0.411
       285  -9.6718    126.3223    220.6541   7.6837855912e+01   1.0360929675e+01    0.1382596    0.1081034  59.64 0.0007049856    1.736    0.424
       286  -9.9792    211.8415    218.8426   5.8430852611e+01   7.3796975083e-02    0.1544077    0.1314856 -34.01   0.00086962    1.322    0.243
       287  -9.5118    120.5888    219.4837   7.8067006149e+01   1.1385036441e+01    0.1418599    0.1249999  -4.79 0.0002473376    1.050    0.048
       288  -9.7035    176.5077    218.5655   6.5173934031e+01   4.2210704464e+00    0.1313028    0.1096804 -11.46 9.892412e-05    1.019    0.019
       289  -9.7371     50.4804    218.0234   9.6232935719e+01   2.0659924301e+01    0.2073316   0.09436438 -44.48 0.0008103514    2.629    0.620
       290  -9.4259    135.7034    216.3239   7.3898962379e+01   1.0001167623e+01    0.1315882    0.1103199  61.59 0.0004427739    1.623    0.384
       291 -10.9725     29.3660    215.6545   1.0165113756e+02   2.3457910602e+01    0.2534698    0.2342858  -5.94  0.001219145    1.212    0.175
       292 -10.3425     24.1251    216.1535   1.0307624152e+02   2.3838974849e+01    0.1906721    0.1406879  60.27 0.0004414477    1.299    0.230
       293 -11.1432     14.0259    215.5090   1.0566667262e+02   2.4909320779e+01    0.2838961    0.1245413  21.79   0.00123808    2.260    0.558
       294 -12.0493     11.5589    209.6865   1.0591371878e+02   2.6550133032e+01    0.5271044    0.2662967  82.51  0.002367896    2.150    0.535
       295 -12.6203      5.6279    208.4296   1.0739012474e+02   2.7344379746e+01    0.5657585    0.2375132 -75.61  0.002469618    2.255    0.557
       296 -10.3174    217.0000    209.9482   5.6064859207e+01   9.8712519769e-01    0.2019978   0.05740539 -43.99 0.0008076386    2.979    0.664
       297 -10.4930    236.8426    209.1770   5.2671935545e+01  -9.7486173338e-01    0.1646858    0.1028217 -23.70  0.000508744    1.329    0.247
       298 -11.0842    175.3812    202.3940   6.2664929123e+01   7.4165804150e+00    0.2535271    0.2079701 -12.34 0.0005107175    1.084    0.078
       299 -10.9871     20.0503    200.2869   1.0290259176e+02   2.8179523598e+01    0.4723624    0.1506037 -58.28  0.001743572    2.896    0.655
       300 -10.1764     67.3136    202.6887   8.9825353577e+01   2.2439101507e+01    0.1527787    0.1053504  57.76 0.0002056397    1.633    0.388
       301  -9.4942     64.3315    196.6618   8.9883509383e+01   2.4334502320e+01    0.1590454    0.1056977  59.08  0.000705193    1.740    0.425
