#   1 NUMBER                 Running object number                                     
#   2 MAG_AUTO               Kron-like elliptical aperture magnitude                    [mag]
#   3 X_IMAGE                Object position along x                                    [pixel]
#   4 Y_IMAGE                Object position along y                                    [pixel]
#   5 X_WORLD                Barycenter position along world x axis                     [deg]
#   6 Y_WORLD                Barycenter position along world y axis                     [deg]
#   7 A_WORLD                Profile RMS along major axis (world units)                 [deg]
#   8 B_WORLD                Profile RMS along minor axis (world units)                 [deg]
#   9 THETA_WORLD            Position angle (CCW/world-x)                               [deg]
#  10 FWHM_WORLD             FWHM assuming a gaussian core                              [deg]
#  11 ELONGATION             A_IMAGE/B_IMAGE                                           
#  12 ELLIPTICITY            1 - B_IMAGE/A_IMAGE                                       
         1 -12.1570    210.7630      8.8787   2.7901450698e+01   3.2246993480e+01    0.3861666    0.1343425 -52.01  0.001855702    2.550    0.608
         2 -11.6173     93.2146      9.4013   4.4170509428e+01   5.8632202735e+01    0.1791313    0.1084968  68.69 0.0009188412    1.678    0.404
         3 -11.0035    143.7728      4.4318   3.3581905756e+01   4.7511620063e+01    0.1875222   0.08985654  59.89 0.0009571927    1.723    0.420
         4 -11.0635     67.7176      1.7404   4.7917355069e+01   6.4590018075e+01    0.2170001    0.1236871  50.14  0.001008904    1.406    0.289
         5 -10.1238    249.5404      1.4642   2.4028392636e+01   2.5513267599e+01    0.1073326   0.07583832 -69.55 6.470608e-05    1.005    0.005
         6  99.0000     85.1030    246.7523   1.0417663960e+02   1.0124578217e+01    0.4770575    0.2591878  15.96  0.002098334    2.588    0.614
         7 -11.9650     92.8264    248.1720   1.0260719666e+02   8.7783540310e+00     0.310963    0.1826511 -70.66  0.001224039    2.069    0.517
         8 -10.7873     88.1984    250.7544   1.0391760999e+02   8.8962442458e+00    0.2362923    0.1017873  28.87  0.001022377    2.242    0.554
         9 -15.2296     26.3727    148.0656   1.0767433906e+02   4.1289859116e+01     3.085982     1.097624 -50.17   0.01134946    2.582    0.613
        10 -10.4101      3.5093    221.4832   1.2001161404e+02   2.5023287977e+01    0.1175887     0.100451  89.02 0.0003553805    1.147    0.128
        11 -10.3796    223.4762    220.4417   7.0020904250e+01  -4.7573936051e+00    0.1275574     0.103339 -11.21  4.29325e-05    1.051    0.049
        12 -12.7419    194.0374    219.3529   7.5647776410e+01  -5.6027526845e-01    0.2649979    0.2013718 -10.73  0.001200155    1.201    0.167
        13 -13.2555    173.3185    219.2705   8.0061871266e+01   2.5248051741e+00    0.3357985    0.2810778  -2.75 0.0009609398    1.077    0.072
        14 -11.3092    115.4685    219.0406   9.3516417973e+01   1.1604607219e+01    0.2549684     0.135373 -51.49 0.0006551813    1.982    0.496
        15 -10.6563    138.8796    217.8435   8.7703030093e+01   8.1874575357e+00    0.1871668    0.1656812  55.72  0.000506656    1.299    0.230
        16 -11.0276    130.0752    216.0665   8.9518315343e+01   9.9615148550e+00    0.3553358    0.1858157 -41.77  0.001518913    2.085    0.520
        17 -12.6971    149.7286    214.5922   8.4604033440e+01   7.1389661103e+00    0.5848975    0.2980517 -27.51  0.001906978    2.851    0.649
        18 -12.9280    158.0744    212.4217   8.2290819998e+01   6.2518066709e+00    0.3670939    0.2863293  -6.49  0.000744985    1.329    0.248
        19 -13.0629    155.3055    209.0910   8.2342963367e+01   7.3817142337e+00    0.4182665    0.3021015  -9.17 0.0002470833    1.582    0.368
        20 -11.1328    144.8862    216.5386   8.6068983451e+01   7.5069242097e+00    0.2200962    0.1318506  31.49  0.001020995    1.564    0.361
        21 -12.4416    124.3748    213.2372   9.0447149789e+01   1.1484158135e+01    0.4484913     0.272419 -49.70  0.001479522    1.721    0.419
        22 -12.2823    124.8320    206.5972   8.9250864619e+01   1.2890325575e+01    0.5134108    0.3377986  69.25  0.001621787    2.418    0.586
        23 -14.0789    182.2260    213.3243   7.7063493941e+01   2.2992532167e+00    0.5768346    0.3273803  27.88  0.002338526    1.726    0.421
        24 -11.4389     15.0777    212.1547   1.1690353660e+02   2.6116010848e+01    0.2303679    0.1637557  50.29 0.0009189814    1.296    0.228
        25 -11.6627    143.3661    210.3457   8.5376806684e+01   9.0542172673e+00    0.4284377    0.1957405 -41.60  0.001698833    2.327    0.570
        26 -10.9854    174.5683    243.7816   8.3866658670e+01  -2.0898774245e+00    0.1571394    0.1267571 -50.47 0.0006197998    1.585    0.369
        27 -15.3668     96.9230    195.3844   9.4559377953e+01   1.9991299402e+01     1.200444    0.7913464 -82.44  0.005269352    1.988    0.497
        28 -10.6351    214.9314    209.9650   6.9753368332e+01  -1.8546898384e+00     0.160693      0.13105 -10.83 0.0003674191    1.016    0.016
        29 -14.1516    167.7932    206.3768   7.8986028496e+01   5.9207281898e+00    0.6145086    0.4330444 -16.79  0.003004228    1.547    0.354
        30 -12.7342    194.3088    208.1790   7.3560636572e+01   1.4395081148e+00    0.3151077    0.1477319 -33.55  0.001064825    2.141    0.533
        31 -11.3968    108.0245    239.0394   9.8057911383e+01   8.4755722875e+00    0.4483722    0.2145119 -36.69  0.001501414    3.122    0.680
        32 -12.0080    229.5002    206.4799   6.6375223303e+01  -3.2257954021e+00     0.234996    0.2001769 -20.02 0.0007502067    1.156    0.135
        33 -11.1857    220.1579    206.2253   6.8063196495e+01  -1.9266273049e+00    0.1957051    0.1515385  -7.65 0.0004408181    1.137    0.121
        34 -11.8297    114.3087    204.6830   9.1569595826e+01   1.5025736847e+01    0.3939431    0.2613513 -26.01  0.001751689    1.955    0.489
        35 -12.5106    113.7776    200.1461   9.0961513929e+01   1.6168661755e+01     0.363496    0.2841024 -33.31  0.001402646    1.397    0.284
        36 -10.7687     18.5622    205.4427   1.1561091112e+02   2.7378147651e+01    0.2387263    0.1476523  57.42  0.001305543    1.499    0.333
        37 -10.5437    108.6181    234.8559   9.7374697788e+01   9.2522473571e+00    0.2430957    0.1643049 -65.60 0.0006548633    1.732    0.423
        38 -12.9014    146.8971    202.9846   8.3236677169e+01   1.0055582819e+01    0.5045465    0.4111973  34.80   0.00118435    1.208    0.172
        39 -10.4768     14.5921    202.5941   1.1632358957e+02   2.8430103428e+01    0.2174149    0.1062393 -73.14 0.0005416361    1.804    0.446
        40 -11.7231    127.4793    201.5879   8.7743604443e+01   1.3590709632e+01    0.5484576     0.144541 -53.10  0.001564441    3.892    0.743
        41 -11.8419    121.4840    200.4788   8.9059317935e+01   1.4833344441e+01    0.2785185    0.2549083  -5.70 0.0005427704    1.118    0.106
        42 -12.8616    123.9237    195.5280   8.7583117054e+01   1.5577961653e+01    0.5243378    0.4181486   7.93  0.001762292    1.380    0.276
        43 -11.8759     26.0036    200.7204   1.1345264599e+02   2.7798368230e+01    0.3535477    0.2098649  66.65  0.001758379    1.675    0.403
        44 -11.6923    212.6693    200.3267   6.8393354011e+01   1.6895794335e-01    0.2846572    0.2303971  74.22  0.001498657    2.342    0.573
        45 -12.4584    225.1259    198.4333   6.5678775362e+01  -1.2597750784e+00     0.333361    0.2324849 -49.84  0.001836885    1.708    0.415
        46 -12.9854    192.6178    198.7964   7.2147416171e+01   3.4716686532e+00    0.3072143    0.2131086 -32.57 0.0009227655    1.328    0.247
        47 -14.1248    189.9142    195.3480   7.2053237467e+01   4.5660964539e+00    0.5966535    0.3914154 -17.46  0.002874661    1.685    0.406
        48 -13.2888    133.5380    198.2066   8.5640374863e+01   1.3348660221e+01    0.9301293     0.361346 -37.77  0.002954246    3.490    0.713
        49 -12.6172    138.2605    199.0027   8.4615819073e+01   1.2375594830e+01    0.4277289    0.2596985  22.58  0.001648556    1.797    0.443
        50 -13.5372    140.4455    195.7047   8.3478344714e+01   1.2744945607e+01    0.6735036    0.2907188  34.15  0.002531358    2.267    0.559
        51 -10.5873     96.6029    244.0816   1.0128920241e+02   9.0787566339e+00    0.1727361    0.1196385 -46.19 0.0009367531    1.675    0.403
        52 -11.1500     15.3884    197.4747   1.1574352694e+02   2.9597940864e+01    0.3359576    0.1855471  77.10  0.001676176    1.794    0.443
        53 -12.4135    151.5941    196.7994   8.0978275613e+01   1.0609615131e+01    0.2846155    0.2534292  73.66 0.0007248426    1.436    0.304
        54 -13.3059    148.3179    193.6016   8.1165509287e+01   1.1869151501e+01     0.470047    0.2782681 -31.70   0.00194016    1.925    0.481
        55 -10.1859    238.5244    196.5446   6.2926563956e+01  -2.7430765948e+00    0.1295602    0.1024174 -20.64 9.023441e-05    1.007    0.007
        56 -14.4658    160.6892    192.0834   7.7931106529e+01   1.0080897157e+01    0.8583632    0.4194254  46.34  0.003339096    2.405    0.584
        57 -12.4856    113.5731    194.4136   9.0048309256e+01   1.7558813836e+01    0.3616351    0.2358018  55.65 0.0008857551    1.823    0.451
        58 -12.2845    184.6731    194.0845   7.2927382647e+01   5.6585012920e+00     0.277829    0.2053677  18.49  0.000914623    1.370    0.270
        59 -11.1261     17.0996    242.3982   1.1840779668e+02   1.9175639549e+01    0.3429414    0.1878385  60.92  0.001966405    1.571    0.363
        60 -11.4757    234.2188    191.9868   6.2823318879e+01  -1.3934810636e+00    0.2188205    0.1246883 -19.17 0.0008599767    1.916    0.478
        61  -9.4493     20.8996    239.8675   1.1748013832e+02   1.9327620604e+01    0.3490588    0.1420621 -66.03  0.001715595    2.406    0.584
        62 -13.3019    173.1675    188.6886   7.4404025424e+01   8.6715832164e+00    0.3567779    0.2902513  70.60  0.001495474    1.811    0.448
        63 -11.1702    212.9629    194.5277   6.7230802341e+01   1.1764595712e+00    0.2474494    0.1776046 -49.93 0.0007190502    1.607    0.378
        64 -11.0234    169.3788    243.1495   8.4876631119e+01  -1.2541335266e+00    0.1559367     0.125759 -50.79 0.0002388132    1.559    0.359
        65  -9.3097      8.0032    188.3713   1.1682598503e+02   3.2464706092e+01    0.3745031   0.08933174  44.16  0.001354929    3.696    0.729
        66 -11.1797    248.6148    185.6924   5.9197537010e+01  -2.2454466872e+00     0.271283    0.1723222 -12.41  0.001014999    1.709    0.415
        67 -10.9554    116.4654    240.6898   9.6334371387e+01   6.9112532766e+00    0.3372247    0.1878625 -50.76  0.001647141    1.983    0.496
        68 -12.6203    186.7016    185.7565   7.0851398177e+01   6.9944077056e+00    0.3918308    0.1621829  39.58  0.001214458    2.541    0.606
        69 -11.2493    213.7769    184.6096   6.5145101693e+01   2.8811500210e+00    0.1691995    0.1295227  42.27 0.0003210237    1.578    0.366
        70 -13.2981    177.6502    182.4932   7.2165435246e+01   9.1974744533e+00    0.5224112    0.2943673  12.75  0.001954654    2.821    0.645
        71 -11.1709     16.8492    183.2529   1.1419415140e+02   3.2996658597e+01    0.1968289    0.1597306  62.69  0.001186262    1.184    0.155
        72 -10.4243      9.2897    182.6210   1.1605571356e+02   3.3789038619e+01    0.1418222   0.08144275  68.09 0.0007018152    1.737    0.424
        73 -10.8389    184.3252    242.2650   8.1568314134e+01  -3.1770306269e+00    0.1320907   0.08688462  -0.78  0.000696247    1.565    0.361
        74 -11.2171     27.7612    177.5672   1.1078148078e+02   3.3444803336e+01    0.3381023    0.2268676 -63.64  0.001114071    1.359    0.264
        75 -11.5975     28.2959    171.8995   1.1002038480e+02   3.4859064225e+01    0.4066545    0.2531992  52.45  0.002033975    1.670    0.401
        76 -13.6506    175.7404    173.9268   7.0832262496e+01   1.1335721640e+01    0.4451915    0.3833413 -75.12  0.002311259    1.521    0.343
        77 -10.9009     17.3167    174.9556   1.1330676455e+02   3.5063356777e+01    0.1839749    0.1780307 -29.79 0.0003565316    1.240    0.194
        78 -11.0517     19.8010    172.0674   1.1235748976e+02   3.5590563150e+01    0.3587096    0.1706868 -80.43            0    1.983    0.496
        79 -11.1740    165.7405    239.9733   8.5163988279e+01  -1.7695897196e-01    0.1852438    0.1595968  -4.74 0.0009746239    1.079    0.074
        80 -14.5727    157.6291    158.1343   7.1632020776e+01   1.8165276385e+01    0.7059496    0.4796825  27.39   0.00314438    1.622    0.384
        81 -13.6686    152.7377    168.5468   7.5070488461e+01   1.6725800808e+01    0.4868281    0.3130527 -56.25   0.00128608    1.722    0.419
        82 -11.5702    197.0154    170.4826   6.5586006578e+01   8.3236587523e+00    0.2076572     0.141873  35.33  0.001026664    1.573    0.364
        83 -12.6555    191.5233    178.1289   6.8291222266e+01   7.7226754672e+00    0.3306165    0.2544607 -43.17 0.0009247727    1.265    0.210
        84 -12.7297    160.3487    169.6823   7.3480065229e+01   1.5057536341e+01    0.2556564    0.2431966  88.10 0.0006131804    1.245    0.197
        85 -12.9965    171.8529    167.6231   7.0377737665e+01   1.3390201998e+01    0.5096588    0.1995822 -50.94  0.001477531    2.789    0.642
        86 -13.9588    170.4829    160.0071   6.9044809724e+01   1.5298956157e+01    0.4997842    0.3935876 -48.10  0.002487549    1.260    0.206
        87 -17.2134     50.7679    124.0287   9.5648915785e+01   4.5105869872e+01     9.816485     1.063927  37.35   0.02219023    7.242    0.862
        88 -11.9340    206.1530    236.7650   7.6209921739e+01  -5.1769945886e+00    0.3246048    0.1936735 -44.60  0.001753193    1.886    0.470
        89 -10.8229     28.0624    165.6525   1.0937240291e+02   3.6509755972e+01    0.2507292    0.1639696 -81.77 0.0007299919    1.432    0.301
        90 -11.2931    205.4007    164.7857   6.2740077425e+01   8.0227180809e+00    0.2044425    0.1204163 -33.00 0.0003418628    1.603    0.376
        91 -11.8084     33.0122    168.0408   1.0825592173e+02   3.5405323812e+01    0.3109293    0.1860548 -70.11 0.0006587601    1.492    0.330
        92 -11.0320     13.6184    157.7459   1.1259573297e+02   3.9801586268e+01    0.2240609    0.1418864 -86.02 0.0006515049    1.461    0.316
        93 -11.4658    184.3127    156.4742   6.5237363706e+01   1.3461636128e+01    0.2532468    0.1786158 -61.27  0.001013916    1.751    0.429
        94 -10.0125    136.6812    239.3046   9.1528770646e+01   4.2018839786e+00    0.1329797    0.1001723  56.54 0.0007028204    1.630    0.386
        95 -12.7801     37.7073    154.9711   1.0517654075e+02   3.8378205089e+01    0.4876363    0.2695205  67.85  0.001600086    2.427    0.588
        96 -11.3396    159.4990    221.9875   8.3614313797e+01   4.1174184899e+00    0.1981238    0.1363458 -46.20 0.0004515264    1.549    0.354
        97 -11.0747     14.3049    237.2496   1.1867484429e+02   2.0550269255e+01    0.1709656     0.126793 -64.87   0.00110661    1.497    0.332
        98 -11.9638    212.2288    154.0870   5.9212962805e+01   8.9363556819e+00    0.2372829    0.2114376  49.54  0.000668925    1.341    0.255
        99 -10.5442    169.3264    235.3106   8.3638453317e+01   1.4234796193e-01     0.140098   0.09390121  -4.86 0.0005379638    1.660    0.398
       100 -12.4221    145.5304    144.9852   7.1628165988e+01   2.3555181568e+01    0.3280916    0.2312739 -53.98  0.001209021    1.468    0.319
       101 -13.0006    141.0844    144.9489   7.2753642190e+01   2.4451818053e+01      0.37424     0.318486  16.27 0.0004856812    1.269    0.212
       102 -13.6691    150.0183    142.9798   7.0038340875e+01   2.3115120274e+01    0.6320009    0.3859757 -45.98  0.001969761    1.583    0.368
       103 -13.6013    149.0925    152.6897   7.2500931211e+01   2.1066908401e+01    0.4975795    0.3638411  -0.34  0.001462475    1.816    0.449
       104 -13.6727    145.3123    149.5943   7.2745895344e+01   2.2527915703e+01    0.6873038    0.3376322  34.03  0.002057685    2.244    0.554
       105 -14.3534    128.5434    148.0284   7.6777886397e+01   2.6186683289e+01    0.7110493    0.5180452 -82.08  0.001144007    1.998    0.500
       106 -13.3420    133.3088    147.3170   7.5336641591e+01   2.5428968009e+01    0.5196246    0.2690417  30.41  0.001569802    2.243    0.554
       107 -12.4915    180.1325    150.6134   6.4836583111e+01   1.5484261549e+01    0.3048493    0.2376145 -73.16  0.001151046    1.717    0.418
       108 -13.4558    166.2780    149.5324   6.7672765130e+01   1.8404134987e+01    0.4740881    0.3171066  64.83  0.001958983    2.205    0.546
       109 -12.0667    160.5481    231.9939   8.5032058165e+01   2.0410383611e+00    0.4959634    0.2766604   9.85  0.002120469    2.394    0.582
       110 -11.3237    114.4310    232.4879   9.5695740043e+01   8.8852723516e+00    0.2360171    0.1838037 -59.36 0.0006435477    1.441    0.306
       111 -12.6389    157.0302    145.2116   6.8851819608e+01   2.1199753585e+01    0.4079049    0.2409486  54.67   0.00132922    2.102    0.524
       112 -12.4816    112.2491    227.9282   9.5576884613e+01   1.0172348801e+01    0.3990844     0.274639  52.02 0.0008712423    1.538    0.350
       113 -11.4446      9.9303    145.3002   1.1232093685e+02   4.3300628197e+01     0.173152    0.1589513 -64.63 0.0002574398    1.107    0.097
       114 -10.7755    212.3417    144.6533   5.7192535861e+01   1.0733007687e+01    0.1423355    0.1081019 -71.76  0.000704598    1.791    0.442
       115 -11.2334    154.6780    230.7798   8.6150326307e+01   3.1493459177e+00    0.3263144    0.2121228 -18.58  0.001593999    1.841    0.457
       116 -11.3266    106.3983    220.6999   9.5962663879e+01   1.2626212344e+01    0.2805828    0.2350921 -41.27  0.000961412    1.299    0.230
       117 -11.4717     10.6705    138.6805   1.1132722061e+02   4.4968712944e+01    0.3400452    0.1158478 -57.71  0.001026062    2.272    0.560
       118 -11.8238    186.4774    139.0046   6.0893196647e+01   1.6683906986e+01    0.2587603     0.220761  42.42 0.0001508615    1.273    0.214
       119 -13.1792     51.1465    137.4156   9.8107059240e+01   4.1552087165e+01    0.4881636    0.2960834 -74.49  0.001382331    1.786    0.440
       120 -12.4349     43.5840    138.2850   1.0073549739e+02   4.2186159223e+01    0.2524606    0.2191716  76.67  0.001287112    1.251    0.200
       121 -10.5736     72.7066    246.9814   1.0695150632e+02   1.1732036752e+01    0.1568629    0.1059591 -53.34 0.0005493483    1.711    0.416
       122 -13.2713    131.8871    132.0785   7.2096771700e+01   2.9327420286e+01    0.3920723    0.3252023  44.88 0.0004592607    1.246    0.197
       123 -13.7337    187.0202    225.6316   7.8218740162e+01  -6.7433842389e-01    0.4747275    0.2908534 -31.51  0.002189527    1.584    0.369
       124 -12.6743     14.4154    135.0997   1.0970077838e+02   4.5640792754e+01    0.6368308    0.2447697  49.51  0.002348148    3.499    0.714
       125 -13.0823     19.4341    133.3759   1.0785166894e+02   4.5720116972e+01     0.394098    0.2213318 -33.71  0.001648365    2.008    0.502
       126 -11.6286      3.4563    136.3794   1.1329254417e+02   4.6016270298e+01     0.264876    0.1909702 -53.74 0.0006250808    1.248    0.199
       127 -13.2418    154.0154    129.7619   6.5899722094e+01   2.5267756536e+01    0.4887124     0.357081  50.68  0.001652026    1.466    0.318
       128 -11.8209    185.0070    133.9942   6.0047509532e+01   1.8004553554e+01    0.2272322    0.2075342 -38.07  0.001241025    1.009    0.009
       129 -12.8172    119.3133    133.6590   7.5957032681e+01   3.1470682891e+01    0.2877292    0.2286663 -62.30  0.001019458    1.369    0.269
       130 -12.8670    116.1152    130.8545   7.6187522939e+01   3.2775698545e+01    0.3326493    0.2697012  48.90 0.0007753007    1.308    0.236
       131 -12.1244    137.9312    130.9628   7.0222128192e+01   2.8346460757e+01     0.271166     0.227472  36.68 0.0007151296    1.223    0.182
       132 -14.7739    144.7867    131.4259   6.8577447365e+01   2.6820289216e+01      1.31798    0.8009212 -14.09  0.003144283    3.170    0.685
       133 -11.0280    134.0244    127.4892   7.0388521501e+01   2.9955072098e+01    0.2365559    0.2060302 -42.77 0.0003088647    1.121    0.108
       134 -10.8822    178.3106    229.2796   8.0696867226e+01  -7.1975459378e-02     0.137005   0.09330629  -3.95 0.0001750497    1.563    0.360
       135 -11.1982    121.7735    116.5696   7.0941134024e+01   3.5002082508e+01    0.2279485    0.2112012  48.25 0.0005604672    1.119    0.106
       136 -13.0996    120.3101    123.6541   7.3187306672e+01   3.3658210977e+01    0.4408115    0.2503799  51.48  0.001698453    2.026    0.507
       137 -11.8785    120.2747    120.3338   7.2345870221e+01   3.4441512127e+01    0.3350943    0.2360308 -36.08 0.0006760583    1.464    0.317
       138 -14.4966     85.8008    233.3109   1.0251133378e+02   1.2854629389e+01     1.876818    0.8045874  46.18  0.007938742    2.218    0.549
       139 -17.3101     55.8447    227.2705   1.0883383409e+02   1.8156000949e+01     2.690191     1.836224  68.05     0.014804    1.459    0.315
       140 -12.3060     10.1415    123.2033   1.0950333858e+02   4.9000400286e+01    0.2886931    0.1935718 -78.85   0.00119729    1.390    0.281
       141 -11.7435    186.9404    244.9346   8.1454716053e+01  -3.9736191669e+00     0.202282    0.1630364   6.74 0.0005162348    1.026    0.025
       142 -12.4872    151.6521    227.6733   8.6335596732e+01   4.2085284619e+00    0.3900665    0.2344532 -23.40  0.001778488    2.096    0.523
       143 -13.4839     70.9905    118.3633   8.7400212900e+01   4.3816608251e+01    0.5739267    0.3827758 -86.23  0.001421697    2.367    0.577
       144 -12.3659     93.6295    122.7855   8.0998883201e+01   3.8973815261e+01     0.330282    0.2514454  87.51 0.0005687972    1.861    0.463
       145 -10.3822    242.5045    118.9488   4.7060561488e+01   1.0199409475e+01      0.18785    0.1069429 -42.87 0.0009766364    1.431    0.301
       146 -12.5292    155.6690    117.3338   6.2419985762e+01   2.7611576913e+01    0.2998703    0.2818409  76.39 0.0007170262    1.138    0.121
       147 -18.5500     70.0955    194.0995   1.0146322358e+02   2.4243051956e+01     6.889426      5.47208 -11.60   0.03546669    1.616    0.381
       148 -12.4290    105.9467    114.1685   7.4947029596e+01   3.8742872575e+01    0.4393177    0.3133159   2.18   0.00156577    1.932    0.482
       149 -12.1182    114.9305    111.5228   7.1560912909e+01   3.7558578884e+01    0.5183122    0.2313076 -50.25  0.001643977    2.322    0.569
       150 -11.5344     99.3922    114.4736   7.7054119367e+01   3.9928318044e+01    0.3208569    0.1549139  38.12 0.0008126243    2.104    0.525
       151 -12.2914     82.3941    113.5970   8.2348151408e+01   4.3176514463e+01    0.3104887    0.2419318 -62.31  0.001026774    1.389    0.280
       152 -13.3474     88.1881    110.8640   7.9708334016e+01   4.2835443038e+01    0.6114861    0.3273803 -31.80  0.002116938    2.361    0.576
       153 -11.2204     51.2539    106.9582   9.1722394412e+01   4.9376963397e+01    0.2275142    0.1773844 -30.70 0.0003335115    1.242    0.195
       154 -12.8827     54.1157    110.3031   9.1458632937e+01   4.8187169131e+01     0.512703     0.358807 -36.46  0.001885513    1.385    0.278
       155 -12.9223     59.6699    108.8365   8.9091707326e+01   4.7817968676e+01    0.4283416    0.2713186  18.09    0.0004779    1.769    0.435
       156 -14.3910    157.9227    128.1113   6.4570127277e+01   2.4810864123e+01    0.8247556    0.6341987 -78.14  0.003383222    1.731    0.422
       157 -12.9855    142.5065    107.5831   6.3059882506e+01   3.2544310996e+01    0.4803968    0.3816391  21.12  0.002277254    1.484    0.326
       158 -11.3556    105.5063    107.4352   7.3266610299e+01   4.0383701503e+01     0.266221    0.1526795 -46.68 0.0005440954    1.724    0.420
       159 -11.4495    105.2473    103.8840   7.2363938080e+01   4.1236577869e+01    0.3466691    0.2151603  38.92  0.001294156    1.623    0.384
       160 -12.8880     14.8620    105.3463   1.0504396429e+02   5.3221567537e+01     0.414597    0.2017771 -50.30  0.001409012    1.671    0.402
       161 -11.2818    174.9418    106.3528   5.5486231205e+01   2.5667615863e+01    0.1986869    0.1865855  60.54 0.0003471552    1.114    0.102
       162 -12.8177     74.2142    111.1881   8.4522436645e+01   4.5097893940e+01    0.4206108    0.2807862   8.97  0.001819714    1.879    0.468
       163 -10.6504    117.3841    103.7377   6.8721721159e+01   3.8785635901e+01    0.2244039    0.1452525 -35.21 0.0009480216    1.628    0.386
       164 -13.9959     75.4003     98.1223   8.0623103878e+01   4.8009809563e+01     1.019557    0.4417321  48.06  0.003467154    3.127    0.680
       165 -12.8416     58.0362    100.0215   8.7475441789e+01   5.0181602944e+01    0.3610786     0.335658 -62.62  0.001226307    1.188    0.158
       166 -12.0257     60.2683     95.9915   8.5569741844e+01   5.0823080130e+01    0.3060048     0.273923   1.44 0.0003203824    1.104    0.095
       167 -12.0792     60.3666     92.6891   8.4626943749e+01   5.1574274344e+01    0.3666972    0.2679609  60.55  0.001032555    1.962    0.490
       168 -11.2015    188.5614    100.1776   5.1396664409e+01   2.3908222831e+01    0.2273707    0.1755952  47.52  0.001056637    1.412    0.292
       169 -10.2166    127.2308    229.6317   9.2287338168e+01   7.5473068792e+00    0.1301303    0.1060725  74.73 0.0004886943    1.595    0.373
       170 -10.8755    237.7848     98.7563   4.3588022907e+01   1.4440140024e+01    0.1768509    0.1296657 -64.20 0.0004048158    1.347    0.257
       171 -11.8354    180.0745    244.4363   8.2806608193e+01  -2.9606208949e+00    0.2325382    0.1885842 -19.36 0.0005803205    1.186    0.157
       172 -11.3396    150.0196     95.7394   5.8096161384e+01   3.3278013946e+01    0.2162845    0.1977273  57.35 0.0005589376    1.104    0.094
       173 -12.0082     38.6616     96.0621   9.3929290994e+01   5.3475458709e+01    0.2731098    0.2037725  -0.33  0.001056736    1.434    0.303
       174 -12.6939     33.6281     94.5387   9.5559582677e+01   5.4350125672e+01    0.3417914    0.2279225 -27.67  0.001650032    1.493    0.330
       175 -11.2292    196.3637     93.2045   4.8402299233e+01   2.3512610996e+01    0.3181865    0.1564408 -45.75  0.001373193    1.867    0.464
       176 -11.1536    214.3059     92.0827   4.5373895203e+01   2.0017355696e+01      0.19711    0.1547503 -48.17 0.0005716175    1.122    0.109
       177 -12.7077      2.1806     91.1931   1.0745273966e+02   5.7398488370e+01    0.2875395     0.194383 -41.27  0.001670728    1.262    0.208
       178 -10.9834    232.0470    227.2993   6.9640570703e+01  -6.9140140008e+00    0.1732383    0.1365069  -5.69 0.0006210822    1.066    0.062
       179 -11.8807     21.3649     91.3647   9.9771755883e+01   5.6176412909e+01    0.2341015    0.1623417  17.21 0.0007842761    1.584    0.369
       180 -12.0070     11.9364     88.8930   1.0309200478e+02   5.7419141258e+01    0.3988847    0.2166233 -64.31  0.001990626    1.636    0.389
       181 -10.6363    138.3479    226.1971   8.9166105422e+01   6.5453589844e+00    0.2760904    0.1803829 -59.19  0.001353236    1.847    0.459
       182 -10.7228     78.2982     88.6615   7.6859671073e+01   4.9637787040e+01    0.1441839     0.121678  84.27 0.0003317645    1.660    0.397
       183 -12.7935     30.4883     87.7899   9.5212779485e+01   5.6247539941e+01    0.3790095    0.2166225   7.54  0.001188825    1.999    0.500
       184 -13.9610     53.6536     84.3913   8.4879643190e+01   5.4383321782e+01    0.7177516    0.5656441  65.77  0.003650504    1.867    0.464
       185 -10.8074     68.5040     83.4911   7.8872942815e+01   5.2385443822e+01    0.1459188    0.1351124 -11.37 -7.51978e-05    1.038    0.037
       186 -10.4126    222.5410     82.4599   4.2150129271e+01   1.9983469437e+01    0.1323377    0.1108762 -59.83 8.384653e-05    1.019    0.019
       187 -11.9981    206.5602     81.2993   4.4081723077e+01   2.3406212017e+01    0.3537141    0.2682849  -6.26  0.001174235    2.070    0.517
       188 -11.8389    152.1961     80.5918   5.3495637506e+01   3.5611846649e+01    0.3906398     0.256328  30.12  0.001297282    2.036    0.509
       189 -10.6965    215.3436    226.6706   7.2672257831e+01  -4.7275124742e+00    0.1103095    0.1055018  69.48 0.0007050876    1.749    0.428
       190 -11.3193     87.3612     79.3944   7.0856606744e+01   4.9926273696e+01    0.2765593    0.2355617 -24.52  0.001470046    1.159    0.137
       191 -11.1518    214.1834     78.8548   4.2473093572e+01   2.2235808282e+01    0.2013455    0.1563419 -63.79 0.0004391694    1.181    0.153
       192 -10.8555    189.7784     77.1665   4.5657180556e+01   2.7680467760e+01    0.2195588    0.1730982 -66.16 0.0009325651    1.243    0.195
       193 -12.0370     75.4633     75.7975   7.3885939420e+01   5.2814765275e+01    0.2743136    0.2500608 -15.07 0.0005311129    1.047    0.045
       194 -11.9279     23.0347     76.4732   9.5531298360e+01   5.9495522394e+01    0.1921236      0.12646  13.79  0.001035744    1.603    0.376
       195 -11.5013     15.4572     75.9871   9.8740217398e+01   6.0182171547e+01    0.1960326    0.1637728 -11.80 0.0005853458    1.182    0.154
       196 -10.5839    177.8082     75.1164   4.7131002188e+01   3.0686456134e+01    0.1824493    0.1691596  21.66 0.0005220904    1.307    0.235
       197 -11.5098    115.9539     74.0971   6.0410117957e+01   4.5023685404e+01    0.3141196     0.210203 -29.76  0.001451386    1.640    0.390
       198 -13.0016     32.0301     74.6612   9.1104161911e+01   5.9074717675e+01    0.4258106    0.2296833   2.72  0.001920944    2.255    0.556
       199 -10.8808    125.1136     73.3729   5.7757697964e+01   4.3105109944e+01    0.2357944    0.2051156 -13.20 0.0005736808    1.269    0.212
       200 -11.5900     50.8171     74.0694   8.2927062108e+01   5.6995822154e+01      0.25952    0.1955055  -1.79 0.0007926701    1.338    0.253
       201 -10.5551    232.7015     73.4224   3.9015125559e+01   1.9440124069e+01    0.1494565    0.1173054  57.46 0.0006017209    1.512    0.339
       202 -10.6411    219.5115     72.4837   4.0395132707e+01   2.2166832009e+01    0.1315277     0.109847 -63.43 0.0002514231    1.021    0.020
       203 -12.0216     99.7798     67.3383   6.2948577743e+01   4.9708807898e+01    0.3562597    0.2754823 -56.26   0.00180095    1.575    0.365
       204 -10.7503     87.2828     68.3413   6.7289721925e+01   5.2056069688e+01     0.148632    0.1088291  -0.46 0.0004520834    1.633    0.387
       205 -11.4376    173.2374    226.6057   8.1342606259e+01   1.1600937847e+00    0.1918415    0.1180794  19.97 0.0009436221    1.595    0.373
       206 -11.1104    250.0155     66.3145   3.5777985559e+01   1.7307003749e+01    0.1564992    0.1272392 -70.68 0.0002605541    1.107    0.097
       207 -11.0453     73.8692     66.1028   7.1252883456e+01   5.4965035344e+01    0.2017225    0.1945151  19.47 0.0004278439    1.175    0.149
       208 -11.7119    157.7057    243.4099   8.7450500349e+01   3.6259210870e-01    0.3644055    0.2766379  45.91  0.001329607    1.520    0.342
       209 -13.7573     25.8362     63.4764   9.0619133801e+01   6.2056417309e+01    0.6580001       0.2142  19.82  0.002511988    3.366    0.703
       210 -11.8228     45.3951     61.4008   8.1100043238e+01   6.0274573739e+01    0.2777575    0.2053191  -8.58  0.001274733    1.303    0.232
       211 -10.9846     95.9917     61.9523   6.2325210090e+01   5.1425902731e+01    0.2079033     0.193627  25.24            0    1.032    0.031
       212 -11.0617    219.3014     61.6085   3.8090349149e+01   2.3854200654e+01    0.1630036    0.1139564  59.56 0.0007629908    1.576    0.365
       213 -11.6284    109.3535     60.0546   5.7770600279e+01   4.8876396074e+01     0.241454     0.238628  49.09 0.0009468427    1.092    0.084
       214 -11.7545      2.5668     59.3376   1.0055649089e+02   6.4598002045e+01    0.3085265     0.182791 -38.70  0.001342845    1.329    0.247
       215 -11.3191    153.4873     57.5855   4.6875161701e+01   3.9076367893e+01     0.231388    0.2189948  76.88 0.0002234492    1.032    0.031
       216 -10.8178     99.2567     57.5960   5.9856821334e+01   5.1457064631e+01    0.2576804    0.1687656 -46.31  0.001218697    1.747    0.428
       217 -12.8052     28.9671     56.6639   8.6984412554e+01   6.3125567868e+01    0.4179684     0.234406  33.64  0.002137196    1.994    0.498
       218 -10.9433    139.4668     56.5170   4.9365116847e+01   4.2528576069e+01    0.2479921     0.133841  69.15 0.0008146233    2.192    0.544
       219 -11.4518    126.8654     56.1431   5.2054709122e+01   4.5521857157e+01    0.2211855    0.1957228 -88.72  0.001240907    1.247    0.198
       220 -11.5254     40.9970     60.4344   8.2713056630e+01   6.1024002037e+01    0.2030241    0.1234076  23.34  0.001035901    1.628    0.386
       221 -12.1588     17.2755     51.1657   9.0879424925e+01   6.5287401101e+01    0.2822825    0.1818022 -41.28 0.0006975411    1.315    0.239
       222 -10.6310     94.4832     51.0192   5.9028861472e+01   5.3490097429e+01    0.2008639    0.1202954  -5.78 0.0008102644    2.688    0.628
       223 -12.1531    124.6641    221.6279   9.1690739554e+01   9.6183388237e+00    0.4904199    0.3975645  60.48   0.00198803    1.434    0.302
       224 -11.7264     37.6211     50.0945   8.0608754459e+01   6.3385595526e+01    0.2211021    0.1661289  26.50  0.001304798    1.368    0.269
       225 -10.3117    183.7069     61.3211   4.2746443043e+01   3.1537576162e+01    0.1412958   0.09557809 -69.74 0.0003432333    1.610    0.379
       226 -10.8711      1.3792     47.2197   9.7831362745e+01   6.7146559990e+01    0.1552585    0.1059311 -62.82 0.0004806648    1.615    0.381
       227 -11.7995    195.5187     43.9017   3.6991563702e+01   3.1376062353e+01    0.2306366    0.1679318  85.38 0.0004179757    1.291    0.226
       228 -11.2717     51.5042     43.0039   7.1656674527e+01   6.2659913417e+01    0.1879123    0.1214054 -33.30 0.0003705213    1.533    0.348
       229 -11.0155    104.6180     39.8905   5.2268421715e+01   5.2860127436e+01     0.228957    0.1635719  43.51 0.0004996695    1.258    0.205
       230 -10.9385    145.9893     39.5188   4.3156449544e+01   4.3332879220e+01     0.198524      0.12163  62.98 0.0009938395    1.478    0.323
       231 -11.9052     60.1406     37.9081   6.6041956390e+01   6.2025307716e+01    0.2619748     0.227652 -31.87 0.0006035775    1.345    0.257
       232 -11.5590     36.4737     38.9904   7.6877841770e+01   6.5442552161e+01    0.2538595    0.1584306   9.33   0.00119128    1.598    0.374
       233 -10.6156    231.6556     37.3290   3.1855346491e+01   2.4727405788e+01    0.1300936   0.07050723 -66.55 0.0007050654    1.750    0.429
       234 -10.6002    110.4356     37.4675   4.9962110573e+01   5.1865173952e+01    0.1358753    0.1204437  44.31 0.0004009889    1.019    0.018
       235 -12.4322    118.5586    214.5582   9.2078774223e+01   1.2112252551e+01    0.5139304    0.3322796  79.91   0.00160796    2.741    0.635
       236 -12.0897     11.0007     36.1093   8.8934805538e+01   6.8606845375e+01    0.3468817    0.2481815 -38.62  0.002246399    1.264    0.209
       237 -12.6034     30.0536     33.3318   7.7712072474e+01   6.7157541355e+01    0.6163484    0.2924598  -5.55  0.002216581    4.288    0.767
       238 -11.1726    223.0066     33.7147   3.1904211701e+01   2.6899113910e+01    0.2059374     0.110722 -40.46 0.0007168237    1.740    0.425
       239 -11.4449     43.7192     33.9925   7.1422218465e+01   6.5221297481e+01     0.222881    0.1607569  23.23 0.0005310103    1.231    0.188
       240 -11.6230     47.8860     32.9496   6.9116316755e+01   6.4745133524e+01    0.2097775    0.1585617  21.25 0.0003038092    1.146    0.127
       241 -11.3706    106.7420     32.4487   4.9156944549e+01   5.3307833091e+01    0.2288949    0.1810003 -28.26  0.000746194    1.416    0.294
       242 -11.7472    169.5471     31.1244   3.7224868887e+01   3.8845204103e+01    0.2296862    0.1820432  73.52 0.0002788466    1.128    0.114
       243 -10.8931    215.3112     31.6750   3.2194401338e+01   2.8720854052e+01    0.1295402   0.07398535 -66.75 0.0003448641    1.658    0.397
       244 -10.9518    155.8156     29.8023   3.8836053765e+01   4.2192441921e+01    0.1791102    0.1390364 -73.63 0.0004479065    1.310    0.236
       245 -11.1409    139.9979     30.0901   4.1484217793e+01   4.5876353959e+01    0.3087263     0.140041  49.85  0.001373711    2.080    0.519
       246 -11.8388     39.0851     29.1451   7.1494086353e+01   6.6599912310e+01     0.276943    0.1908276  18.02 0.0009630487    1.263    0.209
       247 -12.1837    101.4874     25.6037   4.8058307848e+01   5.5255047075e+01    0.2666673    0.2301192  66.80 0.0008748218    1.197    0.165
       248 -12.5642     83.6836     23.4192   5.2063363237e+01   5.9332318310e+01    0.4728061    0.3283986 -71.26  0.002322329    2.673    0.626
       249 -10.3376    135.4724     23.4624   4.0312419405e+01   4.7663533144e+01    0.1305647    0.1129642  70.07 0.0003489807    1.014    0.014
       250 -10.5062     20.5818     23.1713   7.8287628372e+01   6.9817305861e+01    0.1675976   0.09224001 -26.57 0.0009389067    1.658    0.397
       251 -10.1381    185.3369     22.3017   3.3158681732e+01   3.6271141060e+01    0.1190919   0.08834942  46.56 0.0004006611    1.664    0.399
       252 -10.7104    172.4819     21.5091   3.4439494938e+01   3.9258351354e+01    0.1264124    0.1061847  89.84 5.233528e-06    1.008    0.008
       253 -10.8877     30.4761     17.4362   7.0361921481e+01   6.9393959302e+01     0.197633    0.1072772 -43.73  0.001038899    2.482    0.597
       254 -10.8036    238.3809    248.7379   7.2118275717e+01  -1.0800001569e+01     0.207187    0.0975225 -39.83 0.0008188103    2.117    0.528
       255 -10.1127    119.2606     10.3274   3.9107711970e+01   5.2686099405e+01    0.1246388   0.08366411  37.57 0.0003104208    1.562    0.360
       256 -10.9929    177.7758    249.2197   8.4040629596e+01  -3.4445443759e+00    0.1783808    0.1290968  -2.42  0.000582355    1.307    0.235
       257 -10.5846    173.4795    248.4745   8.4830197773e+01  -2.7346836029e+00    0.1320157    0.1066481   6.25 4.619329e-05    1.041    0.040
       258  -9.8287    126.6395    248.6558   9.5092803558e+01   3.8859637466e+00     0.138461    0.0964151  -6.17 -0.0002073302    1.840    0.457
