#   1 NUMBER                 Running object number                                     
#   2 MAG_AUTO               Kron-like elliptical aperture magnitude                    [mag]
#   3 X_IMAGE                Object position along x                                    [pixel]
#   4 Y_IMAGE                Object position along y                                    [pixel]
#   5 X_WORLD                Barycenter position along world x axis                     [deg]
#   6 Y_WORLD                Barycenter position along world y axis                     [deg]
#   7 A_WORLD                Profile RMS along major axis (world units)                 [deg]
#   8 B_WORLD                Profile RMS along minor axis (world units)                 [deg]
#   9 THETA_WORLD            Position angle (CCW/world-x)                               [deg]
#  10 FWHM_WORLD             FWHM assuming a gaussian core                              [deg]
#  11 ELONGATION             A_IMAGE/B_IMAGE                                           
#  12 ELLIPTICITY            1 - B_IMAGE/A_IMAGE                                       
         1 -13.0501    205.5963     37.9971   4.3861314092e+01   2.9786203164e+01    0.6138507    0.4735793 -12.05  0.002610522    1.558    0.358
         2 -13.3675    212.4890     33.4996   4.1909604470e+01   2.8764455613e+01    0.8047972    0.5440129 -64.06  0.004135226    1.507    0.336
         3 -13.9501    219.8007     26.4929   3.9416113168e+01   2.7954567491e+01    0.8328802    0.6668615  59.92  0.002810324    1.345    0.257
         4 -14.2574    234.7730     11.1832   3.4575861938e+01   2.6399188989e+01     1.088479    0.8672457  49.16  0.004787359    1.561    0.360
         5 -10.9851      2.7503      3.0720   8.8219224367e+01   7.3763350954e+01     0.228372    0.1146524 -26.87  0.001391457    1.569    0.363
         6 -10.2819    120.7962      2.2074   4.5395075001e+01   5.3613518285e+01    0.2158572    0.1222312 -63.14 0.0009553478    2.830    0.647
         7 -15.6524      7.3593    241.5367   1.2701018664e+02   2.2455991493e+01     2.340638     1.512782 -80.90    0.0175194    1.414    0.293
         8 -13.8049     87.5901    228.1975   1.1131701819e+02   1.5779930003e+01     1.408322    0.7179557  62.28  0.006789084    2.353    0.575
         9 -15.4817     70.3785    248.4547   1.1652188787e+02   1.4277282428e+01     6.149428     0.725259  34.92   0.01536038    9.613    0.896
        10 -12.3798    122.0684    226.2948   1.0411849786e+02   1.1144575900e+01    0.3180589    0.2428326  89.35  0.001730075    1.642    0.391
        11 -14.9844      9.6200    207.6979   1.2480289177e+02   2.8869329666e+01     1.526962    0.9407551 -86.40  0.004172167    1.317    0.241
        12 -14.4792    136.6090    230.8905   1.0179239493e+02   8.0960210632e+00     1.650882    0.3982858  33.91  0.005060542    4.802    0.792
        13 -11.4627     57.5097    180.7729   1.1234881288e+02   2.9835681866e+01    0.3569044    0.2491506 -38.17  0.001208926    1.871    0.466
        14 -11.4469     63.2509    174.9187   1.1025536960e+02   3.0491784634e+01    0.2763912    0.2291636 -49.47 0.0004119284    1.317    0.240
        15 -10.8869     73.6203    164.8548   1.0627367064e+02   3.1523834431e+01    0.2356703    0.2192419 -78.59 0.0003957324    1.043    0.041
        16 -13.0799     60.4119    161.3449   1.0906892104e+02   3.4078690418e+01    0.5004056    0.2750882 -45.62  0.001442121    2.006    0.501
        17 -13.9183    203.1615    150.2063   7.2788896202e+01   1.1511611986e+01     1.370799    0.7824852 -21.83  0.004574101    2.082    0.520
        18 -11.5851     80.5070    158.6298   1.0351827919e+02   3.2060230897e+01    0.4663382    0.3602524  -2.40 0.0006996022    1.795    0.443
        19 -13.8892    106.9603    229.6756   1.0760676135e+02   1.2761691024e+01     1.303277     0.167787  41.93   0.00374314    5.553    0.820
        20 -11.5459     70.3142    145.3280   1.0390964656e+02   3.6714308685e+01    0.4220238    0.3214748 -35.84  0.001238955    1.474    0.322
        21 -11.9275     67.7835    142.5736   1.0411109473e+02   3.7727589882e+01     0.446243    0.3577563  48.81  0.001372515    1.353    0.261
        22 -12.9018    166.8525    224.8662   9.4816014000e+01   4.3952655513e+00    0.3986667    0.3331107  37.54  0.002508803    1.156    0.135
        23 -11.6354     84.1144    142.4052   9.9609310773e+01   3.5476444087e+01    0.2776788    0.2397159 -48.53  0.000450342    1.114    0.103
        24 -10.2781    107.0798    131.7484   9.1032535484e+01   3.4311777796e+01    0.3246327     0.260197  46.42  0.001235068    1.342    0.255
        25  -9.9639     95.1866    128.1798   9.3516357506e+01   3.7193907614e+01    0.2316135    0.1913187 -27.45 0.0007752276    1.299    0.230
        26  -9.4737    105.7663    120.2035   8.8622499854e+01   3.7271025728e+01       0.1992    0.1687873 -20.31 0.0002953498    1.264    0.209
        27  -9.2863    205.5148    110.4464   6.2734589455e+01   1.8416708689e+01    0.1495314    0.1362118 -28.98 0.0002550206    1.005    0.005
        28 -14.3844    171.6079     92.2096   6.4448902525e+01   2.9332009409e+01     1.630351     1.017056 -49.45  0.004138063    1.695    0.410
        29  -9.7706    204.7526     91.4404   5.7994187266e+01   2.1942964872e+01    0.2677361    0.1500618  61.47  0.001132696    2.117    0.528
        30  -9.5585     24.7979     82.6274   1.0559536327e+02   5.6787536004e+01    0.1518914    0.1190984  34.59 0.0002304866    1.583    0.368
        31 -11.1716    193.2630     70.0234   5.4208338693e+01   2.8108216754e+01    0.4462496    0.3677863 -18.86   0.00174268    1.288    0.223
        32 -11.0095     13.4749     60.3147   1.0449776095e+02   6.2555015752e+01    0.2304318    0.1429852 -53.92 0.0005946014    1.272    0.214
        33 -13.4649     28.4209    208.9072   1.2127965371e+02   2.6830721593e+01    0.9461374    0.5217721 -50.29  0.004950929    2.357    0.576
        34 -16.3700     25.9527    177.4381   1.1916677031e+02   3.3995789353e+01      7.92874     3.124117  87.56   0.03077469    3.433    0.709
        35 -12.4833     53.1462    240.1651   1.1899026732e+02   1.7888830305e+01    0.2515112    0.1855338  51.62  0.001007935    1.176    0.150
        36 -10.5424    132.7105     39.8296   5.6442354057e+01   4.6959141096e+01    0.2491752    0.2202185  84.03 0.0005688096    1.313    0.238
        37 -13.8822     39.4927    233.7303   1.2099889326e+02   2.0664122763e+01     1.107552    0.4838196  80.30  0.003517834    2.780    0.640
        38 -11.7958     61.6016    235.1588   1.1702261104e+02   1.7817833361e+01    0.2637123    0.1781871  76.18  0.000735549    1.395    0.283
