#   1 NUMBER                 Running object number                                     
#   2 MAG_AUTO               Kron-like elliptical aperture magnitude                    [mag]
#   3 X_IMAGE                Object position along x                                    [pixel]
#   4 Y_IMAGE                Object position along y                                    [pixel]
#   5 X_WORLD                Barycenter position along world x axis                     [deg]
#   6 Y_WORLD                Barycenter position along world y axis                     [deg]
#   7 A_WORLD                Profile RMS along major axis (world units)                 [deg]
#   8 B_WORLD                Profile RMS along minor axis (world units)                 [deg]
#   9 THETA_WORLD            Position angle (CCW/world-x)                               [deg]
#  10 FWHM_WORLD             FWHM assuming a gaussian core                              [deg]
#  11 ELONGATION             A_IMAGE/B_IMAGE                                           
#  12 ELLIPTICITY            1 - B_IMAGE/A_IMAGE                                       
         1  -8.2325    164.3275     10.1924   3.4996522722e+01   4.2547223576e+01    0.1596061    0.1445271 -76.28  0.001079021    1.120    0.107
         2  -8.4839     55.4943      9.8835   5.8793634281e+01   6.6426950554e+01    0.1901792    0.1854127  54.41 0.0006989645    1.463    0.317
         3  -7.8992     47.5366     10.0752   6.2057211220e+01   6.7769256594e+01     0.165555    0.1090625 -23.07  0.001013831    1.559    0.358
         4  -8.6851     90.8563      8.6335   4.7284627942e+01   5.9550236699e+01    0.2260919    0.1518083 -43.26 0.0007235164    1.882    0.469
         5  -7.4393     12.6995      8.6987   7.8912382922e+01   7.2664696581e+01    0.1174881   0.06882261  -7.93 0.0003130087    1.585    0.369
         6  -8.5798     33.1881      4.8954   6.5894986686e+01   7.0560536260e+01    0.2505605    0.1348868 -43.29  0.001305339    2.927    0.658
         7  -8.5035     78.9507      3.7182   4.8416251695e+01   6.2463396972e+01    0.2200077    0.1467378 -41.57 0.0009884856    1.951    0.487
         8  -7.9373     44.5425      3.4654   6.0049118677e+01   6.8934000570e+01    0.1186222   0.09336396  19.69 1.351594e-05    1.031    0.030
         9  -7.7505     15.6330      3.2057   7.4310539620e+01   7.3053183203e+01     0.153652   0.08540589 -20.94 0.0003414347    1.630    0.387
        10  -8.1949     62.2864      1.3781   5.2412483005e+01   6.5955434267e+01    0.1566726    0.1029997  57.79 0.0004510406    1.592    0.372
        11  -9.3896    210.8506    246.4633   8.0079600591e+01  -6.9321334958e+00    0.2370627    0.1699665 -43.58  0.001041617    1.742    0.426
        12 -10.0261    248.5080    242.0543   7.2491301518e+01  -1.0812885081e+01    0.4024977    0.1770468 -38.68  0.002164277    2.202    0.546
        13  -8.9892    248.0008    234.3825   7.1292191794e+01  -9.7034692944e+00    0.2690727    0.1678691 -37.40  0.001672897    1.635    0.388
        14  -9.4589    246.6290    228.5098   7.0525867923e+01  -8.7141968599e+00    0.4161807     0.178204 -34.19  0.002018084    2.019    0.505
        15  -7.9737    125.2756    250.3696   9.8265621588e+01   4.4290234437e+00    0.1253023   0.09459048 -10.57 0.0007005983    1.681    0.405
        16  -8.6040     93.9106    249.2843   1.0485231762e+02   9.0998762878e+00    0.2630424    0.1734038  83.92  0.001398098    1.970    0.492
        17  -7.6830     25.5377    250.4888   1.1890875057e+02   1.7333307643e+01    0.1152966   0.09166528  66.13 0.0001434252    1.037    0.035
        18  -9.3304    120.2625    245.4884   9.8728587231e+01   6.0611323213e+00    0.3708192    0.2417841  71.03  0.001840045    2.294    0.564
        19  -8.9678    146.6838    245.5780   9.3038885776e+01   2.1596534548e+00    0.2371396    0.1879507  70.34  0.001043304    1.785    0.440
        20  -8.7394     67.6595    245.2475   1.1002279295e+02   1.3422785572e+01    0.2888921    0.1472796 -87.39  0.001355729    2.579    0.612
        21  -8.5011    139.8078    244.9861   9.4432310602e+01   3.2783732322e+00    0.2010505    0.1494318  75.39  0.001077462    2.050    0.512
        22  -9.4230     78.3922    243.5309   1.0757633367e+02   1.2357594454e+01    0.4225396    0.1883999  60.20  0.001744368    2.934    0.659
        23  -8.8415      9.6393    244.4133   1.2159730203e+02   2.0170566599e+01    0.2223479   0.07720649  83.14 0.0009462129    3.316    0.698
        24  -8.3336    201.8899    243.3345   8.1311039215e+01  -5.2926022838e+00     0.196707    0.1556157 -37.00 0.0006167614    1.454    0.312
        25  -8.7509    168.9259    243.2744   8.7990926260e+01  -6.9011393800e-01    0.1861736    0.1794495 -45.88 0.0005407042    1.343    0.256
        26  -8.0278     58.3133    244.6228   1.1192621782e+02   1.4733301712e+01    0.1364518   0.07608134  63.35 0.0007028564    1.797    0.443
        27  -8.1385     50.0000    243.9684   1.1359507854e+02   1.5882371497e+01    0.1887721   0.06556725 -71.18 0.0008096271    2.992    0.666
        28  -9.0459    194.4517    240.8692   8.2385736064e+01  -3.9019918941e+00    0.3160233    0.2131891 -55.02   0.00110505    2.206    0.547
        29  -9.2589    183.1371    240.1494   8.4560959155e+01  -2.2056013559e+00    0.3851056    0.2674473  59.33  0.001859074    2.558    0.609
        30  -9.3748    159.9431    240.1955   8.9420153020e+01   1.1529302530e+00     0.334473    0.2595498 -87.91   0.00145498    2.221    0.550
        31  -8.0892    153.4077    242.1684   9.1109481627e+01   1.7716389858e+00       0.1621     0.128487 -65.39 0.0009387896    1.706    0.414
        32  -8.3232     88.1303    242.1621   1.0533092720e+02   1.1305645037e+01    0.1752715    0.1692942  49.44 0.0005170016    1.142    0.124
        33  -8.7259    241.2549    238.9230   7.3234875531e+01  -9.5616127534e+00     0.520102    0.1853688 -24.37  0.001989075    3.969    0.748
        34  -8.4257    146.0208    239.7623   9.2349871468e+01   3.3028652478e+00    0.2082163    0.1343466  54.35 0.0005632726    1.953    0.488
        35  -9.0809    135.4909    238.9451   9.4530006149e+01   5.0333227525e+00    0.2445284     0.161518  47.45 0.0008491322    1.540    0.351
        36  -8.7984    230.7483    236.9455   7.4787077891e+01  -8.0302883789e+00    0.2508033    0.2165311 -76.57  0.001517935    2.551    0.608
        37  -8.5190     26.2661    237.6768   1.1797660133e+02   1.9871887912e+01     0.313809   0.09582687  60.89  0.001145872    4.015    0.751
        38  -8.3271     13.9724    238.2172   1.2044093754e+02   2.1015874032e+01    0.1492501   0.08301017  36.30 0.0008781338    1.712    0.416
        39 -10.0403    214.7131    233.1436   7.7138351494e+01  -5.4237855591e+00    0.4574296    0.3638794 -83.20   0.00236868    3.193    0.687
        40  -8.8170    203.2947    234.9836   7.9663897508e+01  -4.1793673286e+00      0.26188    0.2111501 -65.61  0.001182132    2.168    0.539
        41  -9.7365    175.6136    233.1941   8.5006170024e+01   5.7995568346e-02    0.4901545    0.2596865 -57.09  0.002168338    2.887    0.654
        42  -8.2784    170.3571    236.0602   8.6571417972e+01   3.3634341249e-01    0.1620511    0.1243943 -57.00 0.0005012194    1.718    0.418
        43  -7.6753     57.9113    237.0000   1.1135007184e+02   1.6362210693e+01    0.2038386   0.06443948  32.36 0.0008010233    2.933    0.659
        44  -8.0466    209.6835    234.9706   7.8414249383e+01  -5.0395530859e+00    0.1760122    0.1426877 -10.42  0.001140451    1.083    0.076
        45  -8.1996    153.2873    235.6581   9.0164876771e+01   2.9590371740e+00    0.1259377    0.1022583  63.77 0.0002950759    1.643    0.391
        46  -8.1109    123.2628    234.3104   9.6595550270e+01   7.7672150988e+00    0.2698632    0.1724443  62.42  0.001016557    2.093    0.522
        47  -9.5822    108.9937    234.5374   9.9821460739e+01   9.8551342862e+00    0.4821608    0.2272588  49.05  0.001276361    2.191    0.544
        48  -8.3641     99.8313    234.6657   1.0189025916e+02   1.1170050190e+01    0.2543892    0.1619313  76.09  0.001227789    2.170    0.539
        49  -9.0456     78.7585    234.1868   1.0653287808e+02   1.4234766687e+01    0.2959515    0.1698807 -83.90  0.001041827    2.173    0.540
        50  -8.8253     93.0152    232.4509   1.0315448083e+02   1.2609029787e+01    0.3626313    0.2489329  74.67  0.001915891    1.742    0.426
        51  -9.0351     68.5390    232.6117   1.0862889998e+02   1.5933859682e+01    0.4593595    0.1983325  62.00  0.001784813    3.196    0.687
        52  -8.4972    194.3038    232.6800   8.1071393715e+01  -2.5584764591e+00    0.2010306    0.1520515 -47.10 0.0004735431    1.623    0.384
        53  -7.8473    145.1703    233.3812   9.1596216925e+01   4.6132171372e+00    0.1972543    0.1087118  42.82 0.0006342565    1.760    0.432
        54  -8.4664    132.4677    232.7780   9.4324430541e+01   6.6691989386e+00      0.23997     0.187567  82.70 0.0008985442    1.772    0.436
        55  -8.2465     37.2523    233.0094   1.1539808721e+02   1.9661717607e+01    0.2444086    0.0766974  56.77  0.000898063    3.618    0.724
        56  -9.5138    186.4486    230.5885   8.2324037719e+01  -1.0824760642e+00    0.3327649     0.259413 -73.28  0.001559138    2.299    0.565
        57  -8.0597    158.0085    232.0011   8.8577491505e+01   2.9120170783e+00    0.1986826    0.1603997  62.91 0.0008479814    1.680    0.405
        58  -8.8168    235.9668    229.9876   7.2659116220e+01  -7.6521024877e+00    0.4078301    0.1392306 -37.60  0.001438008    2.652    0.623
        59  -8.6709      1.6791    230.6747   1.2243413723e+02   2.3751521136e+01    0.2412049   0.09605067  74.05   0.00116007    2.440    0.590
        60  -8.9208    151.4676    228.9826   8.9537130174e+01   4.4755311689e+00    0.2554426    0.2083984 -89.72 0.0009954665    1.808    0.447
        61  -9.5096    148.6485    224.6086   8.9476168167e+01   5.7503685024e+00     0.392813    0.2865406  89.39  0.001455218    2.364    0.577
        62  -8.8827    140.0426    229.9230   9.2215535699e+01   6.0599693789e+00    0.2811904    0.2362636 -89.76  0.001612443    1.589    0.371
        63  -7.7682    229.6734    229.3205   7.3684479320e+01  -6.7715491798e+00    0.1019038    0.1015371  39.93 0.0006965042    1.683    0.406
        64  -8.0596     15.6637    229.6582   1.1961283652e+02   2.2654494153e+01     0.111132   0.08551014 -47.37 0.0007050423    1.763    0.433
        65  -8.7155    162.2842    227.7892   8.6980491980e+01   3.0325934771e+00    0.2918185    0.2142738  57.48   0.00125884    1.853    0.460
        66  -8.9624    127.8861    227.2966   9.4565238158e+01   8.4569341536e+00    0.3248421    0.2241573  64.76  0.001098887    1.930    0.482
        67  -8.3785    119.8771    227.3966   9.6402568491e+01   9.6689845867e+00    0.2475195    0.1794129  81.87  0.001256005    1.921    0.479
        68  -9.3669    179.5041    224.4928   8.2747991690e+01   1.0064969955e+00     0.399467    0.2567211  -6.10  0.001448417    1.904    0.475
        69  -8.5985    206.0465    226.0906   7.7611363773e+01  -3.1272462706e+00    0.1809095    0.1716799   2.84 0.0006680882    1.341    0.254
        70  -7.9092    200.1728    226.2154   7.8797211606e+01  -2.3210465197e+00    0.1583263     0.152046   1.01   0.00064288    1.341    0.254
        71  -9.0628     94.3745    224.3011   1.0185331106e+02   1.4142513450e+01    0.4655389     0.231668  59.57  0.001840069    2.710    0.631
        72  -7.9578     48.9776    226.1891   1.1232970055e+02   1.9783140380e+01    0.1870022    0.1182149  79.66 0.0005315996    1.599    0.374
        73  -8.9650    104.7556    223.6565   9.9368286680e+01   1.2745185564e+01    0.3586548    0.2343013  77.46  0.001687366    2.159    0.537
        74  -8.8000    216.3900    223.4822   7.5152643945e+01  -4.1286756310e+00    0.2291525    0.2038537 -40.08  0.000834015    1.472    0.321
        75  -8.6617    173.0425    222.9279   8.3857016048e+01   2.2721594219e+00    0.2661555    0.1880611 -65.60 0.0006833763    2.198    0.545
        76  -7.9898    113.8129    224.0155   9.7322198554e+01   1.1296759704e+01     0.214607    0.1508603  76.35  0.000843262    1.927    0.481
        77  -8.6520     59.8387    223.7227   1.0968596607e+02   1.8990841774e+01    0.2570513    0.1433543  72.23  0.001101307    2.087    0.521
        78  -8.1470     38.2080    224.2782   1.1451718036e+02   2.1454868866e+01    0.1896121   0.08855166 -88.03 0.0005007099    2.355    0.575
        79  -9.1771    160.4620    221.3152   8.6321551005e+01   4.5283184500e+00    0.5540152    0.2815081  55.84   0.00196431    3.859    0.741
        80  -8.4040    140.4411    222.4682   9.0987389213e+01   7.4622565989e+00     0.217684    0.1373022 -66.63 0.0006696562    2.200    0.545
        81  -9.2883    238.8603    221.1129   7.0597857826e+01  -6.6869410476e+00     0.345104    0.1881561 -26.16  0.001356763    1.628    0.386
        82  -9.5217    225.6794    221.2921   7.3019410851e+01  -5.0241997367e+00    0.3386142    0.2167748 -32.36  0.001256346    1.413    0.292
        83  -9.1635    192.3636    221.3967   7.9543207107e+01  -3.7092932479e-01     0.262557    0.2439176 -83.75  0.001076979    1.626    0.385
        84  -9.4022      8.1695    222.1628   1.2069333073e+02   2.4989028054e+01    0.2737713   0.09481376  41.35  0.001328896    2.368    0.578
        85  -9.3746    120.4352    219.1866   9.5093647625e+01   1.1288097583e+01    0.4738222    0.2848738  63.91  0.002032325    2.456    0.593
        86  -8.7681     82.7364    220.5291   1.0409041446e+02   1.6635500138e+01    0.3282527    0.1843002  64.11  0.001344398    2.189    0.543
        87  -8.1328     72.9842    220.4839   1.0634699412e+02   1.7991194126e+01    0.2753471    0.1327802  69.97  0.001017437    3.361    0.702
        88  -8.1001     27.4975    220.9999   1.1657493378e+02   2.3346372703e+01    0.1875284    0.1082643 -77.87 0.0008978755    1.602    0.376
        89  -9.1226    249.0507    218.5611   6.8374880957e+01  -7.5520272444e+00    0.2778398    0.2238364 -55.10  0.001751717    2.076    0.518
        90  -8.1008    202.5280    220.0659   7.7256101133e+01  -1.6270887782e+00    0.1858913    0.1199017 -37.68 0.0004534793    1.521    0.343
        91  -8.2106    210.1712    219.1701   7.5591508837e+01  -2.5664909397e+00    0.1594966    0.1486745 -25.15 0.0003826589    1.339    0.253
        92  -8.7437    143.2390    216.8451   8.9456682702e+01   8.1472126297e+00    0.3202102    0.2358763  89.13  0.001314331    2.177    0.541
        93  -9.4048    132.7482    215.8417   9.1715669952e+01   1.0038033508e+01    0.4999253    0.3213696  77.85  0.002025899    3.006    0.667
        94  -8.5014     62.2477    217.5842   1.0851362233e+02   2.0060718665e+01    0.3050818     0.176038  63.60  0.001400191    1.851    0.460
        95  -9.0440     51.4228    217.1088   1.1094925221e+02   2.1521252456e+01    0.3409353    0.2007724 -85.34 0.0009988036    1.758    0.431
        96  -8.0892    179.3298    217.6761   8.1615354256e+01   2.2634585373e+00    0.1275117    0.1092235  66.70 0.0007049984    1.699    0.412
        97  -8.6654    169.1329    216.0670   8.3532435777e+01   4.1582325831e+00    0.2529612    0.1854131 -65.37 0.0006685905    1.963    0.491
        98  -8.2052    111.9597    217.0433   9.6768770303e+01   1.3066523289e+01    0.2260824    0.1594215  67.21 0.0008601456    1.749    0.428
        99  -8.8169    232.4642    214.9639   7.0649128968e+01  -4.9216882409e+00    0.2453283    0.1971126 -55.67  0.001369406    1.928    0.481
       100  -8.5085    154.4583    215.4240   8.6675912094e+01   6.6268689073e+00    0.2332162    0.1904063  70.74 0.0008492868    1.692    0.409
       101  -8.4303     18.4622    215.5840   1.1812974216e+02   2.5474044161e+01    0.2541029     0.105295 -76.66  0.001211038    2.178    0.541
       102  -9.1327     92.9770    213.7704   1.0082328374e+02   1.6668212895e+01    0.4197061    0.2153802  56.79  0.001568194    2.364    0.577
       103  -7.7736     41.6530    215.3410   1.1300210936e+02   2.3074812209e+01     0.143755   0.07979678  63.24 0.0007046134    1.790    0.441
       104  -8.2951    185.3406    214.0785   7.9712044529e+01   1.9918075993e+00    0.1868186    0.1646354 -25.20 0.0006283196    1.154    0.133
       105  -9.4323     73.3294    212.0093   1.0529261810e+02   1.9866924986e+01    0.7377716    0.2776225  56.78  0.002370267    4.102    0.756
       106  -9.4034    213.9395    212.1755   7.3604783852e+01  -1.9326652245e+00    0.3089363    0.2595112  51.59  0.001400439    1.734    0.423
       107  -8.3486    161.7140    212.4041   8.4535301705e+01   6.0517407224e+00    0.2177571    0.1802378 -64.54 0.0007160201    1.542    0.351
       108  -7.8412    224.7015    212.3284   7.1596166002e+01  -3.4609358630e+00    0.1107074    0.1035602 -60.17 0.0004327926    1.638    0.389
       109  -9.0552    204.2242    210.9397   7.5282347213e+01  -3.0904820553e-01    0.2659837    0.2156623 -57.61 0.0006911932    1.729    0.422
       110  -9.3311    175.6633    210.1757   8.1078353580e+01   4.2390181097e+00    0.4018983    0.2850873  67.80  0.001689437    2.577    0.612
       111  -9.3439      6.9428    209.9517   1.2022664468e+02   2.7815563995e+01    0.5113494    0.1638125  74.35  0.001730624    4.600    0.783
       112  -8.2152    192.2833    210.6251   7.7645658840e+01   1.5488951231e+00    0.2350624    0.1576544 -50.97 0.0008955877    1.785    0.440
       113  -8.8041    147.8737    210.3468   8.7316716237e+01   8.7202143718e+00    0.3058804    0.2402112  82.66  0.001085757    1.882    0.469
       114  -9.0424    116.2450    210.4079   9.4768295005e+01   1.3841484071e+01    0.3109039    0.2307268  77.25 0.0007876518    1.751    0.429
       115  -8.6691     85.3246    209.1347   1.0205273466e+02   1.8843519879e+01    0.3635831    0.2113925  79.59    0.0013045    2.544    0.607
       116  -7.7955     31.9922    210.1972   1.1474265649e+02   2.5324870087e+01     0.193966    0.1168713  75.45 0.0007191919    1.609    0.379
       117  -9.1499    236.3921    208.2549   6.8729821423e+01  -4.3767582392e+00    0.2637074    0.2059064 -45.38  0.000891722    1.584    0.369
       118  -8.0059     45.8975    209.0171   1.1144504576e+02   2.4046006698e+01    0.2265391    0.1262743  75.10 0.0006435691    1.992    0.498
       119  -9.5292    246.3888    207.3138   6.6816298688e+01  -5.5214270534e+00    0.2706791    0.1810142 -33.26 0.0007963222    1.305    0.234
       120  -7.6857    156.6715    208.3110   8.4957007966e+01   7.6892595308e+00     0.138215    0.1118442  66.63 0.0007041658    1.666    0.400
       121  -8.2116    138.9981    207.9946   8.8981045783e+01   1.0669987673e+01    0.2196321    0.1718181  69.50 0.0006069453    1.677    0.404
       122 -10.1141    124.2308    206.1959   9.2191801830e+01   1.3482097371e+01    0.3034443    0.2225929  65.78            0    1.707    0.414
       123  -9.3524     99.3594    206.1373   9.8222577309e+01   1.7441830712e+01    0.3971545    0.2602508  80.41  0.001383116    2.120    0.528
       124  -8.5659     56.4774    205.5931   1.0859344037e+02   2.3571995319e+01    0.2737378    0.1658524  60.96 0.0009725893    1.684    0.406
       125  -9.4291    194.9303    203.3786   7.5767178574e+01   2.4585496507e+00    0.4308225    0.3429053 -23.19  0.001704657    1.155    0.134
       126  -9.3098    192.5649    197.7101   7.5187497311e+01   3.8877491280e+00    0.4241438    0.3159337 -55.15  0.001355926    1.673    0.402
       127  -9.0157    183.8397    204.0061   7.8202022535e+01   4.1008160027e+00     0.311154    0.2594974  73.49  0.001069683    1.856    0.461
       128  -8.6574    131.2990    204.1939   9.0168518186e+01   1.2758697756e+01    0.3347606    0.2234645  75.64  0.001035789    2.521    0.603
       129  -8.2178    109.0498    205.0711   9.5695098643e+01   1.6175264950e+01    0.2322927    0.1659612  68.79 0.0008538038    1.723    0.420
       130  -7.8093     25.2871    205.6117   1.1588755820e+02   2.7085791052e+01    0.1398399   0.07766462  67.83 0.0007008342    1.754    0.430
       131  -9.6241    163.7588    202.8215   8.2378032085e+01   7.6239470176e+00    0.3962626    0.3343451  71.43  0.001022219    1.626    0.385
       132  -9.3712    250.1679    201.8212   6.5175401298e+01  -5.1472136654e+00    0.4040982    0.1474948 -37.32  0.001408856    2.300    0.565
       133  -9.8772    245.8473    193.8314   6.4422400953e+01  -3.3189225297e+00    0.3823211    0.2685638 -60.68   0.00201549    2.498    0.600
       134  -8.0928     41.4970    202.9915   1.1189781497e+02   2.5972464588e+01    0.2881922    0.1060011  57.68  0.001029899    3.428    0.708
       135  -9.0827    139.9392    200.5447   8.7484167843e+01   1.2106626052e+01    0.3879286    0.2818216 -82.23  0.001401416    2.056    0.514
       136  -8.6500     79.7882    201.1661   1.0235960126e+02   2.1504782776e+01    0.3708386      0.20929  72.93  0.001503113    2.556    0.609
       137  -7.5874     72.9833    202.4756   1.0421279867e+02   2.2146052090e+01    0.1989626   0.09593762  53.80  0.000663901    2.287    0.563
       138  -8.3794     48.2836    202.1325   1.1019324754e+02   2.5391778834e+01    0.2734301    0.1359625  56.42   0.00122519    2.095    0.523
       139  -8.0304      9.8043    202.4032   1.1912129758e+02   2.9293953994e+01    0.1487271    0.1204765  10.41 0.0009512223    1.678    0.404
       140  -8.2264    228.2912    201.3828   6.8919470808e+01  -2.1553861480e+00    0.1392345   0.08612521 -12.57 0.0004471501    1.751    0.429
       141  -8.2264    221.8288    201.3059   7.0098532702e+01  -1.2243523868e+00     0.182273    0.1448174 -31.15 0.0004768396    1.190    0.160
       142  -9.2271    237.1423    198.4834   6.6792238338e+01  -2.9007336419e+00    0.3042248    0.1587189 -43.75  0.001059215    1.905    0.475
       143  -9.5836    149.6431    198.3546   8.4806131150e+01   1.0930374748e+01    0.5450775    0.3591017 -63.49  0.001807602    1.956    0.489
       144  -8.7639    124.0862    199.4637   9.1120928138e+01   1.5002400063e+01    0.2932031    0.2211506  84.52  0.001121001    1.800    0.444
       145  -9.5203    112.7928    198.5392   9.3749509130e+01   1.7068188688e+01    0.4717219    0.2923923  66.42  0.001813957    2.339    0.572
       146  -9.0068     88.8037    198.6516   9.9761303143e+01   2.0787891407e+01    0.3913825    0.2446741  74.12  0.001702947    2.162    0.537
       147  -8.3975    177.0912    198.9263   7.8707083224e+01   6.1825332531e+00     0.200845    0.1942388  83.70 0.0005127555    1.320    0.242
       148  -8.7262    132.8893    197.2169   8.8594796058e+01   1.4027850876e+01     0.467366    0.1814882 -50.12  0.001712107    2.614    0.617
       149  -9.0089     29.1469    198.7985   1.1442729430e+02   2.8303011249e+01    0.2233862    0.1831845 -76.47 0.0003761109    1.158    0.136
       150  -8.4468    202.2659    197.7769   7.3221200257e+01   2.3368108217e+00     0.233426    0.2071784 -60.34 0.0008209785    1.511    0.338
       151  -9.0847     61.2119    196.7791   1.0642977786e+02   2.5083698294e+01    0.5283229    0.2658507  68.97  0.002061496    2.800    0.643
       152  -8.0899     12.6823    197.6622   1.1814524268e+02   3.0147972861e+01    0.2590963    0.1151767  77.25  0.001151646    2.416    0.586
       153  -7.8806     53.3965    196.1825   1.0830237875e+02   2.6210224971e+01    0.1948233    0.1198064 -87.11 0.0007261347    1.707    0.414
       154  -8.7822    224.5537    193.8521   6.8182181165e+01  -3.4403192641e-01    0.3265298    0.1396601 -47.01  0.001368085    2.561    0.610
       155  -7.5557    209.2770    195.6564   7.1427541980e+01   1.6332425922e+00    0.1230034    0.1086308 -66.94 0.0006590102    1.626    0.385
       156  -8.7691    185.1656    194.8745   7.6200143510e+01   5.6366881189e+00    0.2347655    0.2189065 -49.54 0.0006992343    1.274    0.215
       157  -8.7811    161.1413    194.5518   8.1444384980e+01   9.7627981799e+00    0.2908421    0.2361373  75.73 0.0009061367    1.764    0.433
       158  -9.1539     43.9980    193.6024   1.1034450349e+02   2.7950951594e+01    0.4871239    0.2255835  63.57   0.00196067    2.694    0.629
       159  -8.0350    230.9369    194.5075   6.7146178064e+01  -1.3764765310e+00    0.1781513    0.1230516  29.29 0.0004858175    1.539    0.350
       160  -8.8746     76.9048    193.7567   1.0208313486e+02   2.3696664942e+01    0.2654603    0.1988202 -81.95 0.0006834192    1.385    0.278
       161  -9.2953    243.0768    200.9334   6.6215465545e+01  -4.0913286746e+00    0.3321792    0.1595463 -41.95 0.0009866123    1.955    0.488
       162  -8.0696    205.2256    191.9449   7.1509783397e+01   2.9401632063e+00    0.1800672    0.1046386 -40.57 0.0005031399    1.616    0.381
       163  -8.1836    198.9560    191.9247   7.2763492206e+01   3.9453472858e+00    0.1933495     0.174593 -84.40 0.0005296646    1.609    0.378
       164  -8.0866    179.0104    191.7990   7.6931481654e+01   7.2719422100e+00     0.216743     0.165576  64.11 0.0005916063    1.928    0.481
       165  -8.3311    172.5360    191.9939   7.8390764802e+01   8.3348263966e+00    0.2435305    0.2003253  81.77  0.001116899    1.831    0.454
       166  -9.0845    139.5656    190.5840   8.5788361126e+01   1.4357565501e+01    0.3840293    0.2849384  81.05    0.0010499    2.030    0.507
       167  -8.6078    215.9232    195.5272   7.0119629263e+01   6.4483530398e-01    0.2360864     0.173821 -50.18 0.0006755379    1.624    0.384
       168 -10.4685     92.3882    188.8581   9.7385877345e+01   2.2600376790e+01     1.030682    0.3224936  46.39  0.003191396    3.611    0.723
       169  -8.9359    129.3119    188.7145   8.7962204696e+01   1.6557580518e+01    0.3311996    0.2455844  80.71 0.0008528095    1.921    0.479
       170  -9.1718    249.3406    185.6655   6.2303545084e+01  -2.4640974240e+00    0.2513108    0.1936102 -39.75 0.0009093678    1.310    0.236
       171  -8.3239    237.1295    188.6011   6.4926493982e+01  -1.2609896055e+00    0.2164501    0.1508814 -40.45 0.0005621826    1.372    0.271
       172  -8.8649    216.5988    187.9978   6.8537205181e+01   1.8798080655e+00    0.2560804    0.2174911 -66.77 0.0008523411    1.716    0.417
       173  -9.1704    155.9868    187.5971   8.1313877269e+01   1.2132682035e+01    0.3730778    0.2335379 -59.15 0.0009089275    1.943    0.485
       174  -8.3302    148.4626    189.0844   8.3372197020e+01   1.3133729938e+01    0.2176695     0.145892 -51.80 0.0008141008    1.563    0.360
       175  -9.6659    120.8040    186.5403   8.9704117835e+01   1.8522626703e+01     0.567652    0.3245741 -74.84  0.002098054    2.839    0.648
       176  -9.1309     32.0042    183.0995   1.1225007489e+02   3.1838133599e+01    0.2169235    0.1778243  51.41            0    1.221    0.181
       177  -8.5622    210.9728    202.2036   7.2337890091e+01   2.1341266596e-01    0.2182906    0.1837671 -57.00  0.000630156    1.625    0.385
       178  -9.0987    191.2976    187.2310   7.3420142758e+01   6.1003016983e+00    0.3336858    0.2452691 -61.35  0.001140777    1.844    0.458
       179  -9.1056     54.9643    187.2337   1.0685459904e+02   2.8218508548e+01     0.434994    0.2206928  62.58  0.001743819    2.447    0.591
       180  -8.0970    230.4253    187.2892   6.5856147018e+01  -7.3752297013e-02    0.1777224    0.1128485 -44.43 0.0008225783    1.579    0.367
       181  -8.7058    164.8554    186.7967   7.9110853601e+01   1.0741445740e+01    0.2759619    0.2055961 -61.24 0.0008089415    1.644    0.392
       182  -9.2793    109.5276    186.0017   9.2488938397e+01   2.0547959727e+01    0.4086891    0.2870398  78.56  0.001089598    1.960    0.490
       183  -8.8272    210.1413    184.0651   6.9000764462e+01   3.6096205317e+00    0.3029083    0.1762984 -38.97 0.0006501881    1.565    0.361
       184  -8.5955    202.7550    184.5050   7.0540929035e+01   4.7236375080e+00    0.2620648    0.1762698 -55.21 0.0008320872    1.865    0.464
       185  -8.5383    182.9149    184.9202   7.4737891022e+01   7.9801858653e+00    0.2478718    0.1904678 -49.42 0.0006541482    1.397    0.284
       186  -8.8520     66.4245    184.3155   1.0349889493e+02   2.7472203454e+01    0.3863789     0.224413  69.62  0.001225717    2.210    0.547
       187  -8.6724    224.0522    183.5472   6.6279621668e+01   1.5299600182e+00    0.2433646    0.1675959 -47.13  0.000625835    1.550    0.355
       188  -8.8646    174.3260    183.7105   7.6372362818e+01   9.7197708231e+00    0.2811016    0.2382631  88.53 0.0008901993    1.685    0.406
       189  -8.3316    243.3196    183.6702   6.2923983127e+01  -1.3074419770e+00    0.1178584   0.09871957 -59.28 0.0007048044    1.689    0.408
       190  -8.9793     44.2400    182.3365   1.0903804953e+02   3.0712044834e+01    0.3489064    0.2056739  78.71 0.0009766103    1.923    0.480
       191  -8.0526      1.7547    183.6085   1.1966960385e+02   3.4393979764e+01    0.1682363   0.09789866  44.67 0.0009423804    1.695    0.410
       192  -9.2001    147.5661    180.6918   8.1971362667e+01   1.5148329166e+01    0.3437142    0.2693756  80.89   0.00101199    1.817    0.450
       193  -9.7271     25.5556    178.5815   1.1343304015e+02   3.3598073338e+01    0.8625627    0.3254246  86.14  0.002762302    4.311    0.768
       194  -7.9355    235.2837    181.3542   6.3849715947e+01   2.3461108123e-01     0.137054   0.08873665 -14.28 0.0004544454    1.663    0.399
       195  -8.2571    240.4785    180.0126   6.2698651257e+01  -2.9026909430e-01    0.2013808    0.1089971 -37.74 0.0007424736    1.562    0.360
       196  -8.7724    137.6725    179.4174   8.4143288732e+01   1.7217265282e+01    0.3513933    0.2478016  74.93  0.001103057    2.208    0.547
       197  -9.5918    248.4462    176.7275   6.0743117486e+01  -8.7014076813e-01    0.4664195    0.2471932 -48.15  0.001768256    2.031    0.508
       198  -8.6929    250.5167    172.8502   5.9662398048e+01  -5.1618846819e-01    0.2414526    0.1312438 -41.33 0.0005561987    1.581    0.368
       199  -9.4504    191.6310    178.5054   7.1602642371e+01   7.7538937886e+00    0.3061933    0.2568695  66.21 0.0006974047    1.647    0.393
       200  -7.9534    169.4421    178.8860   7.6496206051e+01   1.1593669279e+01    0.1959361    0.1325905 -71.12 0.0008031131    2.404    0.584
       201  -9.0743     36.1276    176.8828   1.1052890172e+02   3.2968397661e+01    0.5523708    0.2380899  75.19  0.001831771    3.977    0.749
       202  -8.7745    231.2160    176.9117   6.3689438453e+01   1.6105022176e+00    0.2692352    0.1575471 -46.49 0.0008280406    1.723    0.420
       203  -8.5975    217.7900    177.5075   6.6239079004e+01   3.5911012071e+00    0.2585592    0.1690606 -53.25 0.0009836103    1.845    0.458
       204  -8.7692    204.9999    177.7527   6.8741499120e+01   5.6310621870e+00     0.243296    0.1702084 -52.00 0.0005886128    1.622    0.383
       205  -8.6335    129.4152    177.5713   8.5858094040e+01   1.9123020285e+01    0.3229145    0.2370144  84.01 0.0008375426    1.991    0.498
       206  -9.0371     34.3133    188.1182   1.1217807267e+02   3.0357891665e+01    0.4406194    0.1990349  76.56  0.001170846    3.065    0.674
       207  -8.0185    211.8195    176.7850   6.7221719978e+01   4.6879261942e+00    0.1818512    0.1627779 -55.55   0.00106125    1.366    0.268
       208  -9.0367    183.0867    176.2359   7.2946751115e+01   9.7050228728e+00    0.3093769    0.2270624 -59.33 0.0006009978    1.679    0.405
       209  -8.3841     97.9456    177.3119   9.4029873901e+01   2.4560223342e+01    0.2137436     0.189229  32.68 0.0006926807    1.150    0.131
       210  -9.0189     88.9409    176.8188   9.6362532250e+01   2.6105049386e+01    0.3050487    0.2208572  84.01 0.0007290919    1.681    0.405
       211 -10.0393     57.2446    173.1825   1.0442182185e+02   3.1481082923e+01    0.8927089    0.4230759  79.57  0.002733695    4.405    0.773
       212  -8.9310     12.7808    176.2914   1.1644000514e+02   3.5301435844e+01    0.3163412    0.1442773  84.20 0.0008576218    2.361    0.577
       213  -9.2096    158.7616    175.0964   7.8184279487e+01   1.4349061265e+01    0.3720093    0.2807271  84.60  0.001038518    2.110    0.526
       214  -9.6412    104.2987    174.8319   9.1895309556e+01   2.4131461704e+01    0.5329248    0.3038183  62.31  0.001735352    2.602    0.616
       215  -9.7345     81.7006    154.7961   9.4522626413e+01   3.2828712464e+01    0.6030058    0.4562865 -53.00  0.001886168    1.267    0.211
       216 -10.6620     76.0223    171.1116   9.8955440612e+01   2.9479211554e+01     1.216829    0.5123038 -78.64  0.003301419    5.046    0.802
       217  -9.8342     74.4799    160.4670   9.7623803011e+01   3.2436133270e+01    0.4397695    0.2747894   5.40   0.00178098    2.471    0.595
       218  -8.5313    224.5105    173.4423   6.4191716509e+01   3.2625662610e+00    0.3433196    0.1174842 -39.51  0.001294467    2.574    0.611
       219  -9.4080    175.6736    172.0522   7.3698717216e+01   1.1903329520e+01    0.3976112    0.2525961 -48.53  0.001063835    1.594    0.373
       220  -8.1164    194.4897    172.4781   6.9775456449e+01   8.4492641274e+00    0.1467009    0.1289219 -15.88 0.0001622011    1.048    0.046
       221  -8.2621    142.8741    172.2292   8.1427531507e+01   1.7919150981e+01    0.2287743    0.2097141  87.80  0.000591993    1.266    0.210
       222  -8.6625    134.8186    171.7240   8.3339761138e+01   1.9516374394e+01    0.2787432      0.20409 -85.80 0.0008417347    2.000    0.500
       223  -9.4488    121.4010    170.5145   8.6553887468e+01   2.2230550293e+01    0.4077974    0.2893579 -83.42  0.001004887    1.980    0.495
       224  -9.1404     45.0326    170.9701   1.0745110336e+02   3.3502515564e+01    0.4053024    0.2247411  81.67  0.001433649    2.257    0.557
       225  -8.5164    237.1837    169.4509   6.1184136233e+01   2.0101572406e+00    0.2443295    0.1589617 -36.53 0.0006974041    1.297    0.229
       226  -8.9646    230.3225    169.8448   6.2439770089e+01   2.9951792774e+00      0.23851    0.1440781 -40.16 0.0008608387    1.448    0.310
       227  -8.1233    205.7122    170.2014   6.7057803546e+01   6.9523334740e+00    0.2144432    0.1666618 -51.53 0.0005569539    1.416    0.294
       228  -8.4963    198.3778    170.0537   6.8481866999e+01   8.2473430153e+00    0.2312636    0.2050841  87.01 0.0007352195    1.558    0.358
       229  -8.4538    149.8616    169.5921   7.9174586459e+01   1.7222073468e+01      0.29565     0.207153 -69.04 0.0008801122    1.910    0.477
       230  -7.6406     68.3088    170.6619   1.0101626518e+02   3.0676982860e+01    0.1540803    0.1061646  70.48 0.0007043484    1.683    0.406
       231  -8.9509    244.6636    169.2516   5.9905163759e+01   9.2989277205e-01    0.2249997    0.1874815  57.90  0.001196919    1.727    0.421
       232  -9.1916    166.9412    168.4782   7.4914032818e+01   1.4274985002e+01    0.3244063    0.2510453  71.03   0.00102597    1.834    0.455
       233  -8.3909     88.5485    168.5559   9.5062579856e+01   2.8248515315e+01    0.2652356    0.1929595  71.62 0.0006646175    1.658    0.397
       234  -8.2580    218.9369    168.3127   6.4166148676e+01   5.0936699791e+00    0.1885561    0.1649091 -21.43 0.0004188419    1.025    0.024
       235  -7.8937    211.3734    168.2016   6.5554966075e+01   6.3724949082e+00    0.1991633    0.1207655 -48.52 0.0004771401    1.694    0.410
       236  -8.7829    111.8392    167.5930   8.8520963744e+01   2.4629495154e+01    0.3475578    0.2425012  72.92  0.001470915    2.002    0.501
       237  -8.7917    191.8972    166.6618   6.9094093265e+01   1.0069291740e+01    0.2770304    0.1967511 -46.67 0.0006119517    1.395    0.283
       238  -8.9179    185.0986    166.6803   7.0523888179e+01   1.1297261275e+01    0.2520916    0.1905852 -50.33 0.0005986069    1.379    0.275
       239 -10.0164     94.8838    162.2956   9.2162371089e+01   2.8823452012e+01    0.9531652    0.5852792 -85.66  0.003161049    2.531    0.605
       240  -9.1014     20.3543    166.2603   1.1355183455e+02   3.7166102117e+01    0.3382895    0.1605206  65.77  0.001152085    2.555    0.609
       241  -8.6985    233.8860    165.2735   6.0908011937e+01   3.2501824457e+00    0.2326914    0.1561287 -43.28 0.0006339738    1.371    0.270
       242  -9.7346    136.8378    164.5375   8.1355511065e+01   2.0825623465e+01    0.6555684    0.3361369  55.66  0.002270366    2.839    0.648
       243  -9.4394     33.7455    163.5932   1.0962639876e+02   3.6595803848e+01    0.5810304    0.2173651  50.44  0.002147011    3.172    0.685
       244  -9.1033    246.0916    163.2528   5.8494535723e+01   1.7421242705e+00    0.2534228    0.1569649 -41.79 0.0005390554    1.399    0.285
       245  -8.3156    239.9631    164.1549   5.9666952252e+01   2.5092613455e+00    0.1955922    0.1612547 -47.04 0.0004878386    1.297    0.229
       246  -8.5897    212.9992    163.4756   6.4268623246e+01   6.9899668866e+00    0.2603114    0.1799432 -52.16 0.0008660797    1.587    0.370
       247  -8.4644    159.5368    164.0502   7.5691576991e+01   1.6638184558e+01    0.2767636    0.2140999  60.19 0.0008017498    1.590    0.371
       248  -8.3468    204.9807    162.9583   6.5689621226e+01   8.4756919901e+00    0.2065541    0.1728992 -70.55 0.0004206374    1.587    0.370
       249  -8.1373     57.7865    163.5175   1.0287916866e+02   3.3900687999e+01    0.2604714    0.1489656  21.73  0.001138459    2.084    0.520
       250  -9.2600      3.5020    162.4297   1.1761837269e+02   3.9443625734e+01     0.399777    0.1812284  55.93  0.001851676    2.383    0.580
       251  -9.0571    177.4642    160.8028   7.0913486400e+01   1.3938174401e+01    0.3381854    0.2505322 -65.23 0.0009277429    1.740    0.425
       252  -8.6379    151.7510    161.1187   7.6922167509e+01   1.8782326143e+01    0.3005025    0.2101644 -60.38 0.0007632955    1.646    0.393
       253  -8.8007     60.5256    160.1450   1.0158037479e+02   3.4425991889e+01    0.3309637    0.2208324  75.50  0.001013041    1.818    0.450
       254  -8.6506    227.4755    159.1804   6.0769842612e+01   5.3662739853e+00    0.3057104    0.1929538 -56.87  0.001086305    2.030    0.507
       255  -8.4422    242.3084    159.7080   5.8397078308e+01   2.9230143291e+00    0.1390963    0.1112245 -23.82 0.0002564689    1.099    0.090
       256  -9.8241    250.1693    157.7851   5.6775794102e+01   2.0668647595e+00    0.3352886    0.1760689 -42.63 0.0008209751    1.616    0.381
       257  -9.0224    246.7366    155.6353   5.6882109304e+01   2.9498051658e+00    0.2372461    0.1327014 -30.78 0.0006447317    1.618    0.382
       258  -8.7827    236.9761    158.7564   5.9075833019e+01   3.9172157083e+00    0.2444809     0.150001 -48.57 0.0007683635    1.634    0.388
       259  -8.2215    128.0114    158.9332   8.2456401317e+01   2.3809739552e+01    0.2466547    0.1924822  81.17 0.0006436736    1.708    0.414
       260  -9.5067    105.8220    157.9864   8.8268275843e+01   2.8062580264e+01    0.4642307    0.3159313  72.49  0.001119483    2.113    0.527
       261  -8.6592    196.7944    157.7615   6.6198280935e+01   1.0964312281e+01    0.2633753      0.18379 -64.53  0.001200585    1.984    0.496
       262  -8.2745    188.1285    157.7126   6.7960687059e+01   1.2576473043e+01    0.2565596    0.1875652 -49.39 0.0005368593    1.383    0.277
       263  -9.1777    167.6417    157.2146   7.2326727993e+01   1.6584219023e+01    0.3424959    0.2645599 -83.65  0.001059147    1.905    0.475
       264  -8.4414    218.0000    156.5338   6.1897001414e+01   7.4411293444e+00    0.2751052    0.1736687 -52.96  0.000897842    1.763    0.433
       265  -8.8953    157.6360    156.0426   7.4399003771e+01   1.8786347769e+01    0.3477598     0.257401 -64.55  0.001115547    1.635    0.388
       266  -9.6933     49.7091    155.1223   1.0394210245e+02   3.7062031583e+01    0.4899487    0.2857048  70.31  0.001827882    2.269    0.559
       267  -9.1865    119.4017    155.1742   8.3955327220e+01   2.6321624882e+01    0.4235118    0.2977922 -81.75  0.001465884    2.019    0.505
       268  -9.1706    242.9649    154.9963   5.7347929333e+01   3.6395708809e+00    0.2554298    0.2005712 -74.35 0.0005333863    1.934    0.483
       269  -9.5447    233.5992    147.5607   5.7341212151e+01   6.4541014630e+00    0.3030225    0.1830599 -42.33  0.001078751    1.426    0.299
       270  -8.0077    237.4313    150.4492   5.7312565759e+01   5.3128333367e+00    0.1926107    0.1520189 -57.68 9.452761e-05    1.466    0.318
       271  -7.8293    204.5787    155.5094   6.4183893164e+01   9.9959137855e+00    0.1439931    0.1282403 -34.63 0.0001416492    1.055    0.052
       272  -8.6523    144.4305    154.8088   7.7347373404e+01   2.1642563988e+01    0.2848498    0.2229354 -65.91 0.0008444464    1.478    0.323
       273  -9.6631     68.0563    153.8272   9.8345105561e+01   3.5063691109e+01    0.4609946     0.295295  72.90   0.00140451    2.098    0.523
       274  -8.1721    232.9832    154.0313   5.8776012943e+01   5.3959521166e+00    0.2020722    0.1553347 -62.57 0.0005212459    1.667    0.400
       275  -9.6629    132.6628    152.8040   7.9912616017e+01   2.4391886704e+01    0.4625194    0.3566774  77.49   0.00107198    1.755    0.430
       276  -9.2040    133.5092    148.0145   7.8622792608e+01   2.5365215060e+01    0.3555839      0.23772 -30.77  0.001253447    1.720    0.419
       277  -7.9195    151.7566    152.7628   7.5083908560e+01   2.0677286348e+01    0.2112677    0.1856839 -84.52 0.0007872755    1.366    0.268
       278  -9.4516     20.0531    152.5048   1.1214872355e+02   4.0692515225e+01    0.2185046    0.1584772 -76.27 0.0007392411    1.180    0.153
       279  -8.3198      9.0211    153.2361   1.1530502951e+02   4.1357389755e+01    0.1505133    0.1117638  21.52 0.0008804645    1.622    0.383
       280  -9.7044     29.1760    150.3154   1.0926270924e+02   4.0457009007e+01    0.5827473    0.2760569  73.63  0.002135838    3.289    0.696
       281  -8.2577    250.5540    140.7533   5.3328887896e+01   4.9091839554e+00    0.1943778    0.1454537 -35.51  0.000622223    1.092    0.084
       282  -9.6389    248.8941    149.3662   5.5299852074e+01   3.6946772770e+00    0.3571544    0.1753847 -41.24 0.0008387705    1.674    0.403
       283  -9.1989    247.0786    143.7518   5.4447599884e+01   4.9419282042e+00    0.2488252    0.1585038 -35.91 0.0005347567    1.302    0.232
       284  -9.4963    242.7299    149.8922   5.6356135354e+01   4.5644984376e+00    0.3065415    0.2641779 -44.17  0.001644529    1.169    0.144
       285  -8.7492    189.2823    150.0988   6.6049733709e+01   1.3916655005e+01    0.2861101    0.2174698 -54.72 0.0007599168    1.411    0.291
       286  -8.4008    181.8970    150.2652   6.7634593826e+01   1.5303432298e+01    0.4126089    0.1932124 -52.81   0.00150662    2.472    0.595
       287  -8.1524    175.3125    151.0379   6.9234274352e+01   1.6421990199e+01    0.2187032    0.1863409 -43.99 0.0006119167    1.135    0.119
       288  -8.2220    162.6759    150.5669   7.1989262974e+01   1.9011824857e+01    0.2527814    0.1905096 -68.01 0.0007286074    1.673    0.402
       289  -8.8197     98.1495    150.6890   8.8952669351e+01   3.1221152502e+01    0.3144132    0.2358801  89.80 0.0009466726    1.705    0.414
       290  -8.1175    212.8530    149.8380   6.1412732261e+01   9.6060740277e+00    0.1863539    0.1585881 -55.91 0.0003616526    1.288    0.223
       291 -10.2445    139.0116    144.7029   7.6440400829e+01   2.5060014588e+01     0.840595     0.477544 -68.67  0.002705476    3.003    0.667
       292  -9.4033    139.7445    137.2600   7.4507138605e+01   2.6643316352e+01    0.3296782    0.2193877  22.41  0.001355171    1.902    0.474
       293 -10.0603     89.4508    146.5608   9.0641239567e+01   3.3721460018e+01    0.7516636    0.4423709 -89.18  0.002524707    3.295    0.697
       294  -9.8342     39.7597    147.7451   1.0578580148e+02   4.0083340173e+01    0.5478155    0.2861112  67.23    0.0020295    2.769    0.639
       295  -9.0750      2.7926    149.9278   1.1669822543e+02   4.2612752231e+01    0.2565759    0.1527144  82.10  0.001350725    1.634    0.388
       296  -8.2776    198.8375    149.0330   6.3893992416e+01   1.2325002650e+01    0.2218712    0.1855602 -61.38 0.0005816364    1.368    0.269
       297 -10.4685    149.1806    143.6838   7.3645003467e+01   2.3256150279e+01     1.060982    0.4845702 -47.64  0.002738557    2.142    0.533
       298  -8.5156    119.4794    147.8337   8.2341076407e+01   2.8101084191e+01    0.2322858    0.2112594  38.44  0.001178421    1.121    0.108
       299 -10.4288     55.2211    145.2291   1.0071474142e+02   3.8982178813e+01    0.8466057    0.4341452  69.36  0.002779647    3.650    0.726
       300 -10.1387     56.8619    135.2777   9.8431374077e+01   4.1369361318e+01    0.6221027    0.3338661  -1.23  0.002147106    3.637    0.725
       301  -8.2565    223.3284    146.9153   5.8929814551e+01   8.3121911412e+00    0.1985375    0.1531671 -36.71 0.0003796761    1.120    0.107
       302 -10.3163    106.7778    144.4140   8.5142955450e+01   3.1286687541e+01    0.7840739     0.515733  81.36  0.002320915    2.630    0.620
       303  -9.2415     78.0969    146.9497   9.4098293182e+01   3.5401204107e+01    0.3172964    0.2076299  72.10  0.000892258    2.157    0.536
       304  -9.7051     13.5024    146.2025   1.1330635703e+02   4.2815437577e+01    0.3801058    0.2255885  69.75   0.00134164    1.878    0.468
       305  -9.5303    240.3495    145.2021   5.5775614884e+01   5.7661907788e+00    0.2940675     0.166808 -43.64 0.0007013588    1.516    0.340
       306  -7.9043    206.8059    146.5460   6.1821073825e+01   1.1334938865e+01    0.1778512    0.1410065  61.24 0.0006271998    1.591    0.371
       307  -8.1498    175.5094    146.1451   6.8086221425e+01   1.7423993335e+01    0.2316927    0.2093344 -88.98 0.0005443891    1.326    0.246
       308  -9.7553    125.1006    142.7019   7.9650678178e+01   2.8271127166e+01    0.5801813    0.3937811 -84.99  0.001758211    2.450    0.592
       309  -7.7141    194.4032    144.1562   6.3689211367e+01   1.4140643434e+01    0.2020323    0.1308151 -51.13 0.0004348262    1.577    0.366
       310  -8.5681    165.6520    144.0655   6.9817426944e+01   1.9843440184e+01    0.2420538    0.2172431  72.12 0.0005964393    1.298    0.230
       311  -9.9644     73.4725    129.6379   9.1999135932e+01   4.0547691863e+01    0.4337316    0.2973139  86.09  0.001239883    2.099    0.524
       312 -10.9788     69.5515    140.9374   9.5534299243e+01   3.8205407991e+01     1.014324    0.5858126  84.06  0.003559293    3.178    0.685
       313  -9.3820    242.6752    143.2959   5.5025371177e+01   5.7238879168e+00    0.1990079    0.1892698 -75.91 0.0006256445    1.296    0.229
       314  -8.2816    239.6745    153.2791   5.7527154641e+01   4.4552232930e+00    0.2132768     0.114933 -42.32 0.0003659858    1.585    0.369
       315  -8.5137    182.1111    141.6697   6.5645166912e+01   1.7053812299e+01    0.2579753    0.1988802 -55.98 0.0005832136    1.381    0.276
       316  -9.5010      2.6440    141.2842   1.1590306478e+02   4.4792704136e+01    0.4376218    0.2091362  86.19  0.001973805    2.236    0.553
       317  -9.9771     23.4024    138.2537   1.0939307055e+02   4.4075921695e+01    0.5186406     0.272907  65.76  0.002202551    2.537    0.606
       318  -8.3656    243.6802    139.7107   5.4140952243e+01   6.1859349598e+00    0.2070919      0.14637 -39.95 0.0005613033    1.171    0.146
       319  -7.9878    218.8030    138.7785   5.7971694627e+01   1.0625308428e+01    0.1901961     0.153711 -57.85 0.0005495758    1.338    0.253
       320  -8.6025    172.4545    138.3518   6.6960443079e+01   1.9696771223e+01     0.312984    0.2299045 -74.50 0.0008480141    1.913    0.477
       321  -8.2835    207.2961    137.9577   5.9842230299e+01   1.2906376148e+01    0.2052757    0.1750566 -41.37 0.0006036684    1.066    0.062
       322  -8.6755    197.5020    137.4781   6.1580363856e+01   1.4876056325e+01    0.2742632    0.2178093 -65.09 0.0007620159    1.479    0.324
       323  -8.7927    241.3433    136.2230   5.3780277149e+01   7.1780308813e+00    0.2927773    0.1062828 -34.33  0.001100059    2.772    0.639
       324  -8.3155    162.7506    136.4229   6.8695942152e+01   2.2102881123e+01    0.2722659    0.1869417 -56.67 0.0006390493    1.592    0.372
       325 -10.5186     83.4684    133.3181   8.9652408394e+01   3.8067795954e+01    0.6611987    0.4515725 -63.14  0.001587493    1.493    0.330
       326  -9.2301     39.1322    135.9986   1.0417341406e+02   4.3202550140e+01     0.307695    0.2137896  85.79 0.0008624928    1.634    0.388
       327  -8.8596    250.8051    129.8659   5.1102188997e+01   6.7232867749e+00    0.4466316    0.1051677 -40.39  0.001516766    3.436    0.709
       328  -9.1444    248.3533    135.4155   5.2574615850e+01   6.1719778059e+00    0.3021077    0.1728039 -44.57 0.0008202751    1.476    0.323
       329  -8.5506    246.8852    130.1655   5.1720504170e+01   7.3119628598e+00    0.2579878    0.1578587 -45.84  0.000772312    1.398    0.285
       330  -8.0142    187.7995    135.9438   6.3152481346e+01   1.7098091617e+01    0.2035201    0.1113308 -41.34 0.0004917813    1.698    0.411
       331  -9.3773    112.5092    133.5985   8.1033065416e+01   3.2894627294e+01    0.4747386    0.3601314 -42.55  0.001469728    1.297    0.229
       332  -8.0246    231.5808    134.2154   5.4877246373e+01   9.1936557989e+00    0.1878406    0.1149788 -32.89 0.0004745985    1.509    0.337
       333  -8.6572    179.2784    133.7439   6.4406617846e+01   1.9273992257e+01    0.3132172    0.2253477 -67.42 0.0008984878    1.794    0.443
       334  -7.9577    237.5212    133.5101   5.3801542063e+01   8.2969509733e+00    0.1357478    0.1134456 -40.66 0.0003124792    1.033    0.032
       335 -10.1563    132.3835    130.9309   7.4900153885e+01   2.9610879702e+01    0.7319372    0.4764239 -68.61  0.001643631    2.126    0.530
       336 -10.4128     98.0673    130.2502   8.4487630990e+01   3.6373070687e+01     0.764645    0.3475418 -55.01  0.001687032    2.201    0.546
       337  -8.8121     99.3411    120.3381   8.1701546738e+01   3.8573361838e+01    0.4320528    0.2589622   2.64  0.001396325    3.511    0.715
       338  -9.0544    143.0625    131.5780   7.2289928292e+01   2.7265626732e+01    0.3138432    0.2389834 -73.88 0.0007715781    1.688    0.408
       339 -10.1836     13.0584    129.4224   1.1142327819e+02   4.7120414582e+01    0.5059997    0.2738808  69.03  0.001870104    2.389    0.581
       340  -7.4158    220.6283    130.2505   5.5811656369e+01   1.1876966800e+01    0.1329721    0.1059855 -78.76 0.0004882661    1.634    0.388
       341  -7.9101    204.4431    130.1922   5.8628371866e+01   1.4952561677e+01    0.2065423    0.1253308 -51.23 0.0006602142    1.654    0.396
       342  -8.0566    192.5311    130.0273   6.0843400542e+01   1.7341934735e+01    0.2257305    0.1360654 -43.96 0.0004268328    1.531    0.347
       343  -9.5160    168.1523    129.2562   6.5754160492e+01   2.2522983231e+01     0.365052    0.3102697 -61.28  0.001279122    1.254    0.202
       344  -9.3527    152.9841    128.8698   6.9175947053e+01   2.5798391262e+01    0.4477857     0.238434 -54.63 0.0008735916    2.118    0.528
       345  -7.9440      1.6658    130.3293   1.1503944374e+02   4.7601553083e+01    0.1329969   0.08549664  67.50 0.0006313691    1.724    0.420
       346  -8.1082    211.5292    129.0396   5.7101274632e+01   1.3807914618e+01    0.1998507    0.1121391 -59.27 0.0008070677    2.366    0.577
       347 -10.5340     60.0131    125.0525   9.5399765978e+01   4.3601271361e+01    0.7567366     0.463281  78.71  0.002428202    2.781    0.640
       348  -8.9492     59.2375    115.3647   9.3576521965e+01   4.6156511748e+01    0.4582421    0.2567007 -13.76  0.001653571    3.153    0.683
       349 -10.7945     44.8071    123.4706   1.0014117235e+02   4.5836197350e+01     1.164314     0.624392  77.17  0.003959733    3.832    0.739
       350  -9.9146    117.9292    125.3368   7.7480105021e+01   3.3830985259e+01    0.5536229    0.3788812  74.79  0.001601071    2.340    0.573
       351  -7.8542    228.4913    125.4902   5.3508562237e+01   1.1310283040e+01    0.1385769     0.118135 -44.30 0.0008102444    1.039    0.037
       352  -8.8864    179.1761    124.6716   6.2274507074e+01   2.1167860565e+01    0.2907458    0.2190105 -67.45 0.0006995359    1.606    0.377
       353 -10.1697     28.6037    122.4580   1.0537412897e+02   4.7688649188e+01    0.7602012    0.3838998  72.32  0.002693572    3.620    0.724
       354  -8.6891     26.5261    113.5316   1.0455980773e+02   5.0128266672e+01    0.2511907    0.1692177 -15.46  0.001291822    1.774    0.436
       355  -8.2438    249.0000    123.9501   5.0155769032e+01   8.0238482751e+00    0.2184227   0.06203307 -40.20 0.0007922174    2.872    0.652
       356  -7.9134    188.5682    123.8536   6.0177760136e+01   1.9380567768e+01     0.210669    0.1318005 -52.62 0.0005234575    1.644    0.392
       357  -9.8515    130.8839    118.6534   7.2211196415e+01   3.2741444025e+01    0.6038052    0.4078127 -88.75  0.001948277    2.733    0.634
       358  -9.0791     85.0611    122.6434   8.6720446874e+01   4.0494450429e+01    0.5129122    0.2952357   7.19  0.001755334    3.201    0.688
       359  -8.9909    158.8284    121.7061   6.6019364595e+01   2.6113531994e+01    0.3988958    0.2868837 -82.52  0.001106253    2.102    0.524
       360  -7.9072    195.1234    122.1531   5.8514119397e+01   1.8371895630e+01    0.2039269    0.1630676 -60.82 0.0004722299    1.329    0.248
       361  -8.6915    172.0702    121.6549   6.3047418028e+01   2.3290252434e+01    0.2584957    0.1999165 -53.36 0.0005274564    1.301    0.231
       362  -9.5918     71.0964    120.0331   9.0641496825e+01   4.3331316136e+01     0.379575    0.2641219 -78.18 0.0008735788    1.808    0.447
       363  -9.2257     68.1447    115.1401   9.0495007143e+01   4.4983941608e+01    0.2624194    0.2466366 -58.18 0.0004188301    1.072    0.067
       364 -10.3371     66.4355    109.5639   8.9748258661e+01   4.6605312051e+01    0.7324919    0.3477765 -56.39   0.00215224    2.009    0.502
       365 -10.0769    141.4974    117.9417   6.9264210218e+01   3.0653271407e+01    0.6857842     0.324353 -50.40  0.001168204    2.202    0.546
       366  -9.8010      3.2423    117.5937   1.1303642179e+02   5.0698794460e+01    0.4896389    0.2342964  63.64  0.002081072    3.005    0.667
       367  -7.8722    231.5052    117.4911   5.1331144838e+01   1.2187311962e+01    0.1376038    0.1157352 -48.26 0.0008099636    1.056    0.053
       368  -8.2483    185.8190    116.0874   5.8865341440e+01   2.1495362119e+01    0.2323848    0.1912421 -63.13 0.0006487895    1.289    0.224
       369  -9.9111    109.4551    114.3461   7.7120957977e+01   3.8082896431e+01    0.5127107    0.3610835 -78.71  0.001525658    2.127    0.530
       370  -8.7319    250.1765    115.0987   4.8196035317e+01   9.3199681255e+00    0.1929997    0.1575307 -29.05 0.0007661558    1.227    0.185
       371  -8.2219    192.9212    115.1693   5.7283779024e+01   2.0183611275e+01    0.2201077    0.1864733 -62.48 0.0004106477    1.218    0.179
       372 -10.1384     92.7066    112.3916   8.1745104386e+01   4.1680140846e+01    0.6167422    0.3762823 -68.04  0.001334732    2.246    0.555
       373  -8.9807     93.0276    104.7216   7.9606831255e+01   4.3423905377e+01    0.4322603    0.2548022 -20.43  0.001121202    2.744    0.636
       374 -10.1336     78.9764    112.4527   8.6216794620e+01   4.3993323266e+01    0.6079754    0.4132701  87.38  0.002440822    2.496    0.599
       375  -8.1524    167.4507    114.5003   6.2273472130e+01   2.5760448206e+01    0.1528426    0.1454481 -47.13   0.00018857    1.008    0.008
       376 -10.1617    133.6058    108.9509   6.8933352982e+01   3.4316898178e+01    0.6951381    0.3064137 -50.06  0.002096889    2.402    0.584
       377 -11.1014    120.8112    110.7896   7.2901279760e+01   3.6612009543e+01     1.737414    0.7636915 -61.53  0.004555173    4.836    0.793
       378 -10.2905    108.6153     98.7043   7.3097147123e+01   4.1784363196e+01    0.6782995    0.4646266  82.07 0.0009726863    2.692    0.629
       379  -9.0412    107.3984     92.8093   7.1762077723e+01   4.3298276261e+01    0.5295236    0.3057481  19.94  0.001906528    2.773    0.639
       380 -10.9355    248.9512    107.8747   4.6885266901e+01   1.0733725910e+01     0.573677    0.3053807 -38.33  0.002931597    1.593    0.372
       381  -8.7074    174.7445    111.7234   6.0028452292e+01   2.4736972170e+01    0.3438039    0.1950336 -54.19 0.0009574931    1.941    0.485
       382  -8.7232    159.0781    111.8132   6.3455208671e+01   2.8145522442e+01    0.2708993    0.2119183 -47.26 0.0005229897    1.244    0.196
       383 -10.0095     14.1289    111.0832   1.0845329638e+02   5.1668756143e+01    0.4292399    0.2823387  70.07  0.002154179    1.918    0.479
       384  -8.7215     42.9020    109.3229   9.7970481671e+01   4.9620612978e+01    0.3408001    0.1379605  11.03  0.001090428    4.293    0.767
       385  -8.1959    189.1754    108.1307   5.6298422370e+01   2.2327507943e+01     0.211755    0.1616022 -59.52 0.0007928538    1.362    0.266
       386  -9.2273    110.9406    106.7007   7.4634990269e+01   3.9542407701e+01    0.4129654    0.1903938  33.84  0.001448175    2.505    0.601
       387  -9.4238    139.9803    104.3477   6.6054375370e+01   3.3913436610e+01    0.4995922     0.272046 -53.19  0.001397674    2.049    0.512
       388 -10.5041     45.3850    102.0185   9.5460072185e+01   5.1146207990e+01    0.7761781    0.4662232  72.97  0.002972039    3.289    0.696
       389  -9.2405     46.2583     92.5472   9.2849363328e+01   5.3312403622e+01    0.5118953    0.2868304  -2.08  0.002112401    2.619    0.618
       390 -10.6289     22.8662    102.6920   1.0388981935e+02   5.3118665851e+01    0.7401128    0.4261816  73.75  0.002531307    2.859    0.650
       391  -8.8650    182.0182    105.0223   5.6902798713e+01   2.4467664403e+01     0.229823    0.2094523 -49.10 0.0004533664    1.032    0.031
       392  -8.6345    166.7998    104.2597   5.9808390985e+01   2.7970851232e+01    0.2657728    0.1948076 -53.92 0.0006957967    1.391    0.281
       393  -9.4815    150.5074    102.9977   6.3129238519e+01   3.1859579462e+01    0.4569384    0.2889137 -61.80   0.00156627    2.017    0.504
       394 -10.1046    128.3693    102.0439   6.8439068813e+01   3.6931604109e+01     0.380655    0.3117673 -72.27  0.001036974    1.462    0.316
       395  -8.1210    175.2596    102.1683   5.7522616697e+01   2.6502174370e+01    0.2107207     0.173368 -76.10 0.0008014651    1.375    0.273
       396  -8.2194    159.9778    101.0154   6.0443801643e+01   3.0138511858e+01    0.2388338    0.1817653 -74.22 0.0005448051    1.635    0.388
       397  -9.2370     82.0956     99.8934   8.1880032711e+01   4.6459031362e+01    0.3829821    0.2596128 -69.40 0.0008356395    1.973    0.493
       398  -9.3913     94.9322     97.0633   7.6863261084e+01   4.4809475807e+01    0.3199487    0.2684434 -70.72 0.0006411854    1.430    0.301
       399 -10.1726     63.8437     95.7737   8.7145920510e+01   5.0273949489e+01    0.5943043    0.4044563 -87.39  0.001519591    2.553    0.608
       400  -8.7181     64.8644     87.8253   8.4570512953e+01   5.1940091332e+01    0.4353908    0.2569923   2.05  0.001722215    2.642    0.622
       401  -9.2332      6.4168    102.5922   1.0983699685e+02   5.4228989353e+01    0.2997522    0.1982402  83.81  0.001090733    1.773    0.436
       402  -8.6155    150.7326     95.6476   6.1094043530e+01   3.3284320951e+01    0.2490243    0.1874307   9.18  0.001106225    1.865    0.464
       403  -8.1120    164.9875     94.3488   5.7608924832e+01   3.0304369084e+01    0.2062438    0.1919815  78.04 0.0004872101    1.100    0.091
       404  -8.0817    188.6526     93.2353   5.2750807006e+01   2.5214418577e+01    0.2039867    0.1312885 -33.60 0.0009411217    1.603    0.376
       405  -8.3513    176.2062     92.9446   5.4986221574e+01   2.8034780625e+01    0.2364123    0.1899742 -66.22 0.0008530525    1.322    0.243
       406  -9.5432    138.9510     92.0428   6.2910667447e+01   3.6655153485e+01    0.4297459    0.2885045 -58.34  0.001463466    1.742    0.426
       407  -9.3701    120.4960     92.9877   6.8026308435e+01   4.0525501522e+01    0.2855793    0.2272272  42.81  0.001272698    1.259    0.206
       408  -9.7615    124.5444     90.8664   6.6301137615e+01   4.0084177379e+01     0.399452    0.3434738 -88.54 0.0009720704    1.407    0.289
       409  -9.1953     22.6865     90.3544   1.0147548327e+02   5.6112028483e+01    0.4309472    0.2527268 -34.25  0.001683387    1.644    0.392
       410  -9.4448      4.9240     92.0646   1.0866787086e+02   5.6847554050e+01    0.3378702    0.1999715  59.44  0.001477406    2.413    0.586
       411 -10.3990    247.7512     91.3892   4.3667150285e+01   1.3635518839e+01    0.3203546    0.2139605 -41.89  0.001635211    1.260    0.206
       412  -8.0794    157.6323     91.7708   5.8493281302e+01   3.2468097964e+01    0.2145813    0.1351823 -50.00 0.0003342485    1.624    0.384
       413  -9.8733     34.7341     89.8395   9.6637765083e+01   5.5178246498e+01    0.4679045    0.2807239 -78.84  0.001583081    2.354    0.575
       414 -10.1565     86.6798     85.9174   7.6297241272e+01   4.8752965798e+01     0.738653    0.4600416 -45.31   0.00158317    1.578    0.366
       415  -7.4910    174.2999     88.6422   5.4246034365e+01   2.9254064032e+01     0.155343    0.1106339 -70.71 0.0003997568    1.710    0.415
       416  -7.4954    188.3022     87.2778   5.1338072185e+01   2.6355365686e+01    0.1348633    0.1141076  13.96 0.0002230651    1.544    0.352
       417  -8.1112    164.1259     87.1676   5.5881037964e+01   3.1844014050e+01    0.2059806    0.1713995 -74.36 0.0004850237    1.316    0.240
       418  -9.7731     48.7831     84.1494   8.9654096509e+01   5.4944217268e+01    0.6080465    0.4294671  89.94  0.002222969    2.414    0.586
       419  -7.7283    179.2715     85.6245   5.2534532786e+01   2.8670495547e+01    0.1533512    0.1063491 -66.67 0.0006997926    1.685    0.407
       420  -9.7229    104.7940     83.2119   6.9675312189e+01   4.5808853795e+01    0.4513398    0.3127208 -64.20  0.001011122    1.963    0.491
       421  -8.7346    106.6422     76.7008   6.7099649148e+01   4.6701222760e+01    0.4597094    0.2431677  26.50  0.001656151    2.801    0.643
       422  -8.9713    105.7576     71.8397   6.5818741147e+01   4.7797336764e+01    0.3040019    0.2179847 -52.23 0.0007965112    1.589    0.371
       423  -8.3648    157.9349     84.0799   5.6337775117e+01   3.3833141352e+01    0.2298454    0.1948901 -75.08 0.0004553872    1.285    0.222
       424  -9.0041    140.8603     82.5345   5.9739943629e+01   3.8048298785e+01    0.3355865    0.2080883 -44.75 0.0009881778    1.631    0.387
       425  -9.2325    249.6800     81.1275   4.1359914260e+01   1.4902525606e+01    0.2570425    0.0840419 -44.75  0.000783276    2.431    0.589
       426  -8.0907    151.3453     89.2315   5.9195819450e+01   3.4387600839e+01    0.2161126    0.1343706 -49.47 0.0003168288    1.658    0.397
       427  -9.6107     24.5836     80.5781   9.8485617504e+01   5.8235909517e+01    0.3953113    0.2596613  89.07  0.001354155    2.409    0.585
       428  -9.3218     10.0414     81.0230   1.0456793609e+02   5.9157528664e+01    0.3407773    0.1935303  61.12  0.001547043    3.017    0.668
       429  -8.4371    150.2515     80.6169   5.7040313154e+01   3.6237756227e+01    0.2810332    0.1730218 -50.62 0.0008578959    1.722    0.419
       430  -8.7336    119.3622     80.4956   6.4637000689e+01   4.3256213641e+01    0.2996274    0.2478162 -71.78 0.0008414639    1.484    0.326
       431  -8.9147     74.4159     80.2372   7.8823081975e+01   5.2084816461e+01    0.3556883    0.2423811 -66.68  0.001151768    2.105    0.525
       432  -8.1181    166.8618     79.5559   5.3295962474e+01   3.2578946556e+01     0.234246    0.1628775 -46.18 0.0005681276    1.411    0.291
       433  -8.2831    184.0000     78.0124   4.9758015593e+01   2.8919355957e+01    0.2373368   0.07800053 -37.91 0.0008031129    2.947    0.661
       434  -7.8436    157.4216     76.5039   5.4359784276e+01   3.5302405185e+01    0.1471671    0.1372681 -75.21 0.0001702852    1.067    0.063
       435  -8.4790    140.6432     75.3459   5.7707397315e+01   3.9404135694e+01    0.2597578    0.1737886 -51.40 0.0007575036    1.612    0.380
       436  -9.2923    128.1305     75.2719   6.0732177368e+01   4.2278690014e+01    0.3414139    0.2394185 -58.56 0.0006833797    1.710    0.415
       437  -9.9416     63.1040     73.4713   8.0899957351e+01   5.5287764473e+01    0.4468806    0.2806691 -56.90 0.0009506745    1.881    0.468
       438  -8.3139    163.5694     73.7189   5.2362181854e+01   3.4347964101e+01    0.2585947    0.1683568 -48.46  0.001213443    1.545    0.353
       439  -8.1575    151.3611     73.1591   5.4692332990e+01   3.7293941145e+01    0.2122753    0.1293678 -48.76 0.0005754226    1.714    0.417
       440  -8.7978    115.6919     72.9675   6.3328024269e+01   4.5462181730e+01     0.257025    0.1992838 -55.29 0.0006310393    1.468    0.319
       441  -8.3225     42.6151     72.7208   8.8866447397e+01   5.8191032167e+01    0.2321448    0.1633482 -58.16 0.0007028186    1.531    0.347
       442  -7.9118    175.4566     72.5251   4.9834794577e+01   3.1789796904e+01    0.1412472    0.1340249 -75.98 3.703704e-05    1.023    0.022
       443  -9.3312     95.1413     71.0014   6.8812446580e+01   5.0124016712e+01    0.4305814    0.2436119 -52.72  0.001331543    2.182    0.542
       444  -9.5080     97.3818     61.1532   6.4824873158e+01   5.1433971876e+01    0.4773934    0.3488708 -20.07  0.002161422    1.501    0.334
       445  -9.6235     51.5018     69.7496   8.4299131983e+01   5.7705938315e+01    0.4720828    0.2708243 -64.46   0.00146025    2.645    0.622
       446  -8.7512    147.1348     67.6952   5.4028854917e+01   3.9204248840e+01     0.396122    0.2091644 -37.21  0.001262091    1.942    0.485
       447  -9.1518     16.8340     70.2327   9.9218591976e+01   6.1149925773e+01    0.2900076    0.1729594 -66.36 0.0009598775    1.757    0.431
       448  -8.6938    138.7204     66.0980   5.5417189132e+01   4.1434990596e+01     0.288941    0.1832867 -49.13 0.0007777574    1.703    0.413
       449  -8.7290    121.5486     65.8893   5.9529294873e+01   4.5408036335e+01    0.2672008    0.2238916 -83.76 0.0006766927    1.479    0.324
       450  -8.7730     37.4604     64.3326   8.8495476613e+01   6.0533802472e+01    0.2534053    0.2073835  82.22 0.0009987402    1.968    0.492
       451  -8.8815    110.2652     63.6509   6.1861059316e+01   4.8283728014e+01    0.2858999    0.2314002 -76.61 0.0007292527    1.659    0.397
       452  -8.3709     85.9934     64.0062   6.9471992269e+01   5.3189576976e+01     0.234488    0.1671916   5.74 0.0005429868    1.702    0.413
       453  -8.8281     64.7868     62.8262   7.6726816582e+01   5.7128100247e+01    0.3881598    0.2325887   2.23  0.001308855    2.493    0.599
       454  -9.6347     82.4103     72.6957   7.3599112554e+01   5.2223226861e+01    0.4021399    0.2766292 -62.50 0.0009831722    2.040    0.510
       455  -8.0726    158.4303     61.9685   5.0110023430e+01   3.7468443359e+01    0.2049786    0.1368502 -39.72  5.64752e-05    1.519    0.342
       456  -9.2254     28.1505     71.2105   9.4559912070e+01   6.0016485414e+01    0.3755938    0.1539947 -27.60  0.001376977    3.387    0.705
       457  -9.6391     73.3652     59.4757   7.2332108191e+01   5.6310696647e+01    0.3811655    0.2468743 -48.45  0.001031908    1.751    0.429
       458  -8.1732     88.8341     59.3444   6.6921501577e+01   5.3460387620e+01    0.1902445    0.1760562 -34.85 0.0006398598    1.175    0.149
       459  -9.9220     23.3571     56.4212   9.2374692505e+01   6.3546536877e+01    0.4095529    0.2984516  89.76  0.002136054    2.540    0.606
       460  -8.0962    130.8914     57.9435   5.4736094585e+01   4.4564876466e+01     0.221263    0.1700068 -75.29 0.0005580648    1.655    0.396
       461  -9.5882      7.4799     57.1324   1.0006620700e+02   6.4567141156e+01    0.2702009    0.2052765 -86.94  0.001019068    1.875    0.467
       462  -9.3393    119.0740     55.2892   5.6770587026e+01   4.7685109672e+01    0.4292342    0.2043566 -46.04  0.001480024    2.416    0.586
       463  -8.0926    139.9601     55.9938   5.2110167837e+01   4.2745648569e+01    0.2217437    0.1662738 -71.41 0.0005418741    1.630    0.386
       464  -8.8498     44.0051     55.3395   8.2652769768e+01   6.1529147202e+01    0.2735011     0.175995 -51.54  0.001050698    1.712    0.416
       465  -9.4126     62.8101     53.4404   7.4160881246e+01   5.9153162106e+01    0.6479282    0.2249983 -42.04  0.002369811    2.856    0.650
       466  -8.8944     53.9982     53.8682   7.7873633425e+01   6.0432974164e+01    0.3419245     0.185876 -56.11  0.001221373    2.684    0.627
       467  -8.5993    105.8956     53.4050   5.9670520742e+01   5.0898223248e+01    0.2597866    0.1930882 -53.74 0.0007857449    1.636    0.389
       468  -9.4171     92.4786     50.5360   6.2647089781e+01   5.4170074398e+01    0.4130987    0.2328841 -47.37  0.001342138    2.155    0.536
       469  -8.0563    158.5132     50.4849   4.6876038215e+01   3.9163635409e+01    0.1385787    0.1282518  83.29 0.0001108787    1.006    0.006
       470  -7.8646    144.7900     49.0206   4.9027730891e+01   4.2625410779e+01    0.1780173    0.1127206 -34.61   0.00048981    1.676    0.403
       471  -8.1554    129.9745     49.0405   5.2158132069e+01   4.6108080174e+01    0.2164026    0.1660062 -74.48 0.0005409895    1.632    0.387
       472  -8.3826    120.9620     47.3206   5.3701439369e+01   4.8436229365e+01    0.1944804    0.1722669  49.53 0.0005406648    1.047    0.045
       473  -8.4337    112.1999     46.7744   5.5709403513e+01   5.0497936210e+01    0.2285297    0.1830481 -47.33 0.0005935546    1.407    0.289
       474  -8.8814     82.0708     46.2952   6.4470501074e+01   5.6893149278e+01    0.2667771    0.1895283 -39.56 0.0006152177    1.532    0.347
       475  -8.5411     44.9963     44.5659   7.8254253771e+01   6.3339215032e+01    0.2186607    0.1756045 -49.08 0.0006096562    1.543    0.352
       476  -9.0341     16.6678     44.4036   9.1697234800e+01   6.6463123587e+01    0.2433545    0.1842244 -58.02 0.0008954501    1.563    0.360
       477  -8.3184     32.9714     44.3372   8.3685272452e+01   6.4881039709e+01    0.2052258   0.09340871   4.51  0.000704308    4.291    0.767
       478  -8.5243    132.9262     43.1467   4.9662154972e+01   4.6233936825e+01    0.2139238    0.1801365 -83.38 0.0006214524    1.326    0.246
       479  -8.4463     92.8717     42.6936   5.9688499535e+01   5.5255041878e+01    0.2342773    0.1563073  28.04  0.001179438    1.561    0.359
       480  -9.3844     69.5551     41.4100   6.7016497110e+01   5.9963194932e+01    0.3905309    0.2632634 -54.44  0.001182475    2.213    0.548
       481  -8.7451     58.2634     42.6666   7.1881841601e+01   6.1684656657e+01    0.2433501    0.2204468 -83.72 0.0009326799    1.742    0.426
       482  -9.7539      5.1903     41.7918   9.6723248870e+01   6.7781504631e+01    0.3530202    0.2129309 -71.39  0.001889693    2.411    0.585
       483  -8.7648    105.9478     41.4339   5.5515303268e+01   5.2629694412e+01    0.2413808    0.1888715 -52.40 0.0006273063    1.541    0.351
       484  -7.6746    140.4483     41.4998   4.7624834025e+01   4.4678610526e+01    0.1366652    0.1261344  73.91 9.168766e-05    1.033    0.032
       485  -8.4937     36.8369     40.7380   8.0485463285e+01   6.5051186841e+01    0.2000455     0.166591 -67.69 0.0006546653    1.953    0.488
       486  -7.9998    225.1622     39.8367   3.5395328959e+01   2.5630581385e+01    0.1470904    0.1402089 -85.00 0.0004035563    1.278    0.218
       487  -8.3463     95.6910     38.0619   5.7156281265e+01   5.5300595379e+01    0.2246761    0.1864441  83.10 0.0007009603    1.601    0.375
       488  -8.3630     80.8240     36.8340   6.1288269603e+01   5.8504711889e+01    0.1652845    0.1607304 -69.57 0.0004185949    1.326    0.246
       489  -8.1767    133.3996     36.1694   4.7379663065e+01   4.7023309883e+01    0.1820026    0.1230056 -44.89 0.0007037577    1.619    0.382
       490  -9.3721     26.1968     35.4300   8.3558503792e+01   6.7177331617e+01    0.2538595    0.2036405 -49.64 0.0008838079    1.572    0.364
       491  -8.3902    125.9331     35.3344   4.8661634344e+01   4.8875268870e+01    0.1923074    0.1610575  54.78 0.0004811224    1.078    0.073
       492  -8.6931    111.7260     34.4344   5.1602942131e+01   5.2248196241e+01    0.2275489    0.1557628 -41.92 0.0005242199    1.648    0.393
       493  -8.7873    119.2257     32.9592   4.9349088786e+01   5.0717870370e+01    0.2747234    0.1673316 -43.20   0.00084779    1.857    0.461
       494  -8.9426     48.4810     33.3414   7.2193594683e+01   6.4640105857e+01    0.2436956    0.2058602 -36.03 0.0007334686    1.408    0.290
       495  -8.9933     72.1828     31.1122   6.1955957307e+01   6.0928437357e+01    0.2452211    0.1625969 -46.64 0.0007366535    1.993    0.498
       496  -9.2248     12.8751     30.3229   8.8526515461e+01   6.9316807866e+01    0.2768287    0.1681201 -55.78   0.00132996    2.030    0.507
       497  -8.5157    101.6331     29.5431   5.2408868700e+01   5.5084904085e+01    0.2118976    0.1543208 -52.06 0.0008474349    1.743    0.426
       498  -8.7737     60.6864     32.3578   6.6735131516e+01   6.2823073857e+01    0.1989687    0.1891403  -5.53 0.0005012566    1.279    0.218
       499  -9.0093     81.4675     27.1369   5.7266381575e+01   5.9618458806e+01    0.3141383    0.2088718 -45.71  0.001089671    1.944    0.486
       500  -9.5502      3.5391     27.0034   9.2463236823e+01   7.0593340264e+01    0.3368489    0.1664572 -59.76  0.001732622    2.612    0.617
       501  -7.4819    137.2850     27.7065   4.4011896730e+01   4.7107207531e+01    0.1296508   0.09712398 -74.12 0.0002444593    1.540    0.351
       502  -7.5903    109.7153     27.3355   4.9613650448e+01   5.3540144810e+01    0.1276867    0.1013578 -71.48 0.0003286804    1.624    0.384
       503  -8.7116     91.7836     26.4655   5.3930773012e+01   5.7566624644e+01    0.2297143    0.1973851 -60.83 0.0007358152    1.518    0.341
       504  -8.2864     34.8452     23.1082   7.3983288883e+01   6.8056400813e+01    0.1712551    0.1548562  10.31  0.001029198    1.342    0.255
       505  -7.7059    104.3072     22.6982   4.9256431797e+01   5.5258859513e+01    0.1240807    0.1004616 -78.59 0.0004768372    1.599    0.375
       506  -9.0926     63.5360     20.8684   6.0747444273e+01   6.3791232847e+01    0.2795931    0.2026059 -46.94  0.001031013    1.940    0.484
       507  -8.8314     48.2863     21.5586   6.7123466252e+01   6.6302512407e+01    0.1991559    0.1881681 -29.11 0.0007557747    1.474    0.322
       508  -8.4952     19.2599     21.2371   8.1183889184e+01   7.0185767285e+01    0.1453174    0.1304196   0.75  0.001053535    1.374    0.272
       509  -8.9061     73.9871     19.3363   5.6472562011e+01   6.1990977042e+01     0.244662    0.1695736 -42.47 0.0008339943    1.846    0.458
       510  -8.2390     87.7531     17.3951   5.1539140762e+01   5.9394638161e+01    0.2090475    0.1477191 -36.48 0.0005827268    1.661    0.398
       511  -8.2125     38.7075     18.1524   6.9842527797e+01   6.8188887948e+01    0.1724256    0.1423459 -30.92 0.0007971878    1.466    0.318
       512  -7.9689    112.6232     16.7696   4.5276891754e+01   5.3984534859e+01    0.1613934    0.1175896 -39.43 0.0003172159    1.578    0.366
       513  -8.1666     30.1921     16.2250   7.3068005763e+01   6.9611860407e+01    0.1463284     0.132341   3.01 0.0006472876    1.379    0.275
       514  -8.2723     97.3415     15.1390   4.8168982361e+01   5.7556215159e+01    0.1660248    0.1128636 -35.91 0.0004661284    1.707    0.414
       515  -8.0655      7.4211     15.2356   8.5229914159e+01   7.2219514986e+01    0.1457817    0.1004934 -46.94 0.0009495647    1.728    0.421
       516  -7.8738     17.4565     14.4643   7.9023148713e+01   7.1367544983e+01    0.1163178   0.08977442  -5.37 0.0001039471    1.051    0.048
       517  -9.0546    175.6095    247.5362   8.7253574300e+01  -2.3484717157e+00    0.2907663    0.2362791  73.32  0.001314789    2.134    0.531
       518  -8.6238    156.5848    248.2681   9.1320769811e+01   2.4818316136e-01     0.287544    0.1860101  55.95  0.001465167    2.197    0.545
       519  -8.8487    132.2957    247.9684   9.6450830362e+01   3.8427810048e+00    0.2651891    0.1896917  65.59 0.0007961334    1.884    0.469
       520  -8.2682    113.1341    248.6767   1.0066243776e+02   6.4956434886e+00    0.2093727    0.1676739 -82.27  0.000985601    1.530    0.346
       521  -9.3890    103.8488    246.8222   1.0244538798e+02   8.1775306396e+00    0.4408382    0.2504658 -85.64  0.001985607    2.952    0.661
       522  -9.1888    243.2380    245.9271   7.4047330815e+01  -1.0747137320e+01    0.4167858    0.1540942 -27.27  0.001915992    2.810    0.644
       523  -9.0361    232.8807    246.5214   7.5988643475e+01  -9.6408407126e+00    0.3586007    0.1457713 -29.47  0.001761511    2.386    0.581
       524  -8.6846    218.5049    247.1737   7.8743256787e+01  -7.9990713809e+00    0.2971713    0.1076419 -39.72  0.001281978    2.758    0.637
       525 -10.0080    223.8831    244.0497   7.7230716173e+01  -8.2142496927e+00    0.4490699    0.2264421 -44.99   0.00233839    2.431    0.589
