#   1 NUMBER                 Running object number                                     
#   2 MAG_AUTO               Kron-like elliptical aperture magnitude                    [mag]
#   3 X_IMAGE                Object position along x                                    [pixel]
#   4 Y_IMAGE                Object position along y                                    [pixel]
#   5 X_WORLD                Barycenter position along world x axis                     [deg]
#   6 Y_WORLD                Barycenter position along world y axis                     [deg]
#   7 A_WORLD                Profile RMS along major axis (world units)                 [deg]
#   8 B_WORLD                Profile RMS along minor axis (world units)                 [deg]
#   9 THETA_WORLD            Position angle (CCW/world-x)                               [deg]
#  10 FWHM_WORLD             FWHM assuming a gaussian core                              [deg]
#  11 ELONGATION             A_IMAGE/B_IMAGE                                           
#  12 ELLIPTICITY            1 - B_IMAGE/A_IMAGE                                       
         1 -12.9657    126.3108     28.3830   3.9736582786e+01   4.9842050180e+01     1.144996     0.843339 -88.78  0.003494086    1.421    0.296
         2 -13.3927    120.5339     40.5472   4.5763908839e+01   4.9653762494e+01      1.37505     1.048339 -52.52  0.006652131    1.320    0.243
         3 -12.6370    106.0658     42.4568   5.0106471508e+01   5.3136554924e+01    0.9960188    0.4371082  50.09  0.002326456    2.265    0.559
         4 -12.2565    107.6016     30.7631   4.4745832613e+01   5.4563734080e+01    0.9033986    0.4906859  20.01  0.002742352    4.301    0.768
         5 -12.6014    105.9039     22.9751   4.1669081520e+01   5.6093079094e+01    0.5613998    0.4979753  25.12  0.001551669    1.266    0.210
         6 -13.0329    160.0287     29.7966   3.4943170106e+01   4.0528403611e+01    0.7452319    0.6248797 -49.93  0.001870785    1.113    0.102
         7 -13.2177    163.9126     19.0127   3.0856453417e+01   4.0753861850e+01     0.417526    0.3049234  44.33  0.001030847    1.602    0.376
         8 -12.1599    151.9551     22.2877   3.3405969250e+01   4.3593079365e+01     1.238889    0.5581841 -54.47   0.00468302    2.397    0.583
         9 -12.5066    104.7277     12.9570   3.7244802877e+01   5.7621322431e+01    0.6234132    0.3889551 -16.07  0.001773606    1.828    0.453
        10 -12.7146    106.9940      2.7250   3.1918416838e+01   5.8016548843e+01     1.156499    0.4760351  81.05  0.004204393    2.607    0.616
        11 -11.8767    118.1980      1.9277   2.9865166547e+01   5.4984823799e+01    0.6884608    0.1858868  67.62  0.002263724    3.032    0.670
        12 -13.6819    140.8784     23.2915   3.5313366347e+01   4.6492678358e+01     1.530828    0.8023126 -46.89  0.006408676    1.866    0.464
        13 -13.1271    128.0833     13.6002   3.3427407553e+01   5.1116960325e+01     1.265565    0.4264493 -34.43   0.00451288    2.651    0.623
        14 -13.1539    121.3700      8.7517   3.2398001526e+01   5.3475459794e+01    0.8337792    0.5796453 -24.35  0.002969631    1.515    0.340
        15 -11.4284    214.1034     25.2822   2.8206938281e+01   2.7684252194e+01    0.4205775    0.3023845 -63.53  0.001842446    1.300    0.231
        16 -12.5190     20.1111     22.1658   8.0618002212e+01   7.4366153431e+01    0.6382759    0.2805076 -53.47  0.002863337    2.037    0.509
        17 -11.9813     26.6289     27.8027   7.8626219895e+01   7.2350139047e+01    0.5728128    0.4440299 -36.98  0.002408627    1.254    0.202
        18 -12.2868     35.6820     18.8266   6.7394726074e+01   7.2846822331e+01    0.9881539      0.47951 -35.91   0.00426667    2.223    0.550
        19 -12.1787     22.7517     11.6250   7.2131728659e+01   7.6187922800e+01    0.5193733    0.3765869 -14.17  0.002038039    1.585    0.369
        20 -12.7350     48.0010     12.6242   5.6003361242e+01   7.1612335976e+01    0.7727801    0.3562923  57.14  0.003158055    2.519    0.603
        21 -12.4776     35.3006      8.7988   6.0749601259e+01   7.4667505700e+01    0.6961554    0.3001873  55.63  0.001890523    3.295    0.696
        22 -11.8636     29.2258      3.1000   6.0439389131e+01   7.6647723511e+01    0.3816254    0.3063171 -78.53  0.001654603    1.907    0.476
        23 -11.6077    232.9559      6.8081   2.2385343632e+01   2.5447385686e+01    0.5206421    0.2480621 -38.66    0.0027534    1.586    0.369
        24 -12.0618    230.3034     25.9872   2.7249212581e+01   2.4088051359e+01     1.143599    0.6337467  12.62   0.00471571    3.729    0.732
        25 -11.6955    233.3497     19.7602   2.5527101573e+01   2.4097580459e+01    0.4547262    0.3851173  63.17  0.003031767    1.435    0.303
        26 -12.9368    246.8115      5.6386   2.1511521637e+01   2.2742672045e+01    0.7224857    0.5127153 -88.08  0.002007159    1.516    0.341
        27 -11.9935    237.6646      5.5518   2.1872516787e+01   2.4588736717e+01    0.8020483    0.2112057 -29.40  0.003361788    2.679    0.627
        28 -12.6445    223.5375     11.4058   2.4001300808e+01   2.7019777522e+01    0.4650889    0.2598495 -51.25  0.001254523    1.489    0.328
        29 -12.4130    246.7767     16.6979   2.4070151918e+01   2.1695029323e+01    0.4765255    0.3704094  49.25  0.002973996    1.700    0.412
        30 -12.6250     89.7439     19.5915   4.4123887713e+01   6.0806809966e+01     1.570284    0.5715044 -43.03  0.005427921    2.905    0.656
        31 -11.5251     85.9688     13.5538   4.2001790566e+01   6.2547568932e+01    0.4201379    0.3105873 -10.17  0.001340327    1.549    0.354
        32 -11.3926     90.8900     11.3208   3.9530258370e+01   6.1519190296e+01    0.4455578    0.2527706  81.28  0.001262643    2.026    0.506
        33 -11.3516     88.4393      7.7602   3.8222400789e+01   6.2553516238e+01    0.4366751    0.2995976   8.85  0.002009239    1.821    0.451
        34 -12.7830     68.6807     17.9523   5.0100672881e+01   6.6255256427e+01    0.6334284    0.5311811  43.50  0.002319887    1.176    0.150
        35 -11.1775     46.7778     19.2962   6.1014506380e+01   7.0764832876e+01    0.3339722    0.2631855 -33.38  0.001424048    1.254    0.203
        36 -11.2321    176.7506      5.7197   2.5373324080e+01   3.8736446828e+01    0.4002209    0.2041315 -84.58 0.0009168971    2.007    0.502
        37 -11.4896    201.7995      2.6745   2.2872223268e+01   3.2804212534e+01    0.2573984    0.2502209 -85.13 0.0005660334    1.215    0.177
        38 -13.4545    185.4059      8.4063   2.5564710315e+01   3.6277638767e+01     1.002842    0.4129897 -53.10  0.003017829    2.236    0.553
        39 -12.2653    195.2849      5.2316   2.3972208292e+01   3.4134982721e+01    0.6061062    0.3882451  42.64  0.002682233    2.046    0.511
        40 -10.5828    114.8468     15.9521   3.6649000209e+01   5.4516762249e+01    0.4244443    0.2275969 -37.18  0.001810895    1.825    0.452
        41 -11.6793    211.5600     11.1715   2.4626052026e+01   2.9719175192e+01     0.504919    0.3365982   4.10  0.002615642    2.096    0.523
        42 -10.8929    140.0007     10.7353   3.0661285902e+01   4.8113907209e+01    0.5742841    0.2383547 -41.87  0.002234078    2.236    0.553
        43 -10.9795    157.5549     11.4087   2.8934818212e+01   4.3253337705e+01      0.25969      0.23981 -25.33 0.0009462626    1.189    0.159
        44  -9.9534      5.4442      9.4633   8.7019323293e+01   7.8531748091e+01     0.194307   0.09417957 -51.24 0.0009698211    1.749    0.428
        45 -10.8217    176.8767     10.7384   2.6940347161e+01   3.8221121720e+01    0.2249098    0.2140007 -67.74 0.0006216497    1.115    0.103
        46 -10.2088    162.0215     11.1856   2.8413647059e+01   4.2077394315e+01    0.2474905    0.1436755  43.00  0.001083279    2.133    0.531
        47 -11.1726     65.6241     10.2581   4.6586327221e+01   6.8023258160e+01    0.3156856    0.2291322  56.99  0.001638845    1.331    0.249
        48 -10.9025     62.6529      6.4269   4.5214911568e+01   6.9199055920e+01    0.3485614    0.2568244  19.70   0.00180414    1.542    0.351
        49 -10.2267    145.3798      9.3735   2.9510489481e+01   4.6768052637e+01    0.2244504     0.175088  -2.19 0.0005853291    1.543    0.352
        50  -9.9417    170.2653      8.8733   2.6897291297e+01   4.0122610957e+01    0.1781725    0.1510915  63.82  0.001000023    1.270    0.213
        51 -10.7549    153.6475      7.0771   2.7803423019e+01   4.4731673013e+01    0.2501943    0.1820655 -79.85 0.0008299013    1.298    0.229
        52 -12.4974     75.1058      4.5168   3.9878971374e+01   6.6347093342e+01     0.640384    0.4840553 -69.46  0.002761352    1.538    0.350
        53 -12.4410    157.8558      3.7237   2.6235093585e+01   4.3903413915e+01    0.4686852    0.3092844 -51.58  0.001443061    1.391    0.281
        54 -11.1459    137.7707      4.4085   2.8472556099e+01   4.9331942637e+01    0.3048993    0.2351424  60.90 0.0008854639    1.301    0.232
        55 -11.6801    133.7935      2.5351   2.8178563361e+01   5.0599171176e+01    0.4677492    0.2551087  68.99  0.002087414    1.692    0.409
        56 -10.7822     55.7567      5.5687   4.7389104384e+01   7.0906515236e+01    0.3044226     0.210072 -78.05 0.0009607946    2.168    0.539
        57 -12.8128     16.3025     14.0360   7.9224688644e+01   7.6521754040e+01    0.7728599    0.5267007 -49.42  0.004394945    1.341    0.254
        58 -11.7565    224.7524      2.0923   2.1589550215e+01   2.7634549173e+01    0.4576862    0.1986733  87.46  0.001657645    2.454    0.592
        59 -10.4438    218.9058      3.0800   2.2108777298e+01   2.8829390744e+01    0.2211558    0.1592394  -6.22  0.001273231    1.694    0.410
        60  -9.8931    207.4841      3.4392   2.2776316934e+01   3.1396654249e+01    0.1310088    0.1097762 -54.96 0.0002705834    1.023    0.022
        61 -11.7216      3.1913      1.8253   8.4754090209e+01   8.0317991127e+01    0.4431773    0.2096992   9.88  0.002104104    2.587    0.613
        62 -10.3998     13.7302      1.7364   7.2843746383e+01   7.9233342161e+01    0.2205288    0.1479382  24.75  0.001264579    1.557    0.358
        63 -11.2002    142.1256      4.8958   2.8183041707e+01   4.8085670146e+01    0.3719475     0.268062 -44.13  0.001076968    1.324    0.245
        64 -10.7074     68.5429      3.6413   4.1331186006e+01   6.8083038748e+01    0.3856309    0.2296844 -13.25  0.001593259    1.906    0.475
        65 -11.0549    214.9201    107.8959   4.8785378005e+01   1.6885019251e+01    0.3204448      0.18897 -42.51  0.001014354    1.666    0.400
        66 -10.8592    101.2815    110.1502   7.3410197619e+01   4.0187374675e+01    0.2786581    0.2359612 -19.92  0.001103206    1.502    0.334
        67 -10.0660     65.9535    110.7354   8.4875241435e+01   4.6418148117e+01    0.1890799    0.1259362  36.25 0.0008803344    1.507    0.337
        68 -11.3747     80.0037    107.9714   7.9544798594e+01   4.4733916354e+01    0.4552872     0.278031  31.57 0.0009801043    1.818    0.450
        69 -10.0802     15.3112    109.0086   1.0319421192e+02   5.2932280193e+01    0.3099772    0.1006972  47.37   0.00118325    2.794    0.642
        70 -10.9073    228.3506    107.4019   4.6837048361e+01   1.4505112949e+01    0.2460954     0.196081  43.73  0.001184405    1.406    0.289
        71 -11.3471    143.6757    106.1214   6.1318517867e+01   3.2012165184e+01    0.3779368    0.2752049  67.88  0.001238546    1.604    0.376
        72 -11.2203    145.4114    100.5580   5.9477080658e+01   3.2691212242e+01    0.4986779     0.298177 -20.52  0.001464403    2.570    0.611
        73 -12.1921    240.9613    102.5339   4.4202441300e+01   1.2936370427e+01    0.4871529    0.1811968 -35.57  0.002240525    2.209    0.547
        74 -11.4530    236.6444    100.5969   4.4296174005e+01   1.3923159065e+01    0.3212544    0.2304506 -17.35  0.001789569    1.282    0.220
        75 -12.3692    180.8752    102.7570   5.2972884430e+01   2.4482720069e+01    0.6451316    0.5058806  81.92  0.003367894    1.644    0.392
        76 -10.4690    118.7190    106.0201   6.7475978685e+01   3.7486958795e+01    0.2089272    0.1967467 -75.91 0.0004094505    1.067    0.063
        77 -10.3217    189.7490    104.0130   5.1759706962e+01   2.2420483447e+01    0.3121343    0.1610111 -20.44   0.00112402    2.554    0.608
        78  -9.7378     85.9596    103.7448   7.6609707552e+01   4.4660696615e+01    0.1943541    0.1281794  40.99  0.000757402    1.500    0.333
        79 -10.8048     35.4160    103.5268   9.4804183246e+01   5.2426822205e+01    0.2801367    0.1397641  25.78  0.001204385    2.159    0.537
        80 -10.7358    194.6334    101.8724   5.0442940933e+01   2.1744249253e+01    0.2363845    0.2073101  66.58 0.0007707964    1.298    0.229
        81 -10.9577     51.2895     99.6981   8.8003959210e+01   5.1415603076e+01     0.763543    0.1292631 -53.77  0.001977311    5.170    0.807
        82 -12.0231    225.7842     99.1286   4.5321281790e+01   1.6060014864e+01    0.6123337    0.3891065 -81.50  0.002794911    3.187    0.686
        83  -9.8526    220.5577    101.4694   4.6541102943e+01   1.6714968027e+01    0.1286875    0.1117965 -26.55 0.0002220875    1.026    0.026
        84 -11.4355     17.2595    100.6588   1.0159075756e+02   5.4941126369e+01    0.2426583    0.2078398 -68.08 0.0006259621    1.179    0.152
        85 -11.8391      9.6613     97.4702   1.0433754871e+02   5.6344102590e+01    0.4849043     0.301661  53.49 0.0005814753    1.519    0.342
        86 -11.6086     68.9876     95.7731   8.0519236657e+01   4.9659575529e+01    0.3471075     0.288984 -56.83 0.0005698706    1.215    0.177
        87 -11.3027    210.8500     97.2058   4.6886437672e+01   1.9166552224e+01    0.4672144     0.269629  33.75  0.002228013    2.188    0.543
        88 -10.3569     80.5885     98.3401   7.7068868965e+01   4.6964061168e+01    0.2352634    0.1873859  15.16 0.0005897807    1.638    0.390
        89 -10.3769    190.6590     96.5788   4.9782757499e+01   2.3384558508e+01    0.2778796    0.1600394 -36.39  0.001246584    1.609    0.378
        90  -9.8727    183.6431     96.1685   5.0841402341e+01   2.4949070209e+01    0.1964132    0.1281774 -24.50 0.0005009076    1.613    0.380
        91 -10.7805    115.2625     94.0824   6.5225309310e+01   4.0797447515e+01    0.5648203    0.2265995  37.68  0.001761354    3.272    0.694
        92 -11.1732    125.8634     94.1931   6.2434790185e+01   3.8387246827e+01    0.3664591    0.3180169 -24.80  0.001027619    1.310    0.237
        93 -11.5193    121.5124     94.0094   6.3515994671e+01   3.9411547828e+01    0.3052975    0.2959574  87.82  0.001178059    1.015    0.015
        94 -11.0615     19.7193     82.7178   9.8205312227e+01   5.9433593099e+01    0.3675899    0.1961522 -75.46  0.001087787    1.694    0.410
        95 -11.3698     22.5566     94.8840   9.8719989847e+01   5.5994480431e+01    0.3079625    0.2639469 -20.99 0.0009609255    1.436    0.304
        96 -12.3798     18.1487     90.7180   1.0003133809e+02   5.7467519628e+01    0.4201615    0.2850722 -70.56 0.0004986172    1.338    0.252
        97 -10.9001    199.5558     94.7691   4.7945856227e+01   2.1797514666e+01    0.3988257    0.1865835  44.49  0.001712324    2.384    0.580
        98 -10.9742     43.0593     94.2681   9.0175827641e+01   5.3921177711e+01     0.285515    0.2653779  47.33  0.001649078    1.132    0.117
        99 -11.3415     35.4037     92.9495   9.3068164891e+01   5.5188983332e+01    0.4424049    0.2634766 -83.66  0.001507061    1.704    0.413
       100 -12.9246    236.1557     91.3476   4.2298274942e+01   1.5179338976e+01     0.531307    0.3756171 -34.45  0.002309277    1.205    0.170
       101 -10.6458     82.5326     93.4733   7.5157410879e+01   4.7768927377e+01    0.3682188    0.1530116  37.42  0.001241063    2.561    0.610
       102 -10.5825     77.9840     92.5167   7.6481059078e+01   4.8856410107e+01    0.3468554    0.3234264 -22.53   0.00185635    1.266    0.210
       103 -11.8782    217.5675     90.9053   4.4481977513e+01   1.8723637007e+01    0.3844511    0.2211258 -31.90  0.001971226    1.520    0.342
       104 -11.2848    151.8908     92.1543   5.5795883204e+01   3.2776874760e+01    0.3576258    0.2166534  45.26  0.001077904    1.708    0.415
       105 -11.1618     98.4867     91.1055   6.9304262711e+01   4.5101399284e+01    0.2817287    0.2384815  56.78 0.0002992173    1.155    0.134
       106 -12.5333     88.9652     89.9806   7.2043107652e+01   4.7329425371e+01    0.3377237    0.3099106 -63.25 0.0005396711    1.090    0.082
       107 -10.5943     49.4955     91.1422   8.6933332210e+01   5.3868272069e+01    0.3194094    0.1662952  48.56  0.001338124    1.971    0.493
       108 -12.1660      7.0103     89.0201   1.0465650269e+02   5.8716193363e+01    0.5032094    0.3552712  16.44  0.001539554    1.624    0.384
       109 -11.2607    184.1902     87.2865   4.8461824471e+01   2.6232168482e+01    0.5535474    0.2602144 -40.44    0.0023166    1.981    0.495
       110 -10.0701     65.7385     89.1394   8.0083125068e+01   5.1861111373e+01    0.3210836    0.1911663  10.12  0.001100586    3.485    0.713
       111  -9.8993     27.3229     89.3258   9.5872892332e+01   5.6999728827e+01    0.2135984    0.1461666  19.90  0.001082755    1.666    0.400
       112 -10.5090     24.7773     86.0194   9.6449585963e+01   5.8113593464e+01    0.3271788    0.1937022 -80.05  0.001566265    1.588    0.370
       113 -11.0352     28.9899     84.0264   9.4232119988e+01   5.8219111066e+01    0.3037871    0.2760783  82.93 0.0007158541    1.029    0.028
       114 -12.3834    247.0116     85.6275   3.9833132528e+01   1.3966288911e+01    0.3791231    0.2691981  52.26  0.001822202    1.681    0.405
       115 -10.5549    212.5005     87.5338   4.4343434247e+01   2.0191848283e+01    0.2981119    0.1883882  14.93  0.001372779    2.420    0.587
       116 -10.5380     30.5917     95.7900   9.5528871425e+01   5.4972111231e+01    0.2077128    0.1232332 -89.22 0.0009541704    1.712    0.416
       117 -10.1998    103.8181     87.3997   6.6608124468e+01   4.4779207890e+01    0.2207566    0.1462345  37.54  0.000946926    1.657    0.396
       118 -11.3371     44.4761     85.0980   8.7682251700e+01   5.6110720903e+01    0.4783148    0.3524729   7.69   0.00234674    1.783    0.439
       119 -10.6213     37.3184     85.7760   9.0900976978e+01   5.6837234603e+01    0.2642946    0.1546803  41.86 0.0009360174    1.698    0.411
       120 -11.0990    142.9348     84.5311   5.5580617955e+01   3.6288442873e+01    0.3837144    0.2711604  41.03  0.001022197    1.534    0.348
       121 -10.9480    113.6222     83.0261   6.2455055855e+01   4.3509585690e+01    0.4162247    0.2604165 -62.46  0.001695578    1.935    0.483
       122 -11.2455     80.3691     84.0748   7.3311599853e+01   5.0424379475e+01    0.4130768    0.3374388 -56.21  0.002074003    1.215    0.177
       123 -11.0630     76.8712     79.4033   7.3197805876e+01   5.2208596126e+01     0.386277    0.2756742 -50.50  0.001814509    1.401    0.286
       124 -10.7720     72.8216     78.1759   7.4342750485e+01   5.3272205540e+01    0.3546478    0.2533612  87.57  0.001574366    1.796    0.443
       125 -11.0542    218.0658     83.3403   4.2611140254e+01   1.9650221012e+01     0.273295    0.2057473 -59.48 0.0005564968    1.495    0.331
       126 -10.7451    165.6361     83.7449   5.0737761026e+01   3.1044810574e+01    0.2899473    0.2487006 -60.92  0.001032936    1.201    0.167
       127 -12.3196    234.9079     60.7641   3.5342763705e+01   1.9200066467e+01    0.4705347    0.3373544 -49.19  0.001632464    1.290    0.225
       128 -12.6716    238.0919     69.1677   3.7011457426e+01   1.7574000710e+01    0.7005518    0.6153471  49.24  0.004738547    1.354    0.262
       129 -13.4645    242.9048     77.2898   3.8392975392e+01   1.5700326296e+01    0.5472404    0.4879266 -36.52  0.001748822    1.100    0.091
       130 -12.2805    234.7779     77.9187   3.9386374584e+01   1.7120092955e+01     0.487922    0.3289799 -47.50  0.002419144    1.433    0.302
       131 -10.4288     66.8111     82.2284   7.7827853361e+01   5.3383527361e+01    0.2789821    0.2506152 -34.44   0.00147956    1.265    0.209
       132 -10.2067      1.2874     80.8489   1.0646544982e+02   6.1160061417e+01    0.1821301   0.09768661 -72.86            0    1.612    0.380
       133 -11.5800     53.1709     76.2971   8.1765670038e+01   5.7103063911e+01    0.6316625    0.3397639 -67.80  0.002621199    1.964    0.491
       134 -11.1612     58.3107     77.7835   8.0002883557e+01   5.5918010244e+01    0.2935664    0.2423233 -49.64 0.0007876462    1.239    0.193
       135 -10.9116     94.7288     76.5980   6.6134300414e+01   4.9154421000e+01     0.667771    0.2625062  46.92  0.002269026    2.528    0.604
       136 -12.2418     87.3013     73.2169   6.7521363104e+01   5.1510263215e+01    0.7738361    0.4354674  42.29  0.002510574    1.829    0.453
       137 -13.6110    217.3071     67.0192   3.8693208749e+01   2.1967334254e+01     1.517652    0.4238982  51.97  0.005473966    3.886    0.743
       138 -11.2686    200.6390     69.8991   4.1465831790e+01   2.5155989878e+01    0.3503224    0.2920451 -77.28  0.001076536    1.323    0.244
       139 -13.4597    185.3383     68.3027   4.3159675561e+01   2.8860412316e+01     1.426727    0.5573374 -44.07  0.005373105    2.449    0.592
       140 -11.8520    192.6379     66.0825   4.1515955212e+01   2.7493533622e+01    0.4842318    0.3037453 -75.82  0.001739659    2.179    0.541
       141 -11.5625     13.5524     74.5161   9.9880613898e+01   6.2064290440e+01    0.4578663    0.2446213 -87.34  0.001885611    1.817    0.450
       142 -10.6136     14.2938     67.7306   9.8416867694e+01   6.3775633751e+01    0.2913553    0.2629863 -57.69  0.001581914    1.118    0.106
       143 -10.3817    197.4433     74.7322   4.3165733970e+01   2.5177507890e+01    0.1915795    0.1286861 -19.45 0.0009302339    1.593    0.372
       144 -10.2050    112.1155     75.2125   6.0426406835e+01   4.5478550767e+01    0.2214897    0.1789201  79.58   0.00104937    1.362    0.266
       145 -10.2624    103.9281     74.8535   6.2693102298e+01   4.7462372915e+01    0.2408196    0.2184941  22.46  0.001222886    1.278    0.218
       146 -10.1668     24.5085     74.0550   9.4445839131e+01   6.1266381467e+01    0.2162985    0.1264944 -72.76   0.00102459    1.567    0.362
       147 -11.8654    162.2494     71.2462   4.7772499746e+01   3.3930607834e+01    0.4586851     0.342266 -81.28  0.001818053    1.602    0.376
       148 -11.4905     41.0367     72.1536   8.6105868622e+01   5.9882704676e+01    0.4854143    0.2909872 -71.31  0.001561679    1.669    0.401
       149 -11.4777     35.0656     71.6401   8.8808099458e+01   6.0760915183e+01    0.5045835     0.231573  28.40  0.002089824    2.311    0.567
       150 -11.0767      2.0796     71.5955   1.0519574713e+02   6.3518142539e+01    0.3457046    0.1988744 -79.98  0.001060729    1.505    0.336
       151 -10.0931    154.0108     72.4902   4.9691921931e+01   3.5744531791e+01    0.2233268    0.1183109  37.00 0.0008106155    2.613    0.617
       152 -11.1321    130.5418     72.0429   5.4621062715e+01   4.1633908683e+01    0.5067272    0.2537923 -50.46  0.001198721    2.162    0.537
       153 -10.9474    132.6726     69.3596   5.3254926560e+01   4.1601049014e+01    0.6708019    0.3723355 -71.70  0.002124336    3.554    0.719
       154 -12.0121    122.7701     68.8403   5.5485680889e+01   4.4158538837e+01    0.4954557    0.3508657  51.87   0.00127807    1.407    0.289
       155 -11.3486    171.1558     68.5016   4.5426731331e+01   3.2202269803e+01     0.407291    0.3327178 -26.87  0.001664952    1.249    0.199
       156 -10.4759    110.7270     69.0098   5.8764133633e+01   4.7063647347e+01    0.2626412    0.2179551  59.72  0.001288124    1.190    0.160
       157 -11.3031     79.1773     68.1436   6.8725958377e+01   5.4349539506e+01    0.4937428    0.3521019  69.00   0.00222439    1.673    0.402
       158 -11.0537    199.2048     64.5856   4.0244161324e+01   2.6212500428e+01    0.3803615    0.2893673 -49.18  0.001714506    1.234    0.189
       159 -12.1421      4.7642     62.3137   1.0265476767e+02   6.5779899273e+01    0.4945483    0.3689267 -61.06   0.00208482    1.229    0.186
       160  -9.4094     25.3375     65.3063   9.2174662668e+01   6.3447851867e+01    0.1443718   0.09735122 -37.08   0.00043488    1.676    0.403
       161  -9.9909     21.1242     65.0960   9.4333791643e+01   6.3899477536e+01    0.1836695    0.1445619  82.08 0.0004332783    1.271    0.213
       162 -11.3916    104.9534     62.9456   5.8316099620e+01   4.9658200118e+01    0.3914639    0.2932426  85.40   0.00137661    1.623    0.384
       163 -11.4670     91.4316     62.6028   6.2437410861e+01   5.2895658832e+01    0.6632336    0.4614375 -83.31  0.002772797    2.036    0.509
       164 -12.3809     90.2047     57.9565   6.1120256488e+01   5.4133310463e+01    0.5855628    0.3733878  51.38  0.002574811    1.561    0.359
       165 -12.3478    154.7705     41.1773   3.9534922940e+01   4.0426028882e+01     1.194517    0.3282605 -40.73  0.003756073    3.181    0.686
       166 -11.7712    158.9202     62.3216   4.5669624814e+01   3.6193927858e+01    0.6836927     0.591911  30.01  0.003348671    1.341    0.254
       167 -12.4973    160.1797     55.8839   4.3442264323e+01   3.6875855876e+01    0.6762736    0.3791986 -86.41  0.002487431    2.779    0.640
       168 -12.2706    154.0326     52.8022   4.3508040283e+01   3.8922532882e+01    0.6286025    0.4139202  82.46  0.002560299    1.740    0.425
       169 -10.0623     50.7426     56.7869   7.6769304344e+01   6.2242652344e+01    0.4329451     0.273744  48.58  0.001824662    1.685    0.406
       170 -11.0852     52.0091     61.7903   7.7893945112e+01   6.0847900655e+01    0.4324046    0.2380151  48.91  0.001303125    1.973    0.493
       171 -12.5383     44.1256     61.5016   8.1575337896e+01   6.2121059601e+01    0.5829193    0.3497593 -38.37 0.0009178033    1.959    0.490
       172 -11.3079     40.7788     57.1871   8.1873366866e+01   6.3649195392e+01    0.4291686    0.2065386  42.73  0.001790191    2.174    0.540
       173 -10.6281     81.5291     50.5201   6.1224385416e+01   5.7604943954e+01    0.2327209    0.1431834  41.06 0.0009898893    1.738    0.425
       174 -12.2906     75.3376     53.0011   6.4571934347e+01   5.8450106349e+01     1.028207    0.4439654 -45.85  0.001940118    2.299    0.565
       175 -10.7716     72.9165     47.6978   6.3335835840e+01   6.0060959008e+01    0.5068839    0.2547437 -57.15  0.001577429    2.503    0.600
       176  -9.9923     65.0946     62.0101   7.2158137259e+01   5.8515750721e+01     0.225411     0.175712  82.74 0.0006783131    1.542    0.351
       177 -11.2921    249.5992     59.0091   3.3626687307e+01   1.6634193880e+01    0.3811964    0.1926844 -26.54  0.002017608    1.666    0.400
       178 -10.2207    174.9993    246.5061   7.9456339931e+01   4.7660973127e+00    0.1681243   0.07790356  32.37  0.001036747    1.601    0.375
       179 -11.7101     92.7463     41.2199   5.3458640833e+01   5.6705723753e+01     1.034365    0.3628193  48.77  0.003417259    2.839    0.648
       180 -11.8969    114.5817     49.0547   5.0498493631e+01   4.9823810394e+01    0.5512762    0.4680618  29.50  0.002138801    1.374    0.272
       181 -11.8655    126.5301    241.7120   8.7695127725e+01   1.1446490329e+01    0.2812642    0.1358972  43.92  0.001616347    1.751    0.429
       182 -11.8678     69.9559    239.8014   9.8681779431e+01   1.8760052720e+01    0.4597968    0.2353634  14.33  0.002167975    3.416    0.707
       183 -11.6540    146.7313    237.2989   8.3432262472e+01   9.4202951761e+00     0.488835     0.207452  42.90  0.002652467    2.088    0.521
       184 -12.4190    113.7396     25.0043   4.0841679693e+01   5.3711107516e+01     0.656572    0.3222117  63.97  0.001603303    1.926    0.481
       185 -10.8735    197.4989    232.4753   7.3932317457e+01   3.5425884705e+00    0.1070887   0.07811881  17.18 0.0003656209    1.003    0.003
       186 -10.2169    113.7707     60.9064   5.5102759160e+01   4.7892787628e+01    0.3152618    0.1926688 -44.76  0.001332028    1.630    0.386
       187 -10.6373     29.7618     59.9935   8.8508220244e+01   6.4334309784e+01    0.2824385    0.2435875 -63.64 0.0008122057    1.073    0.068
       188 -10.5189     33.0125     58.9612   8.6486074228e+01   6.4217403331e+01    0.2432638    0.1739561 -54.43  0.001259175    1.311    0.237
       189 -10.9640     25.0084     59.5070   9.0949224231e+01   6.4960710159e+01    0.3703701    0.2551425  20.80  0.001879554    1.621    0.383
       190 -11.0211     25.2028     56.1816   8.9970271200e+01   6.5780856421e+01    0.3867755    0.1970925 -37.65  0.001598637    2.380    0.580
       191 -11.2410    136.3925     55.8070   4.7901497980e+01   4.3022462715e+01    0.5229374    0.2825011 -21.27  0.001930462    2.515    0.602
       192 -10.6129    139.4867     54.5303   4.6823758969e+01   4.2428421700e+01    0.3035724    0.2444188  88.79 0.0007529708    1.311    0.237
       193 -11.2676    204.1747     43.4360   3.3958713280e+01   2.7845162491e+01    0.4593603    0.3407477  25.76  0.002431452    1.801    0.445
       194 -12.2299    205.0314     52.5000   3.6313706055e+01   2.6509740907e+01      0.79387    0.4658208 -83.75  0.002525918    2.259    0.557
       195 -11.3247    194.2962     46.4104   3.5849711336e+01   2.9774057440e+01    0.5525294    0.2719384 -79.62  0.002032382    3.265    0.694
       196 -11.7576    197.9061     43.2482   3.4563027484e+01   2.9323765551e+01    0.4445211    0.3817279   9.91  0.001563506    1.422    0.297
       197 -12.3460    218.8486     57.1496   3.6044623757e+01   2.2904309957e+01    0.4966358    0.3067047  84.69  0.002120347    2.041    0.510
       198 -11.8682    205.0840     37.3662   3.2216237730e+01   2.8369809070e+01    0.3807381    0.2673678  79.46  0.001132864    1.530    0.346
       199 -12.1324    198.7663     36.1298   3.2483925193e+01   2.9991706765e+01    0.4504525    0.4060269   0.73  0.001591978    1.309    0.236
       200 -11.5455    215.5598     52.7623   3.5263696427e+01   2.4154152866e+01    0.4498104    0.2046331 -29.60  0.001989188    1.917    0.478
       201 -10.5965    126.8863     55.8525   5.0019377552e+01   4.5475759072e+01    0.4187748    0.2585048  78.14  0.001679631    2.028    0.507
       202 -10.3278     66.8542     55.1794   6.8879031731e+01   5.9716959033e+01    0.2292691    0.2005572 -88.37 0.0006318906    1.236    0.191
       203 -11.6456     59.2737     63.6266   7.5225399858e+01   5.9191127116e+01    0.3324547    0.2729394 -69.85 0.0004786489    1.231    0.188
       204 -11.6654    113.9079     38.1886   4.6359336290e+01   5.1776647686e+01    0.2804699    0.2614527 -72.13  0.000314724    1.045    0.043
       205 -11.3718     60.8116     36.7061   6.3522853298e+01   6.4773516341e+01    0.5705076    0.3797069 -25.15  0.001370307    1.880    0.468
       206 -12.0826     60.6773     46.5018   6.8053406728e+01   6.2796139912e+01    0.9010819    0.3953868 -42.38  0.003415576    2.356    0.576
       207 -10.4285     59.2818     41.6289   6.6545708433e+01   6.4087338464e+01    0.2283977    0.2059411 -89.72 0.0006307573    1.219    0.180
       208 -10.4373     33.6581     52.7335   8.4218243505e+01   6.5676174048e+01    0.2450066    0.1742063  10.76  0.001173579    1.729    0.422
       209 -11.6009    244.2204     51.0620   3.2244548989e+01   1.8540210852e+01    0.5176527    0.2537021  85.76  0.002457913    2.998    0.666
       210 -10.7398    141.8075     49.6519   4.4688433040e+01   4.2597902078e+01    0.2943729    0.1871206  77.43 0.0008415988    1.753    0.430
       211  -9.9995    144.5012     52.5137   4.5150884056e+01   4.1444264552e+01    0.2504152    0.2121118 -21.80  0.001004372    1.300    0.231
       212 -11.1351    145.9570     47.1248   4.3044559511e+01   4.1891824513e+01    0.3973227    0.2372434 -26.05  0.001294843    1.818    0.450
       213 -10.9019    250.2055     76.2026   3.7429860456e+01   1.4531200739e+01    0.2385042    0.1668606 -43.97 0.0008095748    1.304    0.233
       214 -10.7734     39.2287     43.9035   7.7879714782e+01   6.7016838730e+01     0.342604    0.2321524   2.16  0.001571088    2.159    0.537
       215 -11.9248     45.3297     48.0304   7.6210002626e+01   6.5144696260e+01    0.4746915     0.390924 -57.30  0.002244905    1.167    0.143
       216 -11.3687     44.1378     44.1270   7.5263316502e+01   6.6220206926e+01    0.3851674    0.2395714  51.47 0.0009847153    1.839    0.456
       217 -11.0624    176.7555     43.5788   3.7160003989e+01   3.4427122447e+01    0.3507434    0.2927195  58.63  0.001867703    1.283    0.221
       218 -11.7536    175.5089     48.5044   3.8821785190e+01   3.4072420780e+01    0.3572455    0.3329448  45.35  0.001562928    1.204    0.169
       219 -12.3578    171.9951     47.7176   3.9072051384e+01   3.5063878360e+01    0.5760871    0.3997377  68.69   0.00224619    1.479    0.324
       220 -10.4150     87.6152     49.5611   5.8678434912e+01   5.6400246208e+01    0.2607793    0.1457052 -41.85  0.001068992    1.795    0.443
       221 -10.3053     51.9483     48.4753   7.3021035531e+01   6.3954541807e+01    0.2229867    0.1870833 -52.33 0.0004688166    1.151    0.131
       222 -11.5248     20.4534     46.4303   8.9999756633e+01   6.8674723062e+01    0.2982689    0.2308293  89.03 0.0004838254    1.383    0.277
       223 -11.7097     10.0680     62.3845   9.9760318838e+01   6.5450865746e+01    0.4005127    0.2820114 -80.06  0.001394308    1.276    0.216
       224 -10.9109    248.5475     45.3661   3.0593318687e+01   1.8359644100e+01    0.2786193    0.1640447 -45.01  0.001051961    1.412    0.292
       225 -11.1617    133.1975     46.0008   4.5101991966e+01   4.5440879021e+01    0.4267642    0.2536405  55.45  0.001107496    1.661    0.398
       226 -10.3130    138.5183     44.7126   4.3584906685e+01   4.4225493500e+01    0.3624493    0.2257099  28.46   0.00142286    2.417    0.586
       227 -12.1683    120.1095     58.1102   5.2456813769e+01   4.6813691347e+01    0.9930048    0.5769507 -77.24  0.003315793    3.194    0.687
       228  -9.6139    184.2865     45.2794   3.6713973498e+01   3.2333514248e+01    0.1336395    0.1094017  26.75  0.000247798    1.518    0.341
       229 -10.6290    161.6125     43.8436   3.9363027731e+01   3.8263013990e+01    0.3042356    0.2142571  83.34  0.001450641    1.504    0.335
       230 -10.9334     33.5211     42.3257   8.0559653469e+01   6.8176523504e+01    0.2997027     0.191968 -52.24  0.001493747    1.448    0.309
       231 -11.0806     26.6199     42.8865   8.4982269873e+01   6.8893906911e+01    0.2338125     0.199361  22.54 0.0009581881    1.269    0.212
       232 -11.1949     22.0791     37.1020   8.5797803538e+01   7.0763522558e+01    0.5649934    0.2412049  45.06  0.002257525    2.829    0.647
       233 -10.3799     12.7045     48.0336   9.5298329045e+01   6.8924863405e+01    0.3153022    0.1303322 -43.87  0.001192091    2.498    0.600
       234 -12.7548    227.0801     37.4605   3.0338121313e+01   2.3511846189e+01    0.6793262    0.3418627 -83.84  0.003121115    2.647    0.622
       235 -11.3013    133.6261     37.7370   4.1970269033e+01   4.6564676111e+01    0.4620896    0.3247077 -81.40  0.001686557    1.603    0.376
       236 -11.7680     78.3320     37.9906   5.6910358009e+01   6.0725004817e+01    0.6575375    0.4106454  87.34  0.002420612    2.960    0.662
       237 -11.7256     79.0265     33.4428   5.4492029200e+01   6.1363768503e+01    0.7552662    0.3913825  36.43  0.002853679    2.518    0.603
       238 -10.6165    218.0038     39.1316   3.1514848671e+01   2.5264150490e+01    0.2073251    0.1726521 -50.80 0.0008255072    1.053    0.051
       239 -11.1895    184.2004     38.1649   3.4620317470e+01   3.3269251617e+01    0.2521362    0.2258508 -54.77 0.0006762293    1.007    0.007
       240 -11.0442    176.6628     37.0267   3.5166109742e+01   3.5301515091e+01    0.4247341    0.2849949 -10.36  0.001990111    1.847    0.459
       241 -11.7856    181.2465     32.2953   3.3188594253e+01   3.4729732129e+01    0.5874702    0.3492334 -53.73   0.00232342    1.611    0.379
       242 -10.8580    142.5231     39.0044   4.0811154221e+01   4.3991382838e+01    0.4095403    0.2340597  74.71   0.00170447    1.856    0.461
       243 -11.0657      5.0848     36.1905   9.7514836852e+01   7.2351185555e+01    0.2940372    0.2222044  32.12  0.001556498    1.462    0.316
       244 -11.6040    170.2398     30.0890   3.3760809061e+01   3.7810941775e+01    0.6645144    0.5263925  39.76  0.003480978    1.505    0.335
       245 -10.6130    108.9296    229.1976   8.9909986531e+01   1.5529196472e+01    0.1873786    0.1232809  45.77  0.001222126    1.281    0.219
       246 -11.5782    164.1006     27.6651   3.3714183813e+01   3.9710471960e+01    0.3313923    0.2375035 -35.66  0.001305048    1.328    0.247
       247 -10.6053     94.2238     35.7899   5.0600136576e+01   5.7256797192e+01    0.2638178    0.2039736  77.39 0.0009365409    1.397    0.284
       248 -10.6261    248.1999     33.4029   2.7858782623e+01   1.9716286056e+01    0.3535243   0.08697324 -41.47   0.00144367    2.766    0.638
       249 -10.7816     58.4814    226.4624   1.0019098387e+02   2.2301762598e+01    0.1163127   0.08689898  44.74 0.0008089263    1.036    0.035
       250 -10.7173     63.5393    222.5216   9.8848549414e+01   2.2384616231e+01    0.1186419   0.08844114  45.85 0.0001100401    1.005    0.005
       251 -11.7059    155.5490     19.7305   3.2057489224e+01   4.2912647461e+01    0.5699453    0.2750512  85.33  0.002157029    2.282    0.562
       252  -9.9537    164.5080    211.9919   7.6958301861e+01   1.0350928257e+01    0.1457641    0.1132037 -33.26 0.0005766642    1.511    0.338
       253 -10.2783    172.5145    211.5391   7.5414797167e+01   9.2891678836e+00    0.1161641   0.09162287  22.59 9.545692e-05    1.018    0.017
       254  -9.6636    132.6962    207.6777   8.2630614411e+01   1.5547767475e+01     0.118257   0.08637369   5.88 0.0006360756    1.636    0.389
       255  -9.5276     61.4827    206.5251   9.8135198902e+01   2.5524641310e+01    0.1238358   0.09501878  48.40 0.0008099027    1.002    0.002
       256  -9.8923    233.6893    196.6528   6.2997310365e+01   2.8739730168e+00    0.1137892   0.06636803   4.06 0.0007045408    1.710    0.415
       257  -9.5478     83.7395    195.9926   9.2031727743e+01   2.4607744557e+01     0.138851    0.1091897 -74.36 0.0006064376    1.481    0.325
       258 -10.7372    238.4781     33.0342   2.8415357474e+01   2.1659502307e+01    0.3386651    0.1757944  71.57  0.001795738    2.207    0.547
       259 -10.1925    211.4856     32.9925   3.0463050988e+01   2.7417938137e+01    0.2842264   0.09657226 -33.65  0.001147464    2.296    0.565
       260 -10.3262    210.5916     29.1838   2.9519470766e+01   2.8050122620e+01    0.3113959    0.2080947 -46.28  0.001708579    1.273    0.214
       261 -10.6044    170.0747    191.2838   7.2864061251e+01   1.2422254972e+01     0.344359    0.1294319  27.60  0.001304906    3.533    0.717
       262 -10.4555     67.8468     32.1099   5.8157335442e+01   6.4148109326e+01    0.2195556    0.2003639 -80.35 0.0006034891    1.190    0.160
       263 -11.6539     57.7456     30.0206   6.1563980580e+01   6.6668240916e+01    0.4221687    0.3270242  17.82  0.002067066    1.569    0.363
       264 -12.6272     48.1863     29.9014   6.6346134658e+01   6.8539287635e+01     0.723322    0.3787124  42.92  0.003201382    1.955    0.489
       265 -11.8164    133.3062     24.0586   3.6793137103e+01   4.8476797975e+01    0.5170569    0.3040289 -65.86  0.002157084    1.955    0.488
       266  -9.8240     16.4498    191.5107   1.0785572509e+02   3.3432130196e+01    0.1209598   0.09102861  56.09 5.624893e-05    1.009    0.009
       267  -9.5623     78.6979    190.3457   9.2638010048e+01   2.6392540234e+01    0.1361395   0.08111792  59.81 0.0005024554    1.685    0.407
       268 -11.4715      4.6011    185.7947   1.1052835084e+02   3.5671534101e+01    0.2502151    0.2027596  44.81  0.001448531    1.186    0.157
       269 -10.4336    240.2747    184.9681   6.0134006988e+01   3.2875202199e+00    0.1786231    0.1300945  19.05 0.0005569786    1.206    0.171
       270 -10.0491    170.5099    171.9706   6.9581584672e+01   1.5228347499e+01    0.1749932    0.1228471 -35.89 0.0006631649    1.526    0.345
       271 -11.2009      9.1693    167.0340   1.0872955484e+02   3.9340291663e+01    0.2229919    0.1523762  42.03  0.001120505    1.254    0.203
       272 -10.1489     19.1814    164.6136   1.0590377856e+02   3.8990148950e+01    0.1633797    0.1163312  15.30 0.0007984457    1.712    0.416
       273 -10.6510    197.2350     29.3611   3.0720808639e+01   3.1148249733e+01    0.2641777    0.2088435 -74.17 0.0008816653    1.229    0.186
       274 -10.9484    198.1398     24.8549   2.9363478387e+01   3.1438906544e+01    0.4113077    0.2277317 -45.29   0.00159032    1.556    0.357
       275 -10.9023    188.9707     28.0908   3.1132308618e+01   3.3301890709e+01     0.389642    0.2589619  -9.73  0.001897278    1.837    0.456
       276  -9.9097     99.5102     30.5008   4.6700215270e+01   5.6730417962e+01    0.1519479    0.1429895 -84.15 -2.152405e-05    1.044    0.042
       277 -10.6991      7.2142     30.1393   9.4181145587e+01   7.3688528813e+01    0.2760409     0.167487 -13.94  0.001420153    1.956    0.489
       278 -10.3412    205.0069    163.0456   6.1742180940e+01   1.0938912845e+01    0.1869653    0.1561774   4.70 0.0006226315    1.026    0.025
       279  -9.7798     13.7167    159.2921   1.0713954367e+02   4.0703918913e+01    0.1337233   0.07132512  57.49 0.0006952945    1.535    0.348
       280 -11.0188    104.9811    154.0219   8.1181816461e+01   2.9782980530e+01     0.220819     0.176413  -6.82  0.001149115    1.721    0.419
       281  -9.7145     46.4806    154.5255   9.7419815990e+01   3.8384449001e+01    0.1377207    0.1131529  61.27 0.0001180262    1.025    0.024
       282 -11.1565    224.6624    150.9830   5.6356275900e+01   9.4524108090e+00    0.2209004    0.1604611  27.03 0.0004411281    1.340    0.254
       283 -11.8840    228.5252     15.7518   2.4816201336e+01   2.5516295864e+01    0.4004679     0.218004  74.96 0.0004998497    2.012    0.503
       284 -10.0509     30.6439    151.7129   1.0178685420e+02   4.0846489495e+01    0.1222748   0.09999222 -33.14  0.000528639    1.675    0.403
       285 -10.2619    239.6212     27.9911   2.7133642943e+01   2.1966386570e+01    0.2374905    0.1102407 -17.44  0.001087273    2.394    0.582
       286 -10.5528     97.0092     26.4065   4.5476990210e+01   5.7980614072e+01    0.3435268    0.1813046 -38.38  0.001407846    1.882    0.469
       287 -12.3415    246.0196     22.5461   2.5469431265e+01   2.1260455657e+01    0.4558106    0.2131599 -53.59  0.001386732    1.894    0.472
       288 -11.8028     23.1622    148.7178   1.0377779170e+02   4.2314025697e+01    0.4695457    0.2708128 -36.83    0.0021859    2.762    0.638
       289 -10.8846    182.1889     25.4713   3.1014881231e+01   3.5293615232e+01    0.2571242    0.2138729  35.91  0.001008607    1.470    0.320
       290 -10.8557    203.4670     24.1344   2.8720634537e+01   3.0254752020e+01    0.2703846    0.1667703 -57.75 0.0008091265    1.505    0.336
       291 -10.7247    177.8019     23.0997   3.0723947370e+01   3.6676826568e+01    0.4898653    0.2893341 -19.83  0.002263825    1.828    0.453
       292  -9.5833    185.2839    150.3198   6.2751656719e+01   1.6043505948e+01    0.1307461   0.09390044   3.62 0.0004968542    1.589    0.371
       293 -10.5030     15.8650    147.9610   1.0590412309e+02   4.3169434673e+01    0.2228915    0.1672817  40.01 0.0009733472    1.253    0.202
       294 -11.4847    249.9844    144.0974   5.1514368141e+01   6.5312546539e+00    0.5543375    0.1655315 -29.96  0.002469913    2.860    0.650
       295 -11.0437     48.6405    145.9879   9.5870940224e+01   4.0141346561e+01    0.4200745    0.2188513  25.93  0.001434094    2.067    0.516
       296 -10.0347     59.6481     23.7812   5.7247027060e+01   6.7375204390e+01    0.1960777    0.1275169 -46.11 0.0004093984    1.594    0.373
       297 -10.8627     13.9019     23.4477   8.6235795401e+01   7.4724708117e+01    0.2272652    0.1628491 -51.07 0.0004276779    1.244    0.196
       298 -11.6443    223.8598     22.1834   2.6719897521e+01   2.5860523859e+01    0.3771362     0.214572 -73.68  0.001783505    1.875    0.467
       299 -10.4881    170.1191     23.1909   3.1555358832e+01   3.8653031747e+01    0.2981984    0.1788391  60.32  0.001384113    1.712    0.416
       300 -11.2626     33.3033    144.6209   1.0038568601e+02   4.2263031802e+01    0.3479927    0.2067676  46.80   0.00126292    1.453    0.312
       301 -11.5751      2.2460    141.2262   1.0967004185e+02   4.5870323469e+01     0.377096    0.2344281  77.34 0.0009772488    1.359    0.264
       302  -9.7694    199.4546     20.2318   2.7949167028e+01   3.1626322944e+01    0.2007976    0.1010424 -40.41 0.0009355079    1.658    0.397
       303 -10.2500     79.4448     19.2594   4.7047485604e+01   6.3465536345e+01    0.2655847    0.1469838 -24.43  0.001122726    1.999    0.500
       304 -10.7679    206.8783     17.5971   2.6666391303e+01   3.0152171703e+01    0.3269339    0.1576797 -45.35  0.001549139    1.724    0.420
       305 -10.9551    186.6947     15.1921   2.7503368912e+01   3.5276918170e+01     0.459464    0.1718885  70.52  0.001828394    2.601    0.616
       306 -10.8313    217.1873    138.4130   5.5006887328e+01   1.2289623965e+01    0.2264963    0.2097943  28.37  0.001085269    1.229    0.186
       307 -10.1459     32.2619    137.4652   1.0004266963e+02   4.4123767917e+01    0.1955978    0.1049247  43.41  0.000943571    1.630    0.387
       308 -11.7263     29.5832    133.3980   1.0051351427e+02   4.5412969657e+01     0.569155    0.3274947 -21.60 0.0008075761    3.319    0.699
       309 -10.0587     21.1150    134.6891   1.0336774332e+02   4.5921033126e+01     0.419168    0.1713336  53.42  0.001813699    2.194    0.544
       310 -10.5501     11.4883    136.7656   1.0658353229e+02   4.6245161761e+01    0.2997891    0.1573369 -35.25  0.001306812    3.127    0.680
       311 -10.5660     73.9624     19.4880   4.9034263530e+01   6.4775598798e+01    0.2504035    0.1835529 -62.58  0.001046562    1.637    0.389
       312  -9.8925    173.5069     16.3968   2.9029809340e+01   3.8514729971e+01    0.1425282    0.1244273 -67.13 0.0001456098    1.025    0.024
       313 -11.1843    189.2245    135.3590   5.8976821998e+01   1.7633813379e+01     0.290319     0.195665  48.15 0.0009392438    1.561    0.359
       314 -11.4143    246.5261    134.7553   5.0159355551e+01   8.1227878822e+00     0.316077    0.1650871  47.43  0.001577848    2.220    0.550
       315  -9.3747     38.7055    133.3337   9.7544610295e+01   4.4433537088e+01    0.1494605   0.08789753  63.09 0.0003398258    1.641    0.390
       316 -10.4783      5.5294     12.5431   8.8586114426e+01   7.7854978039e+01    0.2441982    0.1206668  18.64  0.001211331    2.183    0.542
       317 -13.1429    241.3032    123.8536   4.8647963106e+01   1.0240488790e+01    0.7313778    0.3962189 -40.79  0.003517169    1.854    0.461
       318 -11.2923    188.3930    127.7921   5.7491268858e+01   1.8964149863e+01    0.4008833     0.267828  -3.17  0.001957491    1.979    0.495
       319 -11.4881    223.3790    123.4949   5.0997074554e+01   1.3242114703e+01    0.5263759    0.2498359 -39.76  0.002575961    2.031    0.508
       320 -11.2915     22.9776    127.0021   1.0210763654e+02   4.7667233648e+01    0.2216138    0.1890751  28.40  0.000453232    1.303    0.232
       321 -13.0094    103.8111    122.5044   7.5493738133e+01   3.6889819991e+01     0.333747    0.3220798  41.43 0.0006906121    1.099    0.090
       322 -10.5762    201.6317    119.8619   5.3499307812e+01   1.7663066075e+01    0.2482437    0.1626996  59.18   0.00128621    1.874    0.467
       323 -11.0511     44.0965    117.6041   9.3704945888e+01   4.7761894956e+01    0.4567707     0.228079  89.82  0.001824854    2.414    0.586
       324 -11.2979     21.7495    114.4156   1.0133400806e+02   5.0987258900e+01    0.4699245    0.2786793   0.56  0.001636968    2.478    0.596
       325 -11.1779     28.0326    113.0888   9.8886988686e+01   5.0729073158e+01    0.2713636    0.2039471  35.79 0.0006606801    1.344    0.256
       326 -11.2132     24.0098    108.9946   9.9906911998e+01   5.2179158845e+01    0.6927232    0.2804173 -87.74  0.002657666    2.664    0.625
       327 -11.8912     27.0122    106.5239   9.8465480448e+01   5.2532312979e+01    0.5562032    0.2692078  69.15  0.002044045    2.338    0.572
       328 -10.3948      7.3713    114.8797   1.0659218014e+02   5.2023125504e+01    0.2236629    0.1564924  47.97 0.0005603085    1.316    0.240
       329 -12.2494      2.4524    111.9697   1.0819322865e+02   5.3087380276e+01    0.4485931    0.2174611  89.67 0.0005928188    1.820    0.451
       330 -11.3887      4.3317    105.0957   1.0705729084e+02   5.4724131311e+01    0.3861674    0.2841786  39.13  0.001954751    1.355    0.262
       331 -10.1019     93.9646    112.6741   7.6191482998e+01   4.1031480309e+01    0.2181745    0.1887417  56.77  0.000693227    1.099    0.090
       332 -11.2481    250.7511    108.7504   4.4380947860e+01   1.0567242515e+01    0.5057254    0.1117912 -29.33  0.001806963    3.853    0.740
       333 -11.9739    247.4765    107.5117   4.4499787683e+01   1.1242812587e+01    0.2854673    0.2054565 -42.64 0.0008781453    1.413    0.293
       334 -11.1654    170.5091    110.4108   5.6767410407e+01   2.5407760898e+01    0.3337603    0.2687541 -31.43   0.00100296    1.229    0.186
       335 -10.1729     48.6374    112.1889   9.1249119132e+01   4.8566171296e+01    0.2064669    0.1683205  60.71  0.001003005    1.144    0.126
       336 -10.6815    211.9197    110.3057   4.9766306380e+01   1.7109123145e+01    0.3419032    0.2523046  81.63  0.001839304    2.063    0.515
