#   1 NUMBER                 Running object number                                     
#   2 MAG_AUTO               Kron-like elliptical aperture magnitude                    [mag]
#   3 X_IMAGE                Object position along x                                    [pixel]
#   4 Y_IMAGE                Object position along y                                    [pixel]
#   5 X_WORLD                Barycenter position along world x axis                     [deg]
#   6 Y_WORLD                Barycenter position along world y axis                     [deg]
#   7 A_WORLD                Profile RMS along major axis (world units)                 [deg]
#   8 B_WORLD                Profile RMS along minor axis (world units)                 [deg]
#   9 THETA_WORLD            Position angle (CCW/world-x)                               [deg]
#  10 FWHM_WORLD             FWHM assuming a gaussian core                              [deg]
#  11 ELONGATION             A_IMAGE/B_IMAGE                                           
#  12 ELLIPTICITY            1 - B_IMAGE/A_IMAGE                                       
         1 -13.3213      4.5071     66.5158   9.6313012463e+01   6.5272665596e+01     1.603783    0.6981825  89.94  0.006012231    2.315    0.568
         2 -11.1662     27.7225     51.1748   7.8680879087e+01   6.7445113133e+01     1.572247    0.8283403  80.16  0.005285726    3.859    0.741
         3 -12.3361    132.7652     19.0632   2.6167764144e+01   4.9614103131e+01    0.3784164    0.2815638  47.94 0.0004113816    1.529    0.346
         4 -11.3286     77.2192     10.0214   3.2964914559e+01   6.5415383176e+01    0.5904554    0.2897405  57.18  0.001966466    1.851    0.460
         5  -9.8620     72.6835     10.3151   3.4475917585e+01   6.6531535976e+01    0.2061788    0.1583646  38.68  0.001076785    1.363    0.266
         6 -11.2332     71.4426     14.7024   3.7480892383e+01   6.6307907939e+01    0.5830359    0.3191006 -56.96  0.002393766    2.417    0.586
         7 -11.8206     31.5034     13.4807   5.6777032799e+01   7.5135252743e+01    0.4261209    0.3771244 -78.84 0.0005831286    1.438    0.305
         8 -12.1851    238.1264     17.6551   1.6945473092e+01   2.5120962770e+01    0.2402495    0.1610685 -42.92 0.0002844967    1.106    0.096
         9 -10.6826     19.0157     15.8472   6.8682866412e+01   7.6600673943e+01    0.3488818    0.2750716   2.30  0.001232061    1.353    0.261
        10 -12.2228      9.4118      8.0278   7.2955900224e+01   7.9310233557e+01    0.7076304    0.4058024   0.65 0.0008777705    2.311    0.567
        11 -10.8897     10.9207      3.0188   6.7182723609e+01   8.0107422140e+01    0.3621696    0.2545695  28.27 0.0009679819    1.430    0.300
        12 -10.9333     11.1493     14.5445   7.5438321434e+01   7.7779226249e+01    0.3567303    0.1981731 -26.35  0.001323078    2.160    0.537
        13 -10.3768     15.1585     13.6345   7.0837193669e+01   7.7528455698e+01    0.1838084    0.1650506 -28.66 0.0002868816    1.025    0.024
        14 -11.6633      3.4874     16.2245   8.4433262035e+01   7.8046525062e+01    0.4230976    0.2584544  55.46  0.001944479    2.184    0.542
        15 -11.4252    106.0060     12.2285   2.7584200333e+01   5.7583400366e+01    0.4668579    0.2584512  44.22 0.0009142696    2.066    0.516
        16 -11.2329     59.9715     13.6656   4.1108431472e+01   6.9203884102e+01    0.5277588    0.2623762  49.30  0.002298139    1.913    0.477
        17 -10.7560    194.4031     16.8635   1.9297426716e+01   3.4380071742e+01    0.2494043    0.2111778 -68.95 0.0009079185    1.103    0.093
        18 -11.4613    155.1033      9.2892   2.0099665435e+01   4.4796646967e+01    0.3699709    0.2222426 -49.57 0.0009462969    1.463    0.316
        19 -11.3979    129.6971     11.7802   2.3756786283e+01   5.1243892114e+01    0.5323664    0.1833874 -42.12  0.001970668    2.572    0.611
        20 -10.1670     99.2837     12.7150   2.9106629484e+01   5.9333377590e+01    0.3232872    0.1899115 -34.90  0.001140724    1.697    0.411
        21 -11.6578    176.3168     11.0203   1.8916523454e+01   3.9289983168e+01    0.3087944    0.2246542  85.70 0.0007644012    1.342    0.255
        22 -10.6809    165.0231     11.7004   2.0024643805e+01   4.2017965177e+01    0.1993942    0.1634669 -72.48 0.0006977776    1.070    0.066
        23 -10.0339    138.4917     11.5072   2.2579638790e+01   4.8922447280e+01    0.2609143    0.1013753 -38.43  0.001027669    2.240    0.553
        24 -11.8812    145.6267      7.8681   2.0494896636e+01   4.7406760671e+01    0.5513204    0.3243123 -24.73  0.002644529    1.768    0.435
        25 -10.7171    149.5423      3.9303   1.8747545330e+01   4.6762549966e+01    0.4284573     0.129691 -46.52  0.001564014    2.778    0.640
        26 -10.2057    241.4499      9.0702   1.4853842012e+01   2.5388554116e+01    0.1683666    0.1253421 -56.77 0.0003993566    1.107    0.096
        27 -11.1044    213.6514      6.7771   1.5519560022e+01   3.1193289850e+01    0.3465647    0.2077398 -13.65  0.001840119    2.097    0.523
        28 -10.9394     36.7675      7.5570   4.8585203446e+01   7.5095468518e+01     0.365353    0.2490299  65.78 0.0009427702    1.856    0.461
        29  -9.8334    118.2773      7.6610   2.3601029585e+01   5.4738531650e+01     0.153243   0.09381206 -57.76 0.0003107202    1.616    0.381
        30  -9.5858     91.8224      7.1424   2.7846116807e+01   6.1905196952e+01    0.1891766    0.1520123  49.45 0.0003653252    1.267    0.210
        31 -11.5243    230.6124      5.7003   1.4516035902e+01   2.7820962815e+01    0.3394727    0.1786797 -80.69  0.001057757    1.912    0.477
        32 -10.2207    222.9998      5.3524   1.4748028192e+01   2.9387078679e+01     0.224401    0.1461474 -22.43  0.001234941    1.612    0.380
        33 -10.3227    171.5987      4.7707   1.7348116408e+01   4.1080158506e+01    0.1978626   0.09914054 -40.55 0.0005584699    1.662    0.398
        34 -10.9065    168.1227      1.9486   1.6703028845e+01   4.2211772938e+01    0.2310325    0.1681314 -74.31 0.0003022554    1.202    0.168
        35 -10.9257    164.4365      4.7961   1.7861095468e+01   4.2863451024e+01    0.2697309    0.1669658 -60.73 0.0006003098    1.412    0.292
        36 -11.2167    178.8316      3.8256   1.6595269746e+01   3.9406018835e+01    0.2392073     0.181357 -67.02 0.0002498894    1.112    0.101
        37 -10.7503    126.0929      3.0540   2.0708198814e+01   5.3061976038e+01    0.2364115    0.2042308 -26.95 0.0008786088    1.264    0.209
        38  -9.7777    106.1703      4.0149   2.3741801668e+01   5.8353352388e+01    0.1828041    0.1655225  85.49            0    1.031    0.030
        39  -9.4383     75.6410      3.6956   2.9661387056e+01   6.6476086278e+01    0.1947415    0.1442096   9.06 0.0009754918    1.616    0.381
        40  -9.5970     73.4700      1.5144   2.8892160196e+01   6.7236641692e+01    0.1376773    0.1274445  63.98 0.0001522847    1.018    0.018
        41 -11.8872     27.5138      3.1807   5.1358529801e+01   7.7500051224e+01     0.283111    0.2595781 -76.23 0.0009306115    1.388    0.279
        42 -10.2617     34.6408      1.4288   4.4745994839e+01   7.6359307922e+01    0.4766476     0.132738  56.81  0.001555315    4.131    0.758
        43 -10.1044     22.4617      1.4984   5.3970034161e+01   7.8646263912e+01    0.2136856    0.1112139  32.86 0.0008631721    2.086    0.521
        44  -9.9544     91.0393      2.1750   2.5398911837e+01   6.2577665260e+01    0.1974526    0.1732392  43.90 0.0003135773    1.203    0.169
        45  -9.3988    183.5070      1.4550   1.5628794462e+01   3.8513844693e+01    0.1299466    0.1111363 -62.21 0.0001078592    1.080    0.074
        46 -10.4761    201.8300      3.5731   1.5262914451e+01   3.4088164061e+01     0.279794    0.1571481  56.97 0.0009543589    2.250    0.556
        47 -11.4328     21.2436    156.7867   9.7673049018e+01   3.9515148406e+01    0.4214592    0.3234478  -8.96   0.00182344    1.773    0.436
        48 -10.1119    109.9868    249.7382   8.3471166392e+01   1.0078006574e+01    0.1670647    0.1168961  30.42 0.0007667469    1.079    0.073
        49 -12.5511      7.2589    245.6266   1.0449156872e+02   2.1574172619e+01    0.6500023    0.2936969  54.58  0.004007057    1.603    0.376
        50 -12.0193     14.4248    244.7399   1.0299625339e+02   2.1095930019e+01    0.3012823    0.1923477  72.38  0.001485016    1.483    0.326
        51 -12.0314     22.6806    248.6987   1.0140265910e+02   1.9641519510e+01    0.3793963     0.171205  35.96  0.001248667    1.525    0.344
        52 -11.0269     17.7099    247.2180   1.0238284113e+02   2.0360204652e+01    0.2406112    0.1311488  24.13 0.0009614071    1.703    0.413
        53  -9.9649    216.4535    154.5070   4.9418410955e+01   1.0321222461e+01    0.1213834   0.09957521 -16.62 2.316893e-05    1.006    0.006
        54 -10.7539     10.9347    153.0063   1.0063397722e+02   4.1376783656e+01    0.3360201    0.1937351  25.35  0.001380801    1.740    0.425
        55  -9.7892     21.0215    147.9996   9.7147084508e+01   4.1802084566e+01    0.1686129    0.1412354  69.38 0.0003546909    1.015    0.015
        56 -10.8634      7.4744    145.6755   1.0136632093e+02   4.3537777439e+01    0.3040103    0.1661559  25.56  0.001488471    1.825    0.452
        57 -10.9321    236.3116    152.4919   4.6147829522e+01   7.8416875904e+00    0.2146433   0.08671141 -34.08  0.001084787    2.037    0.509
        58 -10.0280    187.5471    144.0800   5.2157259939e+01   1.6445402793e+01    0.1886132    0.1653932  19.49 0.0004400502    1.164    0.141
        59 -10.5339     13.8253    140.1592   9.8977768153e+01   4.4488449002e+01    0.1805017    0.1573339 -58.44 0.0003537945    1.319    0.242
        60 -10.5660      9.4162    136.7756   1.0025868695e+02   4.5731577522e+01     0.316234    0.1171652 -79.34  0.001064635    2.430    0.588
        61  -9.1837    143.7435    137.3254   5.9605333455e+01   2.5538738151e+01    0.1383291    0.1131664 -83.01 0.0002832451    1.551    0.355
        62 -11.2632      2.8844    135.3266   1.0240160569e+02   4.6577629582e+01    0.4161358    0.1503799 -80.30  0.001655876    2.462    0.594
        63 -12.7454    241.9008    133.5921   4.1811739615e+01   9.6065112414e+00    0.3371741    0.2208265 -12.59   0.00127918    1.552    0.356
        64 -10.3171     21.0291    134.6817   9.6127368962e+01   4.5333051587e+01    0.3311235    0.1610694  64.28  0.001017633    2.005    0.501
        65 -11.7098     36.5796    131.2552   9.0346783649e+01   4.4691549896e+01    0.4737414    0.2595444 -59.01 0.0009017662    1.840    0.457
        66 -10.8548     54.2199    132.4600   8.4396339894e+01   4.2183922547e+01    0.5072451    0.1525119  27.12  0.001372462    3.626    0.724
        67 -10.7473     73.6783    128.8579   7.7293239217e+01   4.0250176284e+01    0.3132359    0.2867765  63.81  0.001180465    1.030    0.029
        68 -10.0129     22.2260    125.9600   9.4933544228e+01   4.7590783914e+01    0.2002313    0.1658725  82.27 0.0003413234    1.066    0.062
        69 -11.4998     10.7217    122.3036   9.8872221555e+01   4.9533998974e+01    0.3876221    0.2530873  69.64  0.001436814    1.373    0.272
        70  -9.5956     17.6566    125.6819   9.6578419887e+01   4.8066556227e+01    0.1556493      0.12544  68.06 0.0005553067    1.090    0.082
        71 -10.8232     14.2019    125.5779   9.7831960194e+01   4.8376705470e+01    0.2619736    0.2308367  -1.42   0.00116612    1.394    0.283
        72 -10.4339    219.3322    124.3166   4.2965248506e+01   1.4318978509e+01    0.1947367    0.1026479 -16.28 0.0008447843    2.687    0.628
        73 -11.7682    243.8219    121.9625   3.9282033885e+01   1.0894649795e+01    0.1855403    0.1342676 -17.66 0.0009301337    1.257    0.205
        74 -10.9672     19.9364    120.9371   9.5308617883e+01   4.9171627455e+01    0.3514702    0.1942673 -74.97  0.001354653    1.653    0.395
        75 -10.3500      4.9647    122.5082   1.0101655567e+02   4.9875567362e+01    0.1836938    0.1346035  23.40 0.0003457552    1.479    0.324
        76 -10.1844     56.1613    126.8261   8.2857312149e+01   4.3425347985e+01    0.2299247    0.1722472  -5.57 0.0009291091    1.890    0.471
        77 -11.3593     24.4585    118.2239   9.3313686177e+01   4.9511550181e+01     0.412471    0.2724008 -89.52   0.00123376    1.405    0.288
        78 -11.2062     31.1904    116.9694   9.0580517307e+01   4.9191434425e+01    0.4142754    0.2185786  -0.89  0.001523761    3.197    0.687
        79 -12.5394    248.6397    112.1004   3.6741321374e+01   1.1505903586e+01    0.3703993    0.2670667  23.54  0.001802382    1.768    0.434
        80 -11.1426     52.1844    114.9338   8.2285000407e+01   4.7200246094e+01    0.4998444    0.2403929 -79.77  0.001206297    2.431    0.589
        81 -12.4046     24.2840    106.4359   9.1995150554e+01   5.2801576105e+01    0.9307595    0.4907901 -21.75  0.003482423    3.166    0.684
        82 -12.0217     14.5678    110.2014   9.6387504549e+01   5.2576591922e+01    0.4731145    0.3387292  75.56  0.001972654    1.271    0.213
        83 -10.9763    182.6446    114.2555   4.6508736214e+01   2.2436374095e+01    0.2442272    0.2205146 -13.46 0.0006272187    1.132    0.117
        84 -11.7868    249.8384    117.9396   3.7774280972e+01   1.0560846112e+01    0.3100424    0.1639748 -34.47  0.001278403    1.452    0.311
        85  -9.9480     94.5308    112.0334   6.7010080001e+01   4.0847337687e+01    0.2395009     0.151548 -55.02 0.0006325037    1.567    0.362
        86 -11.2328     54.9448    109.6219   8.0260812129e+01   4.8257232403e+01    0.3565831    0.2605819 -82.90 0.0005121536    1.370    0.270
        87 -10.8244     56.3120    104.9762   7.8804344165e+01   4.9318867002e+01    0.3161988    0.2172937  -4.09  0.001279123    2.292    0.564
        88 -11.4993      2.3970    107.1991   1.0109439063e+02   5.4209862821e+01    0.5175151    0.2496109 -74.24  0.002316383    1.830    0.453
        89 -10.5952      1.4046    118.6004   1.0212997016e+02   5.1154383517e+01    0.2537041    0.1179142 -84.13  0.000283788    1.893    0.472
        90  -9.7693    111.8388    105.8531   6.0289163968e+01   3.8835907768e+01    0.2036371    0.1724042  75.93 0.0009941113    1.255    0.203
        91 -11.3366     15.9551    115.0907   9.6291022481e+01   5.1115135010e+01    0.3175262    0.2859571 -51.93 0.0004602719    1.253    0.202
        92 -10.2695     37.4199    101.9982   8.5858531444e+01   5.2659264201e+01    0.4474979    0.2324694  63.24    0.0017362    2.279    0.561
        93 -10.1311     34.3808     97.4303   8.6361218869e+01   5.4276964404e+01     0.360493    0.1856828 -55.01  0.001140476    1.886    0.470
        94 -11.4302     62.3417     98.9669   7.5136085859e+01   4.9999594149e+01    0.4518372     0.355438 -28.96  0.001374545    1.607    0.378
        95 -11.0598     21.4490     98.5758   9.2180120094e+01   5.5250444180e+01    0.2980328    0.2177632 -76.94 0.0008518338    1.242    0.195
        96  -9.1838    144.4963     99.4872   5.0339055601e+01   3.3130906777e+01    0.1519525    0.1424904 -63.98 0.0008104077    1.026    0.025
        97  -9.8707      9.6841     99.0357   9.7382729311e+01   5.6023473575e+01    0.1986338    0.1553437  86.54 0.0003549024    1.130    0.115
        98 -11.6411    249.6657     91.5077   3.2398778339e+01   1.4065927086e+01    0.2908616   0.09892693 -29.00  0.001247603    2.636    0.621
        99 -10.7469    241.5723     96.2621   3.4244045674e+01   1.4716611887e+01    0.1749153   0.09735388 -26.02 0.0009533355    1.612    0.380
       100  -9.7989    104.6946     95.0328   5.9437941219e+01   4.2872418018e+01     0.218313    0.2036493 -72.40 0.0003604105    1.031    0.030
       101 -10.6175    227.2841     93.0807   3.5165912070e+01   1.7545931884e+01    0.1932368    0.1766014 -65.88 0.0003078922    1.252    0.201
       102 -10.2037      1.4894     92.9336   1.0051124497e+02   5.8182800775e+01    0.2143825    0.1216701 -83.58 0.0005564136    1.540    0.351
       103 -10.4636    159.4878     89.6995   4.4575001121e+01   3.1690200020e+01    0.3665392     0.168045  42.50  0.001358942    2.706    0.630
       104 -10.7346     83.7193     89.2757   6.4623209385e+01   4.8622771292e+01    0.3756032    0.2891469  59.51  0.001756214    1.341    0.254
       105  -9.8814     56.4977     90.5471   7.5454649198e+01   5.3180643454e+01    0.1536802    0.1452632 -81.97 8.646772e-06    1.035    0.033
       106  -9.7657     10.6898     90.6093   9.6065060152e+01   5.8297257233e+01    0.1802218    0.1267186  35.50 0.0007391458    1.463    0.316
       107 -10.4609     65.5208     87.2058   7.0892989223e+01   5.2564525747e+01     0.334484    0.2498153 -78.94 0.0009842176    1.429    0.300
       108  -9.6020     68.5752     82.4798   6.8324768319e+01   5.3231447714e+01    0.2547632    0.1861806 -18.38  0.001075173    2.047    0.512
       109  -9.4247     47.5140     88.4001   7.8772998378e+01   5.5097645125e+01    0.1504455    0.1413296  86.98 8.270872e-05    1.021    0.020
       110 -10.0096     38.8271     86.9331   8.2336847025e+01   5.6650545142e+01    0.3602239    0.1763564 -59.45 0.0008190704    1.868    0.465
       111 -10.4781     41.3255     96.8961   8.3274785316e+01   5.3597601103e+01    0.2667664    0.1915077  61.52  0.001008263    1.427    0.299
       112 -10.9051     22.1026     86.9674   9.0182186614e+01   5.8426237502e+01    0.2277589     0.201438 -86.76  0.001003334    1.021    0.021
       113  -9.9922     54.0334     85.9804   7.5341988562e+01   5.4782338941e+01    0.2162666    0.2057467 -82.41  0.001162777    1.035    0.034
       114 -10.2634     10.2330     86.3242   9.5792220591e+01   5.9515508849e+01    0.2962474    0.1173552  43.14  0.001161086    2.485    0.598
       115 -10.1214    107.1199     84.6643   5.5660115829e+01   4.4711486698e+01    0.2127954    0.1923507  56.39 0.0003294589    1.123    0.109
       116 -11.4952    247.0395     84.3189   3.1140174472e+01   1.5425948528e+01    0.1639146    0.1358155 -39.78 0.0006651349    1.096    0.087
       117 -11.3447     30.5781     81.6565   8.5117383777e+01   5.9057642087e+01    0.3303789    0.2831888 -52.96 0.0007156688    1.178    0.151
       118  -9.9522     15.9037     83.2616   9.2620701006e+01   5.9966104033e+01    0.2208897    0.1765359  64.40 0.0005867305    1.231    0.188
       119 -10.2991     75.2742     82.0994   6.5595851302e+01   5.2063795830e+01    0.3209654    0.2325471  49.40  0.001470516    1.392    0.282
       120  -9.2140     62.2974     82.3171   7.0840058625e+01   5.4389877803e+01    0.1543474    0.1210765 -26.95 0.0003228787    1.611    0.379
       121  -9.9284     42.3997     82.2300   7.9610865879e+01   5.7469782026e+01    0.2086886    0.1383599 -81.27 0.0004009219    1.590    0.371
       122 -10.7904      7.3227     81.0908   9.6616124931e+01   6.1139293431e+01    0.3524983     0.203997 -45.49  0.001300809    1.812    0.448
       123 -10.1362      2.9901     78.5859   9.8544295770e+01   6.2056482080e+01    0.3191931    0.1446875 -70.95    0.0013496    1.885    0.469
       124 -11.2236    111.8804     78.2656   5.2281078786e+01   4.5021732998e+01    0.2674537    0.2568089  -7.34 0.0003580386    1.212    0.175
       125 -10.3439     88.0935     77.4856   5.9470941017e+01   5.0553983800e+01    0.2558842    0.2051009 -66.22 -0.0001524905    1.265    0.209
       126 -10.6579     99.8886     76.5859   5.5291384248e+01   4.8152007303e+01    0.2916724    0.2208275 -56.97 0.0003376313    1.308    0.236
       127 -11.3592     44.8930     75.0080   7.6564237686e+01   5.9055292118e+01    0.3961603    0.2673959  65.56 0.0006129737    1.745    0.427
       128 -12.6523     12.4091     47.5781   8.7681243339e+01   6.9815071334e+01    0.9163414    0.4013356 -74.67  0.001489791    2.244    0.554
       129 -10.2934    224.2536    248.4961   6.3036310401e+01  -2.1866514985e+00    0.1737008   0.07369106 -45.24  0.000897866    4.538    0.780
       130 -12.2271      4.5838     47.7099   9.3167839046e+01   7.0263517027e+01     1.231754    0.3591555 -63.13  0.004663325    2.616    0.618
       131 -14.4383     16.7283     67.4941   8.9506143037e+01   6.4223804554e+01    0.7368157    0.5191107 -84.23  0.001293887    1.361    0.265
       132 -11.0512     10.9922     61.9571   9.1779187711e+01   6.6130415333e+01    0.3038357    0.2522275 -82.28 0.0003301936    1.114    0.102
       133 -11.6806    167.7463     73.4318   3.8561250237e+01   3.2698536569e+01    0.2614636    0.2213397 -52.47 0.0002847957    1.067    0.063
       134 -12.1965     50.2691     68.3878   7.2014494213e+01   5.9961939541e+01     0.522347    0.3116931 -70.15  0.000571168    1.847    0.459
       135  -9.0870     61.6936     73.3091   6.8374657092e+01   5.6790263103e+01    0.1583425    0.1178796  77.57 0.0002477866    1.613    0.380
       136 -10.8986     54.0064     72.0048   7.1395669947e+01   5.8436477216e+01    0.2957326    0.2194182 -68.29  -0.01509786    1.345    0.257
       137  -9.7614     77.7931     69.5924   6.0557636441e+01   5.4574585368e+01    0.2033901    0.1463885  57.17 0.0001899539    1.453    0.312
       138 -10.8127    122.8824     67.3818   4.5800960241e+01   4.4603257474e+01    0.2905155    0.2152275 -46.62 0.0005625749    1.301    0.231
       139  -9.4392     42.9687     67.4771   7.5332514727e+01   6.1299198192e+01    0.2123864    0.1119958  54.66 0.0008073148    2.363    0.577
       140  -9.9861    139.7547     66.1091   4.1567237655e+01   4.0680451290e+01    0.2605818    0.1999117  75.89  0.001195789    1.375    0.273
       141 -11.8004    156.0179     63.4466   3.7633488357e+01   3.7160399759e+01    0.2707069    0.2404623 -56.60 0.0003239863    1.022    0.022
       142  -9.3702    106.2470     63.9966   4.9053875744e+01   4.9336794619e+01    0.1935011    0.1312573 -44.23            0    1.453    0.312
       143 -11.0482     32.1301     64.0000   8.0039952422e+01   6.3629943163e+01    0.3724744     0.206319  26.31  0.001090122    1.934    0.483
       144 -11.1313     28.4706     60.7683   8.1184778136e+01   6.4898297878e+01    0.6291346    0.3364313  16.42  0.002344716    2.255    0.557
       145 -10.5476    202.1235     62.3799   3.0765942849e+01   2.6813169847e+01    0.2179594    0.1617867 -29.64  0.001218557    1.291    0.226
       146  -9.5817    168.8587     62.7816   3.5323820831e+01   3.4195235520e+01    0.1935234    0.1485365 -63.15 0.0002253155    1.268    0.211
       147 -10.9929     76.7393     62.2655   5.8309606168e+01   5.6473159774e+01    0.2611271    0.2532146   4.92 0.0001875657    1.160    0.138
       148 -10.2853    115.3444     59.7485   4.5052601509e+01   4.7932889437e+01    0.3721072    0.2567142  26.83  0.001192536    2.175    0.540
       149 -10.0432    115.7944     56.3327   4.3702384434e+01   4.8458326545e+01    0.2287696    0.1978434 -87.80 0.0002898341    1.153    0.133
       150 -10.9834     46.3899     60.2554   7.1232121918e+01   6.2617809308e+01    0.3845507    0.2868595 -46.96 0.0008140767    1.331    0.249
       151  -9.5979     46.4907     55.4308   6.9432614637e+01   6.3783404594e+01    0.2288958    0.1796973 -28.86 0.0005443385    1.467    0.318
       152  -9.6926    137.7664     59.6537   3.9874101853e+01   4.2322079333e+01    0.2849079     0.163266 -54.77  0.001067565    1.826    0.452
       153 -10.4568     98.1942     60.0388   5.0006266058e+01   5.2075221465e+01    0.2591103    0.2151489  58.28 0.0006718105    1.201    0.167
       154  -9.0385     93.3054     60.3205   5.1665784605e+01   5.3175709059e+01    0.1531888    0.1275773   5.74 0.0003216469    1.635    0.388
       155  -9.8289    127.0610     58.7289   4.1862128477e+01   4.5180786950e+01    0.2079921    0.1873647  78.63  0.000214594    1.094    0.086
       156 -10.9209     58.4276     58.7491   6.4775431487e+01   6.0929070450e+01    0.4026691    0.2850341  37.11  0.001428225    1.479    0.324
       157  -9.5416    120.1799     60.5942   4.4136465364e+01   4.6566586726e+01     0.227731    0.1411803  47.20 0.0009560985    1.744    0.426
       158 -10.2315     80.8848     55.8234   5.4233363298e+01   5.6968584952e+01    0.4546989    0.3051915  -5.62  0.001638002    3.086    0.676
       159 -11.2357     74.7300     56.2334   5.6756650405e+01   5.8233737277e+01    0.2595778    0.2437077  -0.17 0.0005437476    1.227    0.185
       160  -9.5363     72.2819    250.3599   9.1205061840e+01   1.4265234320e+01    0.1020061   0.08124085  -7.11 0.0007016407    1.672    0.402
       161 -12.7948     37.9234     50.1097   7.2146150780e+01   6.6379042727e+01    0.7845207    0.6256204 -46.11  0.004161755    1.223    0.183
       162 -11.1153     24.3071     41.9979   7.7634285618e+01   7.0105820124e+01    0.7696035    0.2794772  28.28  0.002932975    2.802    0.643
       163 -13.1984     27.0160     37.1633   7.3773353979e+01   7.0931422315e+01    0.5513586    0.3996556  58.69  0.001392828    1.690    0.408
       164  -9.9905     62.0000     52.9172   6.0816659766e+01   6.1587883436e+01    0.2433517   0.08433196 -49.12 0.0004568379    2.837    0.648
       165  -9.6371    155.2045     52.6218   3.4405598001e+01   3.9121600779e+01    0.2014265     0.133866  56.11 0.0009419933    1.607    0.378
       166 -10.9236    128.5457     50.5085   3.8643762868e+01   4.6233824108e+01    0.3654853    0.2900328 -19.63 0.0007328326    1.513    0.339
       167 -11.3415    132.4617     49.4787   3.7470023466e+01   4.5397540252e+01    0.6018987    0.3306442 -70.87  0.001776614    2.663    0.624
       168  -9.8045     78.8476     50.9158   5.2979701071e+01   5.8444459457e+01    0.2183343    0.1758935 -71.16  0.001056569    1.362    0.266
       169  -9.5716     56.7594     50.5438   6.2285618749e+01   6.3127434255e+01    0.2947223    0.1749239 -70.03  0.001143185    2.413    0.586
       170 -11.5383     51.6741     46.5671   6.3113466824e+01   6.4956089756e+01    0.4873095    0.3296749 -63.35  0.001683486    1.643    0.391
       171 -11.3133     34.9150     42.3829   7.0822955490e+01   6.8647185332e+01    0.7089881    0.3663862 -23.56  0.002267078    4.258    0.765
       172 -11.5205     44.5625     43.2691   6.5479475125e+01   6.6936596985e+01    0.3904784    0.2875468 -79.08  0.001076673    1.738    0.425
       173 -11.4786     44.8333     38.1313   6.2914622344e+01   6.8015901369e+01    0.2408558    0.2318208 -64.13            0    1.058    0.055
       174 -10.4259     82.8830     47.4901   5.0043346198e+01   5.8198275005e+01    0.2923005    0.2073306 -61.34  0.001327477    1.565    0.361
       175 -10.5785     69.0752     48.0377   5.5633496817e+01   6.1186995674e+01    0.2167664    0.2142168  84.42  0.000355911    1.033    0.032
       176  -9.1023     78.3465     47.2910   5.1615716617e+01   5.9286283454e+01    0.1523323    0.1219009  15.19 0.0002494139    1.662    0.398
       177  -9.4499    143.2133     45.9460   3.4231750106e+01   4.3194780572e+01    0.1950733    0.1148009 -36.64 0.0006050722    1.619    0.382
       178  -9.8165    120.3806     45.7647   3.8678414135e+01   4.9133078003e+01    0.2565676    0.1713345  43.44 0.0007198197    1.742    0.426
       179 -10.5922    112.4929     45.4086   4.0390565805e+01   5.1231798470e+01    0.2609817    0.2544835  60.52 0.0005686193    1.126    0.112
       180  -9.5736    104.4769     46.4544   4.2877002495e+01   5.3100968562e+01    0.1539239    0.1452729 -85.27 0.0001008851    1.012    0.012
       181 -10.7587     96.3568     42.3746   4.3476111289e+01   5.5863821300e+01    0.3176509    0.2421738  23.65 0.0008629194    1.762    0.432
       182 -11.0955     72.3771     42.4492   5.1756984116e+01   6.1585174099e+01    0.3759577    0.2991673 -65.14  0.000660142    1.375    0.273
       183 -10.7987     67.0239     42.2638   5.3890109361e+01   6.2800375037e+01    0.3380433    0.2112076 -42.93 0.0009102101    1.604    0.377
       184 -11.1829     89.2604     41.4466   4.5246044452e+01   5.7789888215e+01     0.268781    0.2580064  49.96   0.00146473    1.101    0.092
       185 -10.6849     82.7660     36.4020   4.5079546178e+01   6.0257969141e+01    0.4997422     0.351046   0.35  0.002118138    2.275    0.560
       186 -10.0135    236.0226     39.7257   2.2143598392e+01   2.3014371027e+01    0.1639555    0.1330794 -50.67 0.0003809313    1.083    0.077
       187 -10.9069     53.8748     36.8493   5.7396323777e+01   6.6599757366e+01    0.3785201    0.2669945 -64.91  0.001199006    1.722    0.419
       188 -12.0414     57.6492     34.1699   5.4151375710e+01   6.6361041035e+01    0.3365215    0.2842434 -39.71 0.0004081755    1.191    0.161
       189  -9.7395    159.2912     38.3522   2.9237467952e+01   4.0211893734e+01    0.1877571    0.1301757  86.55 0.0006062163    1.481    0.325
       190  -9.4143    148.0050     38.7603   3.1003905095e+01   4.3031058402e+01    0.1827567    0.1207937  71.98 0.0003195068    1.517    0.341
       191 -10.5394    193.6645     35.5901   2.4523284685e+01   3.2320425487e+01    0.4172977    0.1496329 -45.86  0.001117195    2.273    0.560
       192 -12.0102     75.2251     34.8843   4.7035534834e+01   6.2324845118e+01    0.5076012    0.4064486   1.65  0.001021652    1.638    0.390
       193 -11.0697     79.3521     28.5401   4.2383134913e+01   6.2384633455e+01    0.3557491    0.2636347 -18.46 0.0001140982    1.603    0.376
       194  -9.8102     71.5590     28.5639   4.5195510122e+01   6.4257455881e+01    0.2048911    0.1337815 -46.25 7.069633e-05    1.582    0.368
       195 -10.0186      1.6197     37.0077   9.3079536561e+01   7.3140750389e+01    0.1936672    0.1479383 -64.64  0.001044821    1.157    0.136
       196 -10.2912    248.1235     36.1621   2.0554396000e+01   2.1217613052e+01    0.1662641    0.1361321 -34.25 0.0004647209    1.204    0.170
       197  -9.9089    128.5256     35.9367   3.3291160247e+01   4.8527198598e+01    0.2181926    0.1430133 -35.86 8.370476e-05    1.501    0.334
       198 -11.5438    111.3540     34.7627   3.6365821592e+01   5.3232817928e+01    0.3022667    0.2645767 -68.03 0.0006161067    1.097    0.088
       199 -10.0111    130.5217     41.0154   3.4803990506e+01   4.7244465684e+01    0.2283141    0.1468162 -32.87  0.001024446    1.579    0.367
       200  -9.6323    135.0364     35.0045   3.1783320811e+01   4.6945371221e+01    0.2546652      0.15815 -63.89  0.001116443    1.715    0.417
       201 -11.5003      8.1741     31.8382   8.6206289254e+01   7.4057057774e+01    0.4766319    0.2853312 -87.68  0.001642428    1.972    0.493
       202 -10.1564    177.8302     33.7759   2.5590160764e+01   3.6255587191e+01    0.2416775    0.1827518 -21.32  0.001293326    1.482    0.325
       203  -9.8636    140.1554     33.8234   3.0513359843e+01   4.5766643081e+01     0.184685     0.168314  49.95 0.0002309491    1.260    0.206
       204 -10.1886     13.8842     34.1570   8.2359281492e+01   7.3050497047e+01    0.2041114    0.1882235 -51.86 0.0005872257    1.018    0.017
       205 -11.0594     18.1220     31.0305   7.7700329513e+01   7.3387606263e+01    0.3834109    0.2826906  21.09  0.001567852    1.427    0.299
       206 -12.5535    105.0748     52.4725   4.5091919644e+01   5.1862038075e+01    0.3153824    0.2940903 -65.00   0.00031355    1.040    0.039
       207 -10.7520    221.5829     31.7106   2.1247464691e+01   2.6791856386e+01    0.2152367    0.1578013 -45.24 0.0001943917    1.061    0.058
       208 -10.2453    207.1851     31.1582   2.2175317977e+01   2.9874067514e+01    0.2488609    0.1543064  -2.79  0.001150599    2.670    0.625
       209 -10.8553     49.3757     29.1863   5.5672362709e+01   6.8977039682e+01    0.3771036    0.2180098 -40.59  0.001085779    1.741    0.426
       210  -9.9992      1.4545     30.9775   9.1706462773e+01   7.4651313234e+01    0.1896311    0.1155249 -69.95 0.0003856853    1.476    0.322
       211 -10.7865    101.5040     28.7090   3.6079494478e+01   5.6712219021e+01     0.408285    0.2453062 -60.53   0.00113544    1.935    0.483
       212 -11.1134    156.7325     28.2177   2.6264066927e+01   4.2210535721e+01    0.2462107    0.2123702 -74.23 0.0002734313    1.050    0.048
       213 -10.8536    238.1037     27.9843   1.9310652660e+01   2.3988289420e+01    0.1848211    0.1328406 -46.00 0.0003090981    1.031    0.030
       214 -11.1056    197.9014     28.0077   2.2080981168e+01   3.2300467350e+01    0.2464827    0.1751022  85.32 0.0007242949    1.462    0.316
       215 -10.9776    112.3220     26.9809   3.2888449205e+01   5.4091461243e+01    0.4118325    0.2660006 -25.81  0.001554938    1.693    0.410
       216 -10.6702    215.1274     25.2858   2.0096251244e+01   2.8875193367e+01    0.2801876    0.1992657  67.22  0.001689973    1.654    0.395
       217  -9.9353     16.3869     25.8193   7.6705904362e+01   7.4765110072e+01    0.2904854    0.1206107 -57.63  0.001231864    2.193    0.544
       218 -10.1856     16.4751     21.9914   7.4655414296e+01   7.5608553169e+01    0.2096307    0.1848948  62.18  0.001273413    1.348    0.258
       219 -10.4121     10.8174     24.2568   8.0887223173e+01   7.5652444848e+01    0.2598924    0.1903187 -31.92 0.0008851329    1.342    0.255
       220  -9.8948      6.9619     25.2154   8.4841008748e+01   7.5728657903e+01     0.266102    0.1878307  33.45  0.001158991    1.538    0.350
       221 -10.7958      2.0321     25.5404   8.9562505415e+01   7.5948222293e+01    0.2303814    0.2129723   2.51 0.0008753383    1.162    0.140
       222 -10.7055      2.4508     22.5219   8.8114960190e+01   7.6646632543e+01    0.3064936    0.2233045  -1.44  0.001056997    1.452    0.311
       223  -9.8933    162.6232     28.1805   2.5551054645e+01   4.0718674671e+01    0.1888217    0.1339941 -19.46  0.000939148    1.622    0.384
       224 -10.6630     22.5160     24.1325   7.0714496360e+01   7.4422844145e+01    0.2375166    0.1889001  11.79 0.0005602476    1.333    0.250
       225  -9.7156    226.2160     23.3763   1.8927409436e+01   2.6818820974e+01    0.1565549    0.1001144 -73.96 0.0003258241    1.540    0.351
       226  -9.9615    159.4943     23.4924   2.4385560258e+01   4.2089675652e+01      0.14308    0.1255266 -65.40 -5.95404e-06    1.027    0.026
       227 -10.0677     54.4154     23.1518   4.9550812120e+01   6.9016809252e+01    0.2451987    0.1878726  60.54 0.0006865871    1.381    0.276
       228 -11.1791     58.8895     21.0411   4.6179510137e+01   6.8377607471e+01    0.2652909    0.2062332  54.83 0.0004519332    1.264    0.209
       229  -9.6923    155.8374     21.8013   2.4235079632e+01   4.3228151322e+01    0.1989831    0.1428657 -62.54 0.0003789784    1.263    0.208
       230 -11.0238     28.4842    244.9066   1.0007191495e+02   1.9752448247e+01    0.2535849    0.1050872 -82.58  0.001384181    2.814    0.645
       231 -10.0938     93.9791     22.2748   3.4953849926e+01   5.9574070144e+01    0.2095415    0.1756664  68.77 0.0003097118    1.136    0.120
       232 -10.3386     82.8764     22.0748   3.7924459103e+01   6.2461428994e+01    0.2739459     0.209522  48.54  0.001369437    1.312    0.238
       233  -9.7569    125.2782    245.6651   8.0042401888e+01   8.8892720802e+00    0.1071412   0.07450012  49.83 0.0005228374    1.610    0.379
       234 -10.7594     72.8745    244.8640   9.0709929891e+01   1.5101132632e+01    0.2466481    0.1800963  28.99   0.00119137    1.168    0.144
       235 -11.1385     76.6794     15.7550   3.6397696733e+01   6.4867584438e+01    0.2953047    0.2391235  83.97 0.0003732454    1.285    0.222
       236 -12.5750     75.8031    238.3125   8.9617340295e+01   1.5874180294e+01    0.4805711    0.4547936 -37.02   0.00369993    1.379    0.275
       237 -11.3652     65.7364     20.4607   4.2951330850e+01   6.6891736461e+01    0.4503153    0.2543237  73.56  0.001098529    2.390    0.582
       238  -9.4948     34.5650     20.7026   5.9582459345e+01   7.3301370231e+01     0.312948    0.1881662 -69.88 0.0006318786    3.198    0.687
       239 -10.0007    181.5047     19.8782   2.1140670170e+01   3.7064631396e+01    0.1958838      0.11992 -33.44 0.0004817183    1.482    0.325
       240  -9.2279    145.3257     20.2684   2.4948771409e+01   4.6142728598e+01    0.1385886    0.1061228  44.46 0.0004983682    1.572    0.364
       241 -10.0524    207.0765     20.8918   1.9510994836e+01   3.1097925668e+01    0.2021199    0.1353767 -53.74 0.0003440358    1.205    0.170
       242 -10.8358     41.6784     19.0102   5.3876790688e+01   7.2311612638e+01    0.3198787    0.2630592  46.42  0.001007292    1.224    0.183
       243  -9.8632     24.4557     20.4716   6.6990445333e+01   7.4927956726e+01    0.2225056    0.1609266  53.95 0.0006306821    1.707    0.414
       244 -10.5794     28.2842     19.6099   6.3432731237e+01   7.4534675908e+01    0.2984521     0.216641   8.56  0.001094766    1.659    0.397
       245  -9.1237    195.0000    238.9438   6.6453182697e+01   1.8021690214e+00    0.1476044   0.05498734 -39.37 0.0007978104    2.910    0.656
       246  -9.6483    134.7750    237.9463   7.7349364695e+01   8.8803925091e+00    0.1290904   0.09406847 -45.13 0.0008806176    1.682    0.405
       247 -10.1026    108.4327     17.3309   2.9451682142e+01   5.6355841137e+01    0.2496471    0.1476752 -21.04  0.001042465    1.917    0.478
       248 -11.3022     18.1436    236.3320   1.0198201337e+02   2.2277360909e+01    0.4628557   0.08550304  44.87  0.001869238    2.743    0.635
       249 -10.8191    160.6406    235.3266   7.2073339856e+01   6.1495861198e+00    0.2277356    0.1122616  13.46 0.0009835946    2.459    0.593
       250 -11.4073     29.9056    233.9361   9.9351821006e+01   2.1598256467e+01    0.4095976    0.1341268  58.62  0.001890151    2.765    0.638
       251 -11.7606     89.4937    249.4387   8.7596026815e+01   1.2481255643e+01    0.3024651    0.1864488  26.23   0.00108661    1.336    0.251
       252  -9.7427     24.0319    232.0366   1.0056497757e+02   2.2523363725e+01     0.150528    0.1345315 -16.56  0.000530093    1.607    0.378
       253  -9.8377    151.5267    228.4956   7.2956848599e+01   8.2068086801e+00    0.1155104   0.09239797  19.43 0.0001959348    1.018    0.018
       254 -11.1047    165.0814     16.9399   2.1693731697e+01   4.1434438522e+01    0.2054487    0.1598926  41.06 0.0005122159    1.654    0.395
       255 -10.6307    103.1196     16.9902   3.0349205458e+01   5.7819642344e+01    0.2134483    0.1937478 -79.94 0.0003199823    1.036    0.035
       256 -10.4576      3.7713    226.4845   1.0485420138e+02   2.5415552105e+01    0.2418557    0.1383849 -86.90   0.00151389    1.854    0.461
       257 -10.2521    191.3145    226.6391   6.5431799677e+01   3.7016338512e+00    0.1769996    0.1549896  10.11  0.001404059    1.300    0.231
       258  -9.3925    120.3371    225.6754   7.8921410092e+01   1.2566422540e+01    0.1216731   0.07993127  52.35 0.0007051263    1.720    0.418
       259 -10.2598    159.2015     15.8738   2.1911639394e+01   4.3044695710e+01    0.2241761     0.157881 -55.88 0.0004830414    1.246    0.197
       260  -9.9717    120.3820     15.7544   2.6696426342e+01   5.3319549022e+01    0.2667277    0.1551723  51.87  0.001119256    1.816    0.449
       261  -9.9257     46.6962     16.6994   4.9442222412e+01   7.1692824533e+01    0.1382152     0.105014  13.92 0.0002427105    1.590    0.371
       262 -10.1575     50.7158     14.8251   4.6076775483e+01   7.1128499051e+01    0.2615137    0.1629125  64.18  0.001226378    1.843    0.457
       263  -9.9361    185.5373     14.2284   1.9185039604e+01   3.6732948399e+01    0.1950708    0.1483173  82.02 0.0004853047    1.346    0.257
       264  -9.8825    155.6344     13.6995   2.1536976374e+01   4.4197618029e+01    0.1811691    0.1456788  -2.83 0.0007184476    1.592    0.372
       265 -10.5249     15.4017    222.0504   1.0215369647e+02   2.5256213705e+01    0.3387063   0.08311795  33.80  0.001449045    2.508    0.601
       266 -10.0504    211.9691    218.5320   6.0844078657e+01   2.3643338162e+00    0.1667118    0.1190102 -18.84  0.001235681    1.248    0.199
       267  -9.5112    120.8156    219.3981   7.8102094660e+01   1.3541712623e+01    0.1674127     0.100346  22.19 0.0005444622    1.566    0.361
       268  -9.5379     40.3888     13.1800   5.0621269308e+01   7.3526194697e+01    0.1904076    0.1227854 -46.82 0.0009460282    1.688    0.408
       269  -9.5807    176.3495    218.7081   6.6982885504e+01   6.5214426844e+00    0.1043473   0.08385947  46.43 0.0007028962    1.671    0.401
       270 -10.2032     50.9575    218.0349   9.3763808341e+01   2.2439060449e+01    0.1785279    0.1469516 -13.86  0.001142842    1.685    0.407
       271  -9.7796    136.3047    216.3172   7.4467735375e+01   1.2014082656e+01    0.1201852   0.08513921  -2.01 0.0004236843    1.626    0.385
       272 -10.6517     29.2663    215.6548   9.8715654244e+01   2.5210328602e+01    0.2302799    0.1696627  27.15  0.001188882    1.338    0.253
       273 -10.9606     23.9785    216.0312   9.9969391144e+01   2.5653603999e+01     0.186631    0.1417481  51.63 0.0004110885    1.018    0.018
       274 -12.0544     11.5410    209.6094   1.0266837094e+02   2.8129140452e+01    0.4492667    0.2004336  71.38  0.002322756    2.047    0.512
       275 -12.4065      5.7470    208.4454   1.0400759903e+02   2.8875559516e+01    0.4702336    0.2290611 -82.83  0.002463102    2.121    0.528
       276 -10.8829      1.7779    206.1946   1.0489605593e+02   2.9679330046e+01    0.2082261    0.1785985 -39.02  0.000908666    1.677    0.404
       277 -10.1041    237.1420    208.8467   5.5540798248e+01   7.6614311114e-01    0.1482732   0.09270645  -7.03 0.0005930363    1.350    0.259
       278 -11.0172     19.8877    201.0479   1.0034104044e+02   2.9185168769e+01    0.4778678     0.153204 -66.10  0.002021644    3.386    0.705
       279 -10.9550    175.4015    202.3524   6.4771005599e+01   8.9789625260e+00    0.2156836     0.176654  12.05 0.0005059176    1.035    0.034
       280  -9.8793    238.5272    200.5199   5.4054166248e+01   1.5693918533e+00    0.1055803   0.07916651  -7.51 0.0001067005    1.039    0.037
       281  -9.5596    215.2628    194.0078   5.6545434331e+01   5.0434110955e+00    0.1395554   0.08384871 -30.34 0.0007791718    1.506    0.336
       282 -11.6222     15.3968    193.1886   1.0115489059e+02   3.1330239758e+01    0.3282782     0.210687  25.56  0.001175892    1.535    0.349
       283 -10.5904    244.4933    187.9955   5.1202219501e+01   2.3765534876e+00    0.1592831    0.1206697   5.10 0.0005320352    1.172    0.147
       284  -9.8055     61.6527    184.7649   8.8439361671e+01   2.8211465892e+01    0.1814936    0.1198983  88.64 0.0009416893    1.656    0.396
       285 -12.8233     18.2312    181.1785   9.9893111760e+01   3.3821638602e+01    0.7073511    0.3526837  18.01  0.003351106    2.246    0.555
       286 -10.4938    244.1656    178.8481   4.9729410956e+01   3.5065218692e+00    0.1579503    0.1007004 -11.33 0.0006463046    1.365    0.267
       287 -11.0922     18.1420    172.5914   9.9496276241e+01   3.5874780197e+01     0.349943    0.1344106  52.60  0.001512394    2.141    0.533
       288  -9.7685    176.9809    168.9474   5.8909756294e+01   1.3999998685e+01    0.1541465    0.1358208  -9.23 0.0004433788    1.029    0.028
       289 -11.1292      5.8160    167.8948   1.0278857166e+02   3.8064257602e+01    0.1892729    0.1711392 -84.90 0.0009443407    1.249    0.200
       290 -11.0650     51.5747    162.4164   8.8993918313e+01   3.4783331264e+01     0.609015    0.2743987 -74.65  0.002534156    2.309    0.567
       291 -11.2146     35.9574    165.8212   9.3917435971e+01   3.5756821116e+01    0.4045896    0.2608794  25.89  0.002076205    1.574    0.365
       292 -10.5050     35.7760    160.9871   9.3572756248e+01   3.6983952945e+01    0.3091291    0.2009402   6.47  0.001478038    2.070    0.517
       293 -10.0459      9.8310    162.3739   1.0140661267e+02   3.9102129066e+01    0.1698815    0.1242087   7.33 0.0007319445    1.705    0.414
