#   1 NUMBER                 Running object number                                     
#   2 MAG_AUTO               Kron-like elliptical aperture magnitude                    [mag]
#   3 X_IMAGE                Object position along x                                    [pixel]
#   4 Y_IMAGE                Object position along y                                    [pixel]
#   5 X_WORLD                Barycenter position along world x axis                     [deg]
#   6 Y_WORLD                Barycenter position along world y axis                     [deg]
#   7 A_WORLD                Profile RMS along major axis (world units)                 [deg]
#   8 B_WORLD                Profile RMS along minor axis (world units)                 [deg]
#   9 THETA_WORLD            Position angle (CCW/world-x)                               [deg]
#  10 FWHM_WORLD             FWHM assuming a gaussian core                              [deg]
#  11 ELONGATION             A_IMAGE/B_IMAGE                                           
#  12 ELLIPTICITY            1 - B_IMAGE/A_IMAGE                                       
         1 -12.7820    199.4114     40.1719   4.3691923630e+01   3.1085623339e+01     1.186229     1.027751  28.80  0.006438444    1.439    0.305
         2 -12.6400    209.9920     29.6083   3.9781968499e+01   2.9934979117e+01    0.8742492    0.7381117  28.08  0.002271549    1.572    0.364
         3 -11.6355    234.9854      4.4259   3.1862833653e+01   2.7198770716e+01    0.7886525     0.463512  81.22   0.00469816    1.563    0.360
         4  -9.6386     58.8260    229.5517   1.1571461285e+02   1.9419505680e+01    0.2404644    0.1778847  87.24 0.0003837973    1.270    0.213
         5 -14.0939     54.5936    188.0683   1.1263919327e+02   2.8931506342e+01     13.05325     3.936216  56.09   0.03692846    5.849    0.829
         6  -9.0022    153.6650    220.6812   9.4563374874e+01   7.0513118282e+00    0.1359201   0.09936735   2.22 0.0007048979    1.700    0.412
         7  -8.0719     53.5354    220.1018   1.1598728022e+02   2.2002475333e+01    0.1655704    0.1091418 -78.98 0.0003989057    1.465    0.317
         8  -9.9841     48.6189    216.6550   1.1671282077e+02   2.3313276344e+01    0.3794421    0.3303047 -89.67  0.001774756    1.163    0.140
         9 -13.3614     44.1971    199.4172   1.1614777285e+02   2.7569361248e+01     5.464123     1.832143  64.97   0.01503989    6.840    0.854
        10  -9.3953     70.1674    210.8290   1.1155459439e+02   2.1851914249e+01    0.2077431    0.1495234  66.17 0.0008019613    1.290    0.225
        11 -10.0413    108.8250    202.7430   1.0182039234e+02   1.7933760841e+01     0.418299    0.2792552 -30.80  0.001322558    2.139    0.533
        12  -8.6572     31.7595    203.3791   1.1917424012e+02   2.8048179214e+01    0.2587582    0.1506715  72.51  0.001460514    1.591    0.371
        13 -11.4285     27.9015    215.1817   1.2083173477e+02   2.5917037238e+01     1.011081    0.3994867  80.67  0.004380323    3.088    0.676
        14  -9.6181     62.0164    200.1696   1.1223694743e+02   2.5252677913e+01    0.2405243    0.1705439 -77.65 0.0003877905    1.349    0.259
        15 -13.8073     24.8646    226.9031   1.2218162375e+02   2.3819778361e+01     2.027361      1.25236  62.18    0.0132198    1.310    0.237
        16 -13.3138     55.9969    239.8692   1.1710546892e+02   1.7742154379e+01     1.001002    0.7781876  21.83  0.006630726    1.704    0.413
        17  -7.9947    120.0115    193.9736   9.7886519994e+01   1.7991976362e+01    0.1647052    0.1591935 -89.94 0.0003767441    1.072    0.067
        18 -14.5241     21.1953    249.8709   1.2411635361e+02   1.9775656198e+01     4.548368     1.205731  27.07      0.01152    9.259    0.892
        19  -8.6434     99.6212    180.8335   1.0071922470e+02   2.4284270161e+01    0.2293339    0.1926248  28.30 0.0005618067    1.279    0.218
        20 -15.2333      2.4951    201.5121   1.2506536880e+02   3.1189299724e+01     21.06633          nan -76.25   0.03838351   17.648    0.943
        21  -8.7488     65.8308    179.7201   1.0893959446e+02   2.9470851296e+01    0.2634237    0.1914277  67.51  0.001435603    1.371    0.271
        22  -9.1476     59.4020    220.5786   1.1481168033e+02   2.1179915732e+01    0.2321585    0.2159588 -42.49  0.001604714    1.441    0.306
        23  -7.7691    149.3020    176.6794   8.7894199248e+01   1.6514724799e+01    0.1459913    0.1175496  78.14 0.0002756102    1.628    0.386
        24 -10.1622     68.2495    174.7604   1.0768220226e+02   3.0332280197e+01    0.2973225    0.2637239 -34.83  0.000778975    1.362    0.266
        25 -10.7570     72.7097    169.7839   1.0584551576e+02   3.0924791558e+01    0.4943206     0.328781 -36.59  0.001896175    1.949    0.487
        26  -8.4016    115.3094    173.3364   9.5539123010e+01   2.3408049343e+01    0.1481577     0.115442 -17.29  0.000704348    1.680    0.405
        27  -8.2294    138.3215    168.3046   8.8879056460e+01   2.0391614621e+01    0.1515326    0.1181204  -6.00 0.0002322756    1.635    0.389
        28 -11.4828     57.7738    129.9887   1.0356017961e+02   4.2734878468e+01    0.9838325    0.4124472 -72.48  0.003495797    2.983    0.665
        29 -11.6268     81.7526    160.6897   1.0205628810e+02   3.1845786497e+01     1.393441     0.555926  55.94 0.0005741447    4.236    0.764
        30 -12.0079     70.2657    155.5653   1.0432314063e+02   3.4739131047e+01    0.5852279    0.4450146 -27.21  0.001349358    1.692    0.409
        31 -12.1454     68.8172    144.3390   1.0285717965e+02   3.7725424543e+01     1.045631     0.711897  85.81   0.00255507    1.777    0.437
        32  -9.2705     54.3394    149.7111   1.0779852362e+02   3.8222033470e+01     0.284115    0.1857504  68.94   0.00139519    1.757    0.431
        33  -9.4556    133.9977    145.3410   8.5117660800e+01   2.6430082385e+01    0.7584699     0.212396 -54.90  0.001850261    5.189    0.807
        34  -9.2217     38.6845    146.0551   1.1162265570e+02   4.0843008607e+01    0.2876155    0.2218386  87.64   0.00086394    1.234    0.190
        35 -10.2580     29.9849    144.1279   1.1377835141e+02   4.2148960703e+01    0.4457186    0.2843112  53.12  0.002422621    1.678    0.404
        36  -9.5409    102.3724    139.4666   9.2353024065e+01   3.3728941629e+01    0.5580073    0.3434741 -23.14  0.002116397    2.640    0.621
        37 -10.7149     89.9391    138.9158   9.5772238862e+01   3.5946061344e+01    0.3067867    0.2586305 -37.80 0.0004131964    1.244    0.196
        38  -8.9207    105.9601    130.7520   8.9404878984e+01   3.5199829533e+01    0.3246865    0.3195541 -54.61   0.00132007    1.016    0.016
        39  -9.4354    111.5017    130.0194   8.7663270738e+01   3.4357205151e+01    0.2842295    0.2203078  13.48 0.0007348874    1.576    0.365
        40  -9.2131     98.9133    125.7514   9.0289930434e+01   3.7657803466e+01    0.2948157     0.242463 -11.49 0.0007384078    1.452    0.311
        41  -7.9153     92.5333    125.4220   9.2102546783e+01   3.8829201986e+01      0.14853    0.1429602 -67.44 0.0005537694    1.036    0.035
        42 -10.1115     31.2296    128.7843   1.1136734644e+02   4.5828201798e+01    0.3100855     0.234872   4.97  0.001791405    1.686    0.407
        43 -10.6103     88.5433    153.6207   9.8993274135e+01   3.2546633448e+01    0.5957161    0.4027105 -28.86  0.002515052    1.999    0.500
        44  -9.9740     24.3420    115.9949   1.1158353011e+02   4.9552029223e+01    0.2314618    0.1712457  65.94  0.001335767    1.543    0.352
        45  -8.5173    107.9186    118.9326   8.6009386706e+01   3.7653640688e+01    0.2270614    0.2182531 -44.94 0.0003459263    1.011    0.010
        46  -8.4733    205.3769    110.1444   6.0596856252e+01   1.8489291584e+01    0.2445931    0.2038283  35.64 0.0008022937    1.314    0.239
        47  -9.4764    115.4839    108.0030   8.0973679128e+01   3.8709329560e+01    0.2471756     0.150032 -45.71  0.001036525    1.603    0.376
        48  -9.3115     32.1736    108.5996   1.0782974897e+02   5.0713671404e+01    0.1707168     0.124458  -8.01 0.0006233425    1.698    0.411
        49  -9.6543     45.3098    105.8876   1.0290208614e+02   5.0109956300e+01    0.2238227    0.1877429  48.06  0.001301248    1.372    0.271
        50  -8.3687    134.5187    105.4959   7.5024987484e+01   3.5282425539e+01    0.1555198    0.1528443 -36.01 4.327142e-05    1.024    0.023
        51  -9.1754    119.4000    104.7743   7.8971906985e+01   3.8637220226e+01    0.2294387    0.1434041 -35.43  0.000953559    1.684    0.406
        52  -9.9344     32.7545     99.0154   1.0583506691e+02   5.2981643563e+01    0.3158674    0.1724202 -77.47  0.001444478    2.107    0.525
        53  -7.6561    128.3639     95.7151   7.3914707032e+01   3.8693172988e+01    0.1570234    0.1253678  86.32 0.0003545814    1.689    0.408
        54  -7.9979    157.2905     88.6804   6.4658897746e+01   3.3513182045e+01    0.1553077     0.121342 -73.79 0.0007008931    1.602    0.376
        55  -8.4278    234.6821     86.3291   5.0244511709e+01   1.6349424304e+01    0.1435728   0.09608231 -63.27 0.0007046835    1.683    0.406
        56  -7.7813    158.6352     82.3005   6.2524545838e+01   3.4382592346e+01     0.158753    0.1207196 -80.64 5.576645e-05    1.728    0.421
        57  -7.7718     56.6489     66.3182   8.8407414470e+01   5.7770579537e+01     0.129007    0.1097938  77.13 0.0007047591    1.739    0.425
        58 -12.1726    189.2701     47.8302   4.7118921759e+01   3.2482812985e+01    0.8043528    0.6872562  39.37  0.002265392    1.334    0.251
        59  -9.7901     81.1317    246.3771   1.1276649184e+02   1.3280611338e+01    0.3604716    0.1869537  46.68  0.001492985    1.566    0.361
        60  -8.0101     67.7726     51.8598   7.9042344459e+01   5.8927896020e+01    0.1695744    0.1663849  56.22 0.0008938513    1.339    0.253
        61  -9.4129     95.3724    241.7092   1.0948702311e+02   1.2174131307e+01     0.330356    0.2054635 -75.26  0.001885672    1.899    0.474
        62 -13.3831     10.2426    206.5003   1.2380688617e+02   2.9458317991e+01    0.8473387     0.730935 -78.80  0.005314004    1.296    0.228
        63  -9.2119    142.3158     47.6651   5.5488167490e+01   4.3999813280e+01    0.2938881    0.2219702 -72.43 0.0008822285    1.675    0.403
        64 -14.8036      3.8542    247.0878   1.2694927966e+02   2.1992377615e+01     1.557157    0.7809035 -69.46   0.00913539    2.069    0.517
