#   1 NUMBER                 Running object number                                     
#   2 MAG_AUTO               Kron-like elliptical aperture magnitude                    [mag]
#   3 X_IMAGE                Object position along x                                    [pixel]
#   4 Y_IMAGE                Object position along y                                    [pixel]
#   5 X_WORLD                Barycenter position along world x axis                     [deg]
#   6 Y_WORLD                Barycenter position along world y axis                     [deg]
#   7 A_WORLD                Profile RMS along major axis (world units)                 [deg]
#   8 B_WORLD                Profile RMS along minor axis (world units)                 [deg]
#   9 THETA_WORLD            Position angle (CCW/world-x)                               [deg]
#  10 FWHM_WORLD             FWHM assuming a gaussian core                              [deg]
#  11 ELONGATION             A_IMAGE/B_IMAGE                                           
#  12 ELLIPTICITY            1 - B_IMAGE/A_IMAGE                                       
         1 -13.5792    224.6331      6.6683   3.5060234379e+01   2.8716034406e+01      2.03593     1.235407  47.87  0.009591964    2.107    0.525
         2 -12.9376    181.8158     51.1425   5.1575730109e+01   3.3458518832e+01     1.010304    0.8816012 -24.92 0.0008225196    1.234    0.190
         3 -13.4776    201.5929     33.0195   4.3798001539e+01   3.1067890317e+01     1.077421    0.9271994 -14.90  0.001523865    1.389    0.280
         4 -13.2477    193.8939     41.2561   4.6997766165e+01   3.1866319201e+01     1.160583     0.962235 -46.06  0.003676592    1.181    0.153
         5 -11.8285     57.2069      3.1369   6.4258349385e+01   6.7265172227e+01    0.7621556    0.2353109  53.05  0.002839707    4.149    0.759
         6 -10.1165    108.2487    241.5652   1.0906809510e+02   1.0303038622e+01    0.2835667    0.1855109 -18.89  0.001330941    3.408    0.707
         7 -10.4699    140.0197    249.4021   1.0377322986e+02   4.1920151332e+00    0.3023185    0.2317508  66.13  0.001926247    1.530    0.346
         8 -10.9619    115.5136    248.0088   1.0835735592e+02   8.1116853410e+00    0.4439246    0.2824849 -78.06  0.002552113    2.111    0.526
         9  -9.4837    107.5100    250.0625   1.1011482614e+02   8.9375416537e+00    0.1520261    0.1171936 -67.49   0.00059772    1.525    0.344
        10 -19.2444     13.1760    170.5443   1.2231228721e+02   3.7022337220e+01     18.22117     4.304199 -78.99   0.06288694    4.161    0.760
        11  -8.7787     93.6804    205.4443   1.0785186180e+02   1.9505516885e+01    0.2511255    0.1896323  17.86 0.0009690616    1.732    0.423
        12  -9.0487     96.3812    202.1292   1.0682500289e+02   1.9799009653e+01    0.1989855    0.1305151 -65.02  0.001046972    1.591    0.371
        13  -9.6362     87.6500    204.1535   1.0902052824e+02   2.0676751499e+01    0.3222728    0.2505437  80.59  0.001837004    1.272    0.214
        14 -10.8265    168.0034    220.9926   9.4183032792e+01   4.4062439576e+00    0.2931116    0.1514133  31.46  0.001380601    1.835    0.455
        15  -8.9534    121.6660    200.2992   1.0089693363e+02   1.6125304673e+01    0.1423151    0.1000038  66.51 0.0007032659    1.652    0.395
        16  -9.4311    133.6610    195.8729   9.7499248609e+01   1.4990042560e+01    0.1919394    0.1821063  87.96  0.001144366    1.118    0.106
        17  -9.7166    120.0337    194.0467   1.0030198316e+02   1.7709088480e+01    0.2027072     0.191755  56.07 0.0003552027    1.029    0.028
        18 -11.1719    176.8429    216.4688   9.1643922104e+01   3.6969174909e+00    0.3585543    0.2189164  18.90  0.001749943    1.892    0.471
        19  -9.7994    149.6074    187.5472   9.2463753549e+01   1.3848300300e+01    0.2972633    0.2506925  72.19 0.0008389292    1.407    0.289
        20  -9.0165     92.8050    185.4188   1.0534165895e+02   2.4021829079e+01    0.2562309    0.1206125  41.74 0.0009316999    1.993    0.498
        21 -10.9802    175.1299    211.5786   9.1174150116e+01   4.8179269938e+00    0.6959162    0.2113154  32.55  0.002191859    4.052    0.753
        22 -11.5516    194.2316    198.1437   8.4871527242e+01   3.8474677759e+00     1.291367    0.9252785 -60.02  0.006574904    2.050    0.512
        23 -10.7267     98.5061    181.2076   1.0335386925e+02   2.4083344309e+01    0.4460381    0.3147067   5.87  0.001984507    2.260    0.557
        24 -15.1530     72.7293    151.5684   1.0517614551e+02   3.5015302074e+01     5.047183     2.645507  87.66  0.008803708    3.473    0.712
        25 -10.1584    189.3406    177.3531   8.1826682271e+01   8.4468809524e+00    0.4649633    0.3377047 -56.01  0.002307993    1.722    0.419
        26 -10.3472    143.8936    178.0623   9.2021203710e+01   1.6868514193e+01    0.3467341    0.2350273 -36.58 0.0008701623    1.645    0.392
        27  -9.0080    149.3370    177.0105   9.0561883484e+01   1.6073233558e+01    0.1983917     0.183505 -52.75 0.0004390011    1.142    0.124
        28 -10.8363    183.7701    211.4444   8.9383525234e+01   3.3781972449e+00    0.6133516    0.3142621 -40.11  0.002911594    2.106    0.525
        29  -8.5022    194.4892    172.4777   7.9757834698e+01   8.3877286563e+00    0.1443291    0.1318363   1.01 0.0008101719    1.001    0.001
        30 -11.3521    189.1177    209.3805   8.7941708394e+01   2.8225261215e+00    0.5731466    0.3623026 -16.71  0.002827532    1.982    0.495
        31  -9.9394    138.3354    169.8572   9.1761631987e+01   1.9675236080e+01    0.3207925    0.2780084  34.82   0.00149282    1.137    0.121
        32  -9.2658    240.4580    169.4762   7.0409525007e+01   7.0249431803e-01      0.13506    0.1140502 -12.63 2.557043e-05    1.007    0.007
        33  -9.4176    187.7733    162.8892   7.9127182990e+01   1.1494550622e+01    0.2630306    0.2027774 -56.95   0.00076906    1.555    0.357
        34 -10.8733     53.2771    157.3525   1.1117440935e+02   3.6117877857e+01    0.2855173    0.2017263  81.66 0.0006860734    1.439    0.305
        35 -11.5857     93.0358    151.8199   9.9782886410e+01   3.1892234548e+01    0.7348081    0.5245846 -34.63  0.003524025    1.695    0.410
        36  -9.4384    187.1506    151.8016   7.6815005649e+01   1.3784753884e+01     0.208471    0.1738704  -1.06 0.0008102977    1.284    0.221
        37 -10.8365    134.0200    146.5743   8.8000883161e+01   2.5729013692e+01     1.136837    0.3416433 -55.70  0.002911077    4.838    0.793
        38  -8.9426    112.5561    150.7957   9.4423557480e+01   2.8802303309e+01    0.2377495    0.1767319  47.52 0.0004096773    1.362    0.266
        39  -8.9715    174.6661    149.0193   7.8890622354e+01   1.6902103651e+01    0.2177506    0.1947376 -36.82 0.0005545376    1.106    0.096
        40  -9.0956    143.6709    145.3383   8.5315806711e+01   2.4076770327e+01    0.1593313    0.1241518  85.76 0.0007051874    1.734    0.423
        41 -10.5803    105.3748    138.1015   9.3700225691e+01   3.3119050015e+01    0.5486194     0.339463 -29.96  0.002221408    2.219    0.549
        42 -11.5687     93.1185    137.9006   9.7051131762e+01   3.5266143428e+01    0.2905484    0.2570173 -41.97  0.000395249    1.163    0.141
        43 -10.3026    105.9701    130.7187   9.1905830656e+01   3.4785400357e+01    0.3926513    0.3259618 -64.88  0.001273159    1.220    0.181
        44 -10.0543    135.8889    129.3521   8.3527547176e+01   2.9276895200e+01     0.406963      0.18859 -48.93   0.00148038    2.156    0.536
        45 -10.5085    113.6942    129.1040   8.9390941659e+01   3.3741686220e+01    0.3906218    0.3308438 -30.77 0.0008821054    1.258    0.205
        46  -8.6071     97.0413    128.9729   9.4035615314e+01   3.6778505017e+01     0.174101    0.1682542 -66.00 0.0009541932    1.018    0.018
        47 -11.1915    119.5849    123.2579   8.6367252297e+01   3.3975944490e+01    0.6985179    0.3865075 -28.30  0.002459519    2.734    0.634
        48 -10.3612    100.9203    125.0627   9.2037504184e+01   3.7045688519e+01    0.3061809    0.2548583 -18.15 0.0008446338    1.407    0.289
        49 -10.1675    135.0992    120.5957   8.1548089667e+01   3.1417398297e+01    0.4550105    0.1551988 -49.18  0.001388536    3.036    0.671
        50  -9.3732    109.0541    118.2631   8.8075536430e+01   3.7174715632e+01    0.2505085     0.210917 -47.86 0.0003935325    1.142    0.124
        51  -9.9805    231.2041    113.6674   5.9633523289e+01   1.1831438566e+01    0.2719099     0.263626  77.26 0.0006950963    1.175    0.149
        52  -9.8459    134.6124    106.8159   7.8031176129e+01   3.4568190226e+01    0.3475916    0.1552524 -45.20   0.00108005    2.200    0.545
        53  -8.9750    167.5557    112.4355   7.1513921219e+01   2.6005757915e+01     0.302203     0.220878  89.60  0.001182223    2.068    0.516
        54 -11.4760    117.8127    109.5776   8.3352240390e+01   3.7473657747e+01    0.7676049    0.5169058  68.34  0.003056709    2.168    0.539
        55  -9.4276    205.6385    110.1274   6.3163133102e+01   1.7865208882e+01    0.2699231    0.2168278  41.15 0.0005918831    1.336    0.251
        56  -9.9688     65.1348    104.7509   9.8241033196e+01   4.7557900535e+01    0.3219231    0.2062436  10.58  0.001470005    2.133    0.531
        57  -9.1067     63.6199     99.1007   9.7395333864e+01   4.9107853674e+01    0.2263802    0.1917961  46.81 0.0005024011    1.343    0.256
        58 -12.1918    112.6677    205.6744   1.0368768349e+02   1.6494225243e+01     1.509409    0.2643152 -48.90  0.003860574    7.148    0.860
        59 -11.7238    107.7094    204.0153   1.0455559788e+02   1.7632133378e+01    0.4808014    0.3929742  56.39  0.000381256    1.122    0.109
        60  -8.2642    156.4956     82.4318   6.5667781187e+01   3.4488320694e+01    0.1515508    0.1511403  17.92 0.0001307819    1.010    0.009
        61 -11.9706    109.5937    200.8116   1.0368389689e+02   1.8001941635e+01    0.6329551     0.363013 -39.02  0.002019716    2.386    0.581
        62  -9.3338     63.8739     69.9328   8.9201858626e+01   5.5619505233e+01    0.2098458    0.1852866 -33.24 0.0005376427    1.046    0.044
        63  -8.7811     92.2312    249.3670   1.1295181835e+02   1.1236743023e+01    0.1837669   0.08439706  46.12 0.0009659381    1.736    0.424
        64  -8.5707    168.0789    248.0334   9.8171843907e+01   1.0754579955e-01    0.1417517    0.1157351  28.59 0.0002824047    1.014    0.013
        65  -9.0224    158.2082    235.7737   9.8387270652e+01   3.5482197635e+00    0.1699215    0.1370759  10.72 0.0006825473    1.317    0.241
        66  -8.3372     77.3175    208.2914   1.1175791158e+02   2.1276319222e+01    0.1151628     0.101545 -21.73 0.0003081989    1.599    0.375
        67  -8.2333    223.7297    206.6812   8.0738990064e+01  -2.3932389806e+00    0.1306266   0.08745166  -1.15 0.0002278211    1.562    0.360
        68  -9.7934    189.7435     15.0225   4.0466171104e+01   3.6022899089e+01    0.2321513    0.1789927  77.00 0.0007417372    1.178    0.151
        69 -11.3869    120.1478    245.9174   1.0722398870e+02   7.7745331384e+00    0.3961028    0.1770999  46.07  0.001464831    1.878    0.468
