#   1 NUMBER                 Running object number                                     
#   2 MAG_AUTO               Kron-like elliptical aperture magnitude                    [mag]
#   3 X_IMAGE                Object position along x                                    [pixel]
#   4 Y_IMAGE                Object position along y                                    [pixel]
#   5 X_WORLD                Barycenter position along world x axis                     [deg]
#   6 Y_WORLD                Barycenter position along world y axis                     [deg]
#   7 A_WORLD                Profile RMS along major axis (world units)                 [deg]
#   8 B_WORLD                Profile RMS along minor axis (world units)                 [deg]
#   9 THETA_WORLD            Position angle (CCW/world-x)                               [deg]
#  10 FWHM_WORLD             FWHM assuming a gaussian core                              [deg]
#  11 ELONGATION             A_IMAGE/B_IMAGE                                           
#  12 ELLIPTICITY            1 - B_IMAGE/A_IMAGE                                       
         1 -12.1843     39.4961      7.9663   3.8046440576e+01   7.2791055947e+01    0.6575953    0.4080152  -7.66  0.003140562    2.112    0.526
         2 -13.2610     43.8534     22.9536   4.4496433175e+01   6.9486686650e+01     1.084043    0.8286702 -52.80  0.005965904    1.467    0.318
         3 -12.9486    176.6488     21.8272   7.4980288233e+00   3.7316157400e+01    0.8708147    0.5401536 -58.89  0.004138426    1.633    0.388
         4 -14.2394    168.4269      6.2609   3.4387897424e+00   4.1083623238e+01     2.413196    0.9798978  76.58  0.009564778    2.397    0.583
         5 -12.4994    156.4190     11.5261   6.5276834463e+00   4.3739964977e+01    0.5334256     0.395847  84.59  0.002515858    1.298    0.230
         6 -12.4811     19.8121     15.5835   5.6319633261e+01   7.4158489058e+01    0.7927915    0.3663023  -1.85  0.002568852    5.237    0.809
         7 -11.6501    226.5368     15.4170   1.2703026020e+00   2.6119618885e+01    0.5581171    0.3564596 -57.89  0.003171606    1.401    0.286
         8 -10.4174     78.4975     12.5147   2.3049056274e+01   6.4075570305e+01    0.2474876    0.1386356 -11.22   0.00103471    2.266    0.559
         9 -11.0570    231.9002      9.0622   3.5936970675e+02   2.5614273556e+01    0.4472535    0.2615509 -62.00  0.002492787    1.569    0.363
        10 -12.1396     10.9540      6.4368   5.8434678915e+01   7.6851229726e+01    0.7850825    0.4348027  48.58  0.003750245    2.925    0.658
        11 -12.2425    194.0264      6.2346   1.1841523862e+00   3.4587907095e+01    0.6349704    0.2933683 -63.12  0.002725965    2.272    0.560
        12 -11.1758      2.0117      3.5935   6.5211363692e+01   7.8100489467e+01    0.4185831    0.2114327 -55.09  0.002263738    1.663    0.399
        13 -11.9350     17.4554      3.2691   5.0718004788e+01   7.6781427030e+01    0.4147244     0.386741  86.76  0.002772473    1.564    0.361
        14 -12.4861    204.7347      4.2644   3.5985945367e+02   3.2198941611e+01    0.6960576    0.3460479  74.84  0.003366982    2.002    0.500
        15  -9.7993     70.0102      5.7113   2.2135139733e+01   6.6877793834e+01    0.2011644    0.1759708  42.52  0.001167014    1.073    0.068
        16 -11.1742     84.6195      3.5535   1.6275347870e+01   6.3597712767e+01    0.6621842    0.2571814  63.87  0.002532716    2.457    0.593
        17 -10.3993    217.6456      1.8774   3.5841956990e+02   2.9442615202e+01    0.2482257    0.1668914 -80.59  0.001331021    1.429    0.300
        18 -10.8349    223.6678      5.0576   3.5886966125e+02   2.7794235361e+01    0.4496136    0.1564204 -49.32  0.001945933    2.386    0.581
        19 -10.4149     21.8082     11.1832   5.2306352251e+01   7.4802779162e+01    0.2897509    0.2000304 -12.04  0.001064918    1.540    0.350
        20 -11.5974    249.3044    126.2347   2.4681742089e+01   7.7907444225e+00    0.4679798    0.3411004  81.79  0.002548927    2.843    0.648
        21 -12.5931    241.1060    128.1716   2.6215127796e+01   8.8399783826e+00    0.7277731    0.3545814 -26.14  0.003575942    1.830    0.454
        22 -11.6711    235.2883    124.1677   2.6198451037e+01   1.0341206965e+01    0.6103277    0.4252447 -43.24  0.003544371    1.545    0.353
        23 -10.0824      4.1836    124.1611   8.5942653888e+01   4.8473667502e+01    0.1898683    0.1254729  61.85  0.001084503    1.354    0.261
        24 -11.2379    189.7085    115.1362   3.1605046569e+01   2.0197453755e+01     0.711412    0.3717148 -13.20  0.002401525    3.692    0.729
        25 -10.9232    212.5366    113.2135   2.7220700504e+01   1.6004130160e+01    0.4953375     0.247513 -30.74  0.002256511    1.845    0.458
        26 -11.3099    223.8063    106.4205   2.3928272002e+01   1.4885582282e+01     0.282688    0.2026767  14.74  0.001318082    1.652    0.395
        27 -11.8209    148.6161    110.3662   3.9017060316e+01   2.9777195458e+01    0.5618227    0.2851512 -53.59  0.002095982    2.425    0.588
        28 -12.7545    242.6301    108.1182   2.1706128884e+01   1.1280292719e+01    0.8142737     0.627341 -78.99  0.004726337    2.089    0.521
        29 -12.7601    240.3596    102.2513   2.0704766324e+01   1.2466257858e+01    0.8608126     0.406127  29.15  0.003440737    3.663    0.727
        30 -11.5799     17.0560    103.4566   7.9806577977e+01   5.2866485180e+01    0.4032816    0.2820959  51.42  0.002240245    1.426    0.299
        31 -10.1155     30.9908    101.3032   7.4307711324e+01   5.2257051670e+01    0.3084118    0.1210779 -49.19  0.001182395    2.671    0.626
        32 -10.3504    112.5056    100.5009   4.5910805161e+01   3.9639172643e+01    0.2937734    0.1485053 -58.69  0.001044667    2.454    0.593
        33 -10.3209    107.8110    108.8371   4.9437588218e+01   3.8697970541e+01     0.219128     0.184721  75.58 0.0009894607    1.330    0.248
        34 -12.1216     12.9531     89.6264   7.9811176474e+01   5.6729803702e+01    0.3700073    0.3059083 -31.52  0.002047381    1.381    0.276
        35 -12.0215     20.4267     87.8383   7.6510533698e+01   5.6669004130e+01    0.3577611    0.2856145 -56.64  0.002078332    1.197    0.165
        36 -12.7971      4.7642     75.2548   8.1580495108e+01   6.0891923082e+01     1.030409    0.4662915  87.48  0.004519894    2.251    0.556
        37 -13.1379     15.1218     73.4656   7.6623835621e+01   6.0766460185e+01    0.8438478    0.6415061  35.82   0.00488945    1.445    0.308
        38 -11.7391      2.7795     88.7054   8.3822544103e+01   5.7537279776e+01    0.4003002    0.3363877  83.83  0.002392088    1.075    0.070
        39 -10.9596      2.9514     82.9861   8.3207773708e+01   5.8995263551e+01    0.3261788    0.2498136 -69.93  0.001316625    1.134    0.118
        40  -9.8796    178.8651     92.1396   2.7822121244e+01   2.6426394607e+01    0.2344611    0.2020232 -61.15  0.001059826    1.275    0.216
        41  -9.2885    193.6170     86.8193   2.3816256162e+01   2.4020768988e+01    0.2138117    0.1198971 -43.13  0.000941225    1.717    0.418
        42 -10.1489    100.6200     83.7478   4.4786326250e+01   4.5907550213e+01    0.2266933    0.1464136 -57.09 0.0007040427    1.669    0.401
        43 -11.7674     44.7570     81.3318   6.5056013660e+01   5.5958874268e+01    0.9135578    0.4950093 -30.91  0.003614399    2.646    0.622
        44 -11.3467     37.4992     81.4982   6.8175607320e+01   5.6748540108e+01    0.4424867    0.2571378  79.81  0.001859239    2.345    0.574
        45  -9.9877    144.8929     80.7906   3.1700810173e+01   3.6407595294e+01    0.2939381    0.2265404  78.07  0.001352051    1.575    0.365
        46  -9.8157    215.3235     79.6020   1.8693681467e+01   2.0458011133e+01    0.2457569    0.1566668 -40.39  0.001249529    1.413    0.292
        47 -11.6809    220.5016     77.4826   1.7475033556e+01   1.9689921044e+01    0.3997832    0.2666946 -71.67  0.001963036    2.111    0.526
        48 -10.0500    227.3282     72.5209   1.5401486163e+01   1.8988352343e+01    0.2992289     0.170176 -49.14  0.001467878    1.776    0.437
        49  -9.5791    169.1606     75.6172   2.5064618960e+01   3.1495862189e+01    0.2194372    0.1350571  45.03 0.0009506137    1.731    0.422
        50  -9.5183     74.4905     69.4788   4.9515736297e+01   5.4335009911e+01    0.1495824    0.1456335 -62.78 0.0003169655    1.024    0.024
        51 -10.6183    214.4265     66.7592   1.5559926369e+01   2.2471736820e+01    0.2698105    0.2044545   3.92  0.001116706    1.646    0.392
        52 -10.7002     25.5568     65.1748   7.0068131997e+01   6.2090947148e+01    0.4635616    0.1802791 -67.89  0.001840713    2.325    0.570
        53 -10.6370    233.5377     64.0077   1.2626427554e+01   1.8874977048e+01     0.241245    0.1766876  41.38   0.00138517    1.648    0.393
        54  -9.6800    200.2970     63.3613   1.6543039812e+01   2.6086533275e+01    0.1429404    0.1081731  12.39 0.0007033173    1.711    0.416
        55 -10.6636    218.8531     61.4184   1.3652078457e+01   2.2254649443e+01    0.2286959    0.1555799 -25.23 0.0009916947    1.395    0.283
        56 -10.5837    210.2822     60.5056   1.4463281793e+01   2.4244051252e+01    0.3732487    0.1259995 -24.68  0.001223451    3.493    0.714
        57 -11.6474    228.2869     57.6996   1.1654835398e+01   2.0762028936e+01    0.3835976    0.2645272 -15.61  0.002075533    1.563    0.360
        58  -9.9488    164.4035     53.7960   1.9347874329e+01   3.6194612711e+01    0.2081969     0.145262 -18.82 0.0008198538    1.625    0.385
        59 -11.2272    199.3384     52.4851   1.3699977742e+01   2.7837168159e+01    0.4191035    0.2686425 -39.67  0.002080533    1.400    0.286
        60  -8.9899     35.3131     52.3475   6.1647650021e+01   6.4285642769e+01    0.1499229    0.0954337 -32.34 0.0007046653    1.717    0.417
        61 -10.4047    214.9000     50.9352   1.1410389956e+01   2.4506933192e+01    0.3318546    0.1605473  46.44  0.001431337    2.549    0.608
        62 -10.6596     85.9170     47.9703   3.7256203357e+01   5.6641351334e+01    0.4098832    0.3342696  62.73  0.002054533    1.359    0.264
        63 -11.4930      3.2879     41.1673   7.6948838833e+01   6.9510004628e+01     0.445424     0.376957  74.75  0.002482671    1.314    0.239
        64 -11.3332      5.3323     34.9155   7.4183749100e+01   7.0923093939e+01    0.3511153    0.2561294  11.93  0.002115229    1.546    0.353
        65 -11.1025     81.5608     39.0059   3.5044827595e+01   5.9276328763e+01    0.5312716    0.3026548 -47.32  0.002259826    1.883    0.469
        66  -9.6840    223.7894     40.4056   7.7828918832e+00   2.3888884861e+01    0.1739381     0.119054  56.44 0.0009525621    1.666    0.400
        67 -11.3759    190.5565     36.2787   1.0205747551e+01   3.2080606639e+01     0.352529    0.1544829 -46.68  0.001418512    2.181    0.541
        68 -11.4276    160.2206    231.0238   5.8505761326e+01   6.8366256599e+00    0.3651228    0.1860246  25.34  0.002036041    1.725    0.420
        69 -11.6193     40.0923     28.8795   4.9689481762e+01   6.8908886414e+01    0.4887388    0.2934887 -46.04  0.001737503    1.562    0.360
        70 -11.0185    248.5702    224.1865   4.2366358960e+01  -3.4698722547e+00    0.3719194    0.1811125 -23.87   0.00243233    1.883    0.469
        71  -9.3576    235.7581     29.5805   4.0780430849e+00   2.2617580970e+01    0.1710596    0.1123457 -80.95 0.0009588215    1.677    0.404
        72 -10.0679    229.5014     29.0838   4.4462330510e+00   2.3990351948e+01    0.2041399    0.1104968 -30.39  0.001037328    1.603    0.376
        73 -13.3343    208.3846    218.3326   4.7967162091e+01   2.0072243975e+00       1.0491    0.5653603  20.60  0.006275557    1.638    0.389
        74 -10.5438     67.2278    217.4073   7.6250993116e+01   2.1437621075e+01    0.1782655   0.08302489  41.66 0.0009502078    1.623    0.384
        75 -11.4713    187.2453     19.3272   5.5955389025e+00   3.4910809034e+01    0.3202277    0.2475228  76.46   0.00134423    1.292    0.226
        76 -10.9687     50.7152    218.1487   7.9864895051e+01   2.3236739119e+01    0.1939005    0.1221679  64.56  0.001221288    1.446    0.308
        77  -9.6884    128.9997     18.2963   1.3177807718e+01   5.0394496103e+01    0.2213107    0.1862683  71.20  0.001166061    1.133    0.117
        78  -9.7069    117.0061     17.7004   1.5286943253e+01   5.3676568792e+01    0.2188115     0.188581  65.94  0.001166889    1.104    0.094
        79 -12.4828    248.4829    185.7592   3.6158960958e+01   5.9859307705e-01     1.015251    0.4313517 -38.58   0.00527411    2.716    0.632
        80 -13.1034    243.4595    199.6165   3.9268910218e+01  -3.1978402521e-01    0.7605687    0.5615275 -22.47  0.004394942    1.389    0.280
        81 -11.3834    246.9525    192.1550   3.7486519834e+01   7.2504774421e-02    0.3646783    0.2884749  23.27  0.002108635    1.382    0.277
        82 -10.4202     80.5009    206.4899   7.2376289268e+01   2.1784815871e+01    0.1255094    0.1013721  46.21 0.0001527556    1.002    0.002
        83 -10.6875      4.1881    230.0056   8.9881794007e+01   2.5706327576e+01    0.1348621    0.1119261  17.31  0.001060997    1.612    0.379
        84 -12.5484    181.8797    217.1350   5.2537105196e+01   5.7160092840e+00    0.4426718    0.2533398 -10.44  0.002370446    2.346    0.574
        85  -9.9690     37.4969    185.4695   8.0736746768e+01   3.1208271236e+01    0.1235657    0.1022247  58.76 0.0008096296    1.036    0.034
        86 -11.4914    219.7388    155.4400   3.5086709910e+01   8.5357561549e+00     0.419165     0.241292  48.13  0.002195573    2.105    0.525
        87  -9.8197     20.4947    155.4780   8.3114830261e+01   3.9628823404e+01    0.1274142    0.1063922  70.10 0.0002175102    1.017    0.017
        88 -11.3934     11.8153     23.9544   6.6159899435e+01   7.3075114779e+01    0.2942572    0.1678407 -70.34  0.001490773    1.863    0.463
        89  -9.8902    162.7378    152.7308   4.5403274184e+01   1.8843611412e+01    0.2136149    0.1166413 -53.93 0.0009004571    2.420    0.587
        90 -10.1375    224.5260     22.3696   3.1572725917e+00   2.5814139091e+01    0.2351478     0.188938 -70.31 0.0009138141    1.189    0.159
        91  -9.6680     53.6294    143.2057   7.2423486547e+01   3.9085394615e+01    0.1979942    0.1165284 -59.81 0.0009506455    1.716    0.417
        92 -11.9222     10.7145    139.5898   8.4884958392e+01   4.4231895193e+01    0.4191898    0.2066472  63.39  0.002073559    1.856    0.461
        93  -9.8191    220.4822    137.4982   3.1302182482e+01   1.0965171388e+01    0.1310426    0.1102704  -7.81 0.0001813015    1.020    0.020
