#   1 NUMBER                 Running object number                                     
#   2 MAG_AUTO               Kron-like elliptical aperture magnitude                    [mag]
#   3 X_IMAGE                Object position along x                                    [pixel]
#   4 Y_IMAGE                Object position along y                                    [pixel]
#   5 X_WORLD                Barycenter position along world x axis                     [deg]
#   6 Y_WORLD                Barycenter position along world y axis                     [deg]
#   7 A_WORLD                Profile RMS along major axis (world units)                 [deg]
#   8 B_WORLD                Profile RMS along minor axis (world units)                 [deg]
#   9 THETA_WORLD            Position angle (CCW/world-x)                               [deg]
#  10 FWHM_WORLD             FWHM assuming a gaussian core                              [deg]
#  11 ELONGATION             A_IMAGE/B_IMAGE                                           
#  12 ELLIPTICITY            1 - B_IMAGE/A_IMAGE                                       
         1  -9.0275     80.4403     12.1745   7.6560977249e+01   6.0099452512e+01    0.2460849    0.1761474 -34.13  0.001088307    1.692    0.409
         2  -7.4815    105.3192      2.3258   6.7296959340e+01   5.5967747579e+01    0.1256735   0.07188085  36.85 -0.0002664158    1.678    0.404
         3 -10.9770    179.0294    241.0557   1.0960762735e+02  -3.2112020724e+00    0.9717148    0.7240419  -9.27  0.004063806    1.539    0.350
         4 -10.2230    231.3019    250.4908   1.0092584516e+02  -1.2457701728e+01    0.5068817    0.1954587  28.78  0.000574096    2.641    0.621
         5 -11.4502    248.1003    242.4180   9.6489393289e+01  -1.3444821945e+01     1.030259    0.7038756  24.85  0.006603206    1.424    0.298
         6  -8.1134    156.4731    250.4665   1.1576307550e+02  -1.2458162348e+00    0.2528794    0.1038161  46.41  0.001033086    2.465    0.594
         7  -8.3966    151.3826    249.4651   1.1667268619e+02  -2.3815668156e-01    0.2470997    0.2127537  80.80  0.001493208    1.425    0.298
         8  -8.8052    133.8012    247.8025   1.2011565574e+02   2.9455318248e+00    0.4966949    0.3434641 -75.67  0.001942843    1.907    0.476
         9  -9.1749      7.6740    247.3405   1.4498896167e+02   2.0647879645e+01    0.1949868   0.09567496  67.30  0.001115561    1.729    0.421
        10  -9.0028    141.1414    242.1405   1.1774487620e+02   2.8263426562e+00    0.6052893    0.3683689  62.58  0.002784375    2.224    0.550
        11  -8.4691    153.2199    238.0647   1.1454744853e+02   1.5952740637e+00    0.3053636    0.1623513 -33.03   0.00129647    2.599    0.615
        12  -9.6252    149.5357    240.0069   1.1563467186e+02   1.8389718047e+00    0.3865614    0.2699564 -61.08  0.002047292    1.704    0.413
        13  -9.5425    146.2948    238.6472   1.1611777187e+02   2.6440081706e+00    0.4846482    0.2787446 -67.05  0.002157497    2.503    0.601
        14  -9.3560    142.9853    237.0000   1.1657576373e+02   3.5228361347e+00     0.497864    0.2161399  30.06   0.00163117    2.672    0.626
        15  -9.2898    221.5218    240.3945   1.0103795239e+02  -9.5765942100e+00    0.2860084    0.2487431 -80.00 0.0009571858    1.973    0.493
        16  -9.1109     89.1065    238.8409   1.2839432826e+02   1.1914662942e+01     0.276612    0.2190352  21.25  0.001467634    1.613    0.380
        17  -7.3314     74.9874    238.0000   1.3125813064e+02   1.4205781745e+01     0.215255   0.06828451  36.95 4.787374e-05    2.988    0.665
        18  -7.3729    109.7426    240.6589   1.2424084009e+02   8.2856590026e+00    0.1237401    0.1048242 -21.63 0.0003561373    1.584    0.369
        19  -9.8166    175.5885    232.9350   1.0897006063e+02  -1.1747818478e+00    0.4453131    0.4285842  12.52  0.002703646    1.093    0.085
        20  -8.7633     59.1869    234.7654   1.3418253612e+02   1.7138841854e+01    0.1649041    0.1498038 -63.83 0.0008550031    1.341    0.254
        21  -8.3269     50.5254    234.9910   1.3596822417e+02   1.8245409316e+01    0.1691075   0.09148261 -49.12 0.0008091476    2.481    0.597
        22  -8.7294    231.8442    233.9113   9.7957698533e+01  -1.0002216904e+01    0.1947483    0.1435829  -6.79 0.0003503539    1.259    0.206
        23  -7.0729    222.3905    234.4933   9.9840921607e+01  -8.7563202395e+00    0.1281794    0.1055102  -7.01 0.0001011051    1.052    0.049
        24  -6.8875    104.6351    247.3109   1.2616801383e+02   7.7419283743e+00    0.1425969   0.08919013  64.58            0    1.756    0.431
        25  -9.3383    159.9823    233.4825   1.1236926421e+02   1.3381153152e+00    0.5884725    0.3057308 -54.37  0.002637685    2.236    0.553
        26 -10.9856    150.3464    227.6506   1.1349946772e+02   4.1346989171e+00     1.051909    0.8334817 -13.25  0.004028585    1.552    0.356
        27 -10.1815    141.7199    228.5110   1.1552723693e+02   5.4458276215e+00    0.8150074    0.3035811  38.20  0.002073621    2.498    0.600
        28  -9.6572    153.6423    218.7384   1.1128096633e+02   5.3831826135e+00    0.6456088    0.4181949  43.19  0.002019383    1.481    0.325
        29  -9.4332    105.5222    224.0202   1.2288836462e+02   1.2531763075e+01    0.4720317    0.2097099  43.87   0.00197379    2.069    0.517
        30  -8.6855    110.1955    222.8482   1.2167325682e+02   1.2018674927e+01    0.2607673     0.198117  29.93 0.0008094108    1.422    0.297
        31  -8.1197     89.5585    230.6874   1.2729701039e+02   1.3607472374e+01    0.2520357    0.1149267  38.34  0.001095626    2.073    0.518
        32  -8.6419     82.0694    229.2082   1.2873530859e+02   1.5078643223e+01    0.4282948    0.1895278  32.78  0.001478189    2.497    0.600
        33  -7.2114    218.2786    230.3395   9.9892670153e+01  -7.4716894479e+00    0.1331246   0.08986481  -8.63 0.0007004898    1.620    0.383
        34  -8.6379     70.8589    225.6558   1.3073480033e+02   1.7528377345e+01    0.2646728    0.1488517 -78.89  0.001268128    1.888    0.470
        35  -9.1935    163.4743    249.1904   1.1411900450e+02  -2.1483378478e+00    0.5062157    0.3511831 -12.64   0.00263328    1.942    0.485
        36  -8.5913    167.5081    248.4745   1.1317454332e+02  -2.6706744489e+00    0.2328149    0.2096673 -15.10  0.001475142    1.168    0.144
        37  -8.0385    218.1972    221.8651   9.8378266857e+01  -6.0211525034e+00    0.1798614    0.1641088 -11.24 0.0003043442    1.114    0.102
        38  -8.8987     72.4100    220.9341   1.2983824510e+02   1.8377194106e+01    0.3330712    0.1491802  46.54  0.001463498    2.069    0.517
        39  -9.6755    126.2929    218.1547   1.1732216584e+02   1.0314124700e+01    0.4966049    0.4182241   3.01  0.001981071    1.480    0.324
        40  -8.8665     85.9836    219.4853   1.2664203395e+02   1.6672280625e+01    0.2322347    0.1760277 -43.17 0.0008509884    1.623    0.384
        41  -9.4305    106.6989    218.5142   1.2182850752e+02   1.3567401379e+01    0.4198771    0.1325301  37.63  0.001441133    3.029    0.670
        42  -8.7462    115.8762    230.8625   1.2156807118e+02   9.3353137109e+00    0.4826569    0.2339933  38.21  0.002114787    1.928    0.481
        43  -8.8174     72.5030    216.2259   1.2924106208e+02   1.9449983202e+01    0.3209243    0.1790494  62.12  0.001474105    1.942    0.485
        44  -9.5229    106.5967    230.1822   1.2351089438e+02   1.1008162433e+01    0.4143679    0.3730138 -25.40  0.002451752    1.397    0.284
        45  -9.2484     54.7593    215.2336   1.3304673064e+02   2.2152655677e+01    0.4425571    0.2282944  74.14  0.001918024    2.416    0.586
        46  -8.5268     51.2010    219.0807   1.3423309262e+02   2.1729434763e+01    0.2806676     0.158593 -59.05  0.001435291    1.783    0.439
        47  -9.8281     63.1924    214.9458   1.3115788692e+02   2.1074377863e+01    0.3754765    0.1858365  39.16  0.001749312    1.976    0.494
        48 -11.8893    111.3110    208.4542   1.1922938718e+02   1.5087532058e+01     1.539036    0.6860803  40.00  0.006157449    2.142    0.533
        49 -10.8269    129.5370    200.9650   1.1369522806e+02   1.3604556157e+01    0.5725945    0.5651497 -12.74  0.003275542    1.088    0.081
        50 -10.4970    116.8457    201.1231   1.1672599265e+02   1.5834257570e+01    0.4689826    0.3424481  31.81 0.0005135165    1.458    0.314
        51 -10.4992    128.7930    207.6979   1.1503085627e+02   1.2203480618e+01    0.5572699    0.3956561 -30.17   0.00262288    1.809    0.447
        52  -8.5194    135.1970    211.3111   1.1416670294e+02   1.0254352896e+01    0.2993541    0.1319004  31.94  0.001092045    2.588    0.614
        53 -11.1671     66.9382    198.3388   1.2820690639e+02   2.4511221563e+01    0.7817936    0.3042907 -62.78   0.00310587    2.364    0.577
        54 -10.2929     71.4976    206.1428   1.2817987462e+02   2.1973678664e+01    0.4048754    0.2991056 -25.89  0.002019524    2.090    0.522
        55 -11.5042     68.7849    203.3715   1.2844384475e+02   2.3029940755e+01     1.017797    0.6969005  -7.82  0.004471829    2.880    0.653
        56  -9.6428     78.1681    206.6280   1.2669982713e+02   2.0870851410e+01     0.489282    0.2364886 -61.59  0.002134679    1.983    0.496
        57  -6.9306    219.2980    207.2957   9.5447929748e+01  -3.6138957496e+00    0.1361543   0.09703368  -7.40  0.000311318    1.569    0.363
        58  -8.6512    151.4428    202.7428   1.0893342747e+02   9.1946356712e+00    0.6908231     0.267903 -56.90  0.002304249    3.209    0.688
        59 -10.5197    123.9740    205.8938   1.1584901442e+02   1.3470231383e+01    0.2387898    0.2071906 -70.98            0    1.185    0.156
        60  -8.7996     38.0130    205.7288   1.3569021904e+02   2.6488133911e+01    0.2501781    0.1470985 -89.83  0.001280593    1.641    0.391
        61  -8.0441    165.6905    202.7948   1.0573466839e+02   6.5630120068e+00    0.3568323    0.2304999 -61.53  0.001598887    1.889    0.471
        62  -9.8422     55.8581    203.7882   1.3147611378e+02   2.4713818061e+01    0.3590614    0.2364192  89.02  0.001387276    1.509    0.337
        63 -10.2508    143.3703    192.2452   1.0884326324e+02   1.3051568936e+01    0.4736334    0.3242206  52.22  0.002179861    1.542    0.352
        64 -10.2131    144.3070    184.1976   1.0706679259e+02   1.4728043054e+01    0.6693336    0.3880884  45.65  0.002824368    1.743    0.426
        65  -8.4148    136.9839    203.4942   1.1239947616e+02   1.1677001022e+01    0.3379433    0.2476683  48.37  0.001204405    1.348    0.258
        66  -9.0858    137.8218    200.2285   1.1162060689e+02   1.2262487540e+01    0.3256868    0.2236811 -78.95    0.0014289    1.983    0.496
        67  -9.7776     97.9520    202.7622   1.2148482054e+02   1.8670686341e+01    0.2823348    0.2410541  67.42  0.001018725    1.126    0.112
        68  -8.6585     56.7656    198.1982   1.3057765762e+02   2.5942954481e+01    0.3196909    0.2508821  -3.24  0.001703977    1.964    0.491
        69  -9.5366     39.5667    201.8341   1.3493300074e+02   2.7229984494e+01    0.2895967    0.1858541  61.94  0.001568459    1.512    0.339
        70  -9.0135     45.3699    199.6690   1.3338257793e+02   2.7047248048e+01    0.2254024    0.1370022  70.32   0.00112401    1.719    0.418
        71  -9.6282    109.1242    198.3182   1.1810137063e+02   1.7843053062e+01    0.2926059    0.2170926 -69.87  0.001208184    1.393    0.282
        72  -7.3984     29.6846    199.3354   1.3686618515e+02   2.8955127781e+01    0.1387585   0.08222208  71.54 0.0003033263    1.692    0.409
        73 -10.0994     80.5331    196.7748   1.2474483950e+02   2.2888334151e+01     0.433541     0.270124  19.18  0.001897184    2.340    0.573
        74  -9.7330     89.1971    194.6852   1.2233402086e+02   2.2041805451e+01    0.3562163    0.2883797  71.92  0.001892585    1.235    0.190
        75  -9.1104     99.1261    195.3216   1.2002342606e+02   2.0262370433e+01    0.2886687    0.1399756  29.34  0.001091087    2.547    0.607
        76 -11.0316    109.5705    192.8732   1.1707305460e+02   1.9069517793e+01    0.4661087    0.4185986 -61.96  0.002538841    1.112    0.101
        77  -9.3973     52.4602    209.5125   1.3291106071e+02   2.3797474865e+01    0.2210801    0.1761944 -38.97  0.001260397    1.681    0.405
        78 -10.8135    130.1699    182.1364   1.1007104377e+02   1.7904762052e+01    0.5367247      0.50075 -48.40  0.002874096    1.089    0.082
        79  -7.8979     55.5029    188.4918   1.2962004847e+02   2.8488727851e+01    0.1399772     0.121033 -87.83 -1.894181e-05    1.004    0.004
        80  -8.3099    104.4923    187.4659   1.1738677199e+02   2.1262745016e+01    0.1495931     0.140509  85.72 1.109664e-05    1.006    0.006
        81  -9.2607     49.9847    185.1750   1.3051731808e+02   3.0016592211e+01    0.2412255    0.1351411  61.70  0.001097728    2.020    0.505
        82  -9.1474    249.7727    180.4709   8.4747322505e+01  -3.5445214566e+00    0.2774091    0.2013468 -55.39 0.0007987748    1.582    0.368
        83  -9.4880    139.2253    179.6428   1.0738134360e+02   1.6770114293e+01    0.4428156    0.2662728  45.05  0.001370995    1.676    0.403
        84  -8.9727    120.5930    180.2433   1.1206828194e+02   2.0146948921e+01    0.2142976    0.1403887 -45.19 0.0004029139    1.581    0.367
        85 -10.1314    115.8226    179.0654   1.1303561507e+02   2.1308170703e+01    0.4152613    0.2507021 -37.63  0.001704288    2.011    0.503
        86  -8.4966     99.3165    179.9659   1.1736587534e+02   2.3997899931e+01    0.2119489    0.1866798 -64.62 0.0004153533    1.095    0.087
        87 -10.2889    114.7395    188.2343   1.1499360307e+02   1.9275606163e+01    0.4060959    0.3074107  72.60  0.001941436    1.519    0.342
        88  -9.3959     55.6062    178.2179   1.2817633544e+02   3.1031867356e+01    0.2642133    0.1606703 -58.64 0.0009298804    1.503    0.335
        89  -8.7956     62.2705    177.5670   1.2639980944e+02   3.0307056606e+01    0.2719421    0.1286149  39.08  0.001155762    2.166    0.538
        90  -8.5050    237.4962    175.4490   8.5855399350e+01  -6.8856605080e-01    0.2449734    0.2140997  19.00  0.001349792    1.256    0.204
        91  -7.9538    101.8705    176.3122   1.1605591614e+02   2.4467059652e+01    0.3122061    0.1212174  44.46   0.00108281    2.624    0.619
        92  -9.9664     51.6572    175.1497   1.2873351317e+02   3.2305159124e+01    0.3631597    0.2191489 -51.39  0.001364194    1.649    0.394
        93 -10.2452     91.0276    166.8785   1.1713084618e+02   2.8664419726e+01    0.6287775    0.3402191 -76.06  0.002312363    2.590    0.614
        94 -10.0837     73.4310    171.9202   1.2263939629e+02   3.0144661702e+01    0.4594389    0.3039216 -80.71  0.002142857    1.641    0.391
        95  -8.0458    247.6517    171.3165   8.3305941148e+01  -1.5669673142e+00    0.1290817    0.1018046 -71.00 0.0007047863    1.727    0.421
        96  -8.1933    238.3866    170.6472   8.4739746654e+01   5.9019306721e-02    0.1873171    0.1515831 -66.62 0.0005895221    1.535    0.348
        97  -8.2559    105.4712    167.5426   1.1346735549e+02   2.6018718370e+01    0.3296305    0.1468534 -55.66  0.001210616    2.171    0.539
        98  -7.7368    159.4999    166.9052   9.9922567864e+01   1.5726134720e+01    0.2232336    0.1504769 -48.09 0.0003479927    1.449    0.310
        99  -9.4543     69.2506    165.2222   1.2261587767e+02   3.2446533975e+01    0.2971835    0.2252862 -60.33 0.0008967071    1.209    0.173
       100  -9.6655     78.4368    169.3162   1.2088819554e+02   3.0051042267e+01    0.3766175    0.2636687 -83.88  0.001780219    1.583    0.368
       101  -9.0131    100.1362    168.0880   1.1496500118e+02   2.6818939445e+01    0.2946308    0.2114947 -64.91  0.001381664    1.381    0.276
       102  -8.3966    206.4760    163.4267   8.9108678517e+01   7.1649944842e+00    0.2618406    0.2285778 -43.28 0.0007038434    1.066    0.062
       103  -7.8764     67.2891    159.7858   1.2220832059e+02   3.4101635001e+01    0.2642178    0.1885802 -18.08  0.001028542    2.041    0.510
       104  -7.9802     92.1802    153.1370   1.1415116947e+02   3.1928168350e+01    0.2137958    0.1964041 -43.26 0.0002746164    1.117    0.105
       105  -8.0313    226.1507    145.9209   8.1763357017e+01   6.9538632097e+00    0.2103294    0.1765232 -62.88 0.0003433589    1.237    0.192
       106  -7.3757    240.7012    140.3648   7.8194845472e+01   5.3556045025e+00     0.141904   0.09874081 -66.76 9.375207e-05    1.724    0.420
       107  -7.3517    168.2722     98.0106   8.1638793357e+01   2.8769493648e+01    0.1858631    0.1294905 -43.48 0.0003908639    1.421    0.296
       108  -9.0160    224.4549     91.1697   7.0293837621e+01   1.7571448971e+01    0.2421268     0.216238 -84.89 0.0002994453    1.097    0.088
       109  -7.5458    111.7351     79.0201   8.9914429500e+01   4.4872600592e+01    0.1855579    0.1782854  -3.75 0.0003138975    1.031    0.031
       110  -7.5092    184.5983     78.1543   7.3599461110e+01   2.8620810218e+01     0.188108    0.1372108 -29.12 0.0004950167    1.633    0.388
       111  -7.4522      1.6872     75.3408   1.2644375336e+02   6.0242279743e+01    0.1061994   0.08781382  80.03 0.0001468681    1.699    0.411
       112  -7.4602     34.5606     66.5590   1.1165376324e+02   5.9377669292e+01    0.1253311    0.1024947 -23.97 0.0001247719    1.007    0.007
       113  -9.0356    124.7160     56.8975   8.0004669518e+01   4.5759936355e+01    0.2326469     0.224604 -83.48 0.0003581826    1.123    0.110
       114  -8.1891     94.8709     52.1371   8.6321514530e+01   5.2652951832e+01    0.1963024    0.1765637  16.93 0.0009065915    1.023    0.022
       115  -8.3443    220.8748     42.3798   6.0436480648e+01   2.5973150260e+01    0.2367192    0.1750437 -44.35  0.001095329    1.404    0.288
       116  -7.5717     91.7231     36.6616   8.2059126253e+01   5.5348297476e+01    0.1302405   0.08946598  16.68 0.0002400057    1.614    0.381
       117  -8.4869     77.3369     29.2312   8.3656311825e+01   5.8923127222e+01    0.1594971    0.1082737 -35.59 0.0004314522    1.679    0.404
       118  -9.2232     84.8932     21.4749   7.8682434338e+01   5.8369498547e+01    0.2380651    0.1830076  32.88 0.0006156181    1.101    0.092
       119  -7.1277     30.2705     22.2953   9.8031955263e+01   6.6833111086e+01    0.1127241   0.07022434  -3.43 0.0002211948    1.518    0.341
       120  -7.4407     50.3787     21.2284   8.9652886266e+01   6.4272269319e+01    0.1393516    0.1014337 -29.86 0.0003954573    1.514    0.339
       121  -9.3154     75.2726     17.9498   8.0152912726e+01   6.0506217000e+01    0.2306691    0.2187905 -26.76 0.0005102766    1.359    0.264
       122  -8.3458    143.3580    248.9638   1.1827584437e+02   1.1633027673e+00    0.1795658    0.1677116  39.16 0.0005074928    1.052    0.050
