#   1 NUMBER                 Running object number                                     
#   2 MAG_AUTO               Kron-like elliptical aperture magnitude                    [mag]
#   3 X_IMAGE                Object position along x                                    [pixel]
#   4 Y_IMAGE                Object position along y                                    [pixel]
#   5 X_WORLD                Barycenter position along world x axis                     [deg]
#   6 Y_WORLD                Barycenter position along world y axis                     [deg]
#   7 A_WORLD                Profile RMS along major axis (world units)                 [deg]
#   8 B_WORLD                Profile RMS along minor axis (world units)                 [deg]
#   9 THETA_WORLD            Position angle (CCW/world-x)                               [deg]
#  10 FWHM_WORLD             FWHM assuming a gaussian core                              [deg]
#  11 ELONGATION             A_IMAGE/B_IMAGE                                           
#  12 ELLIPTICITY            1 - B_IMAGE/A_IMAGE                                       
         1 -14.4636    153.9790     51.6557   2.9042500407e+02   6.2239984106e+00   0.06684088   0.05502138   3.00  0.004799438    1.307    0.235
         2 -14.6091    165.3920     35.6242   2.9019039300e+02   6.3347479506e+00   0.05713378    0.0433357 -40.35  0.004337523    1.370    0.270
         3 -13.9834    179.0747      4.6396   2.8983482486e+02   6.6007491630e+00   0.04844718   0.03137868  27.17   0.00378995    1.520    0.342
         4 -12.0711     13.6730    244.0051   2.9327242290e+02   4.9083623141e+00   0.01884896   0.00640586 -55.27  0.001434036    2.749    0.636
         5 -19.8468     70.1679    168.1575   2.9213785365e+02   5.4213263904e+00      0.95698    0.3681387 -63.57   0.07396589    2.811    0.644
         6 -10.5475    159.6819    198.3046   2.9127994073e+02   4.5223858623e+00  0.009589982  0.006014438 -50.85 0.0004184647    1.589    0.371
         7 -11.0719    158.8769    194.4081   2.9126491601e+02   4.5716862768e+00   0.01258084  0.009942719  71.32  0.000844621    1.496    0.331
         8 -12.1989    135.3547    195.8227   2.9154869617e+02   4.7019081488e+00   0.01689614   0.01159562  74.48  0.001051269    1.972    0.493
         9 -11.3237     21.2776    235.1749   2.9312848886e+02   4.9617972340e+00  0.009543945  0.008255741 -30.08 0.0007162876    1.205    0.170
        10 -12.0623    169.9462    195.1178   2.9114003024e+02   4.4947309342e+00   0.01666136   0.01090042 -61.51  0.001463269    1.565    0.361
        11 -11.2942    166.2498    189.2698   2.9114653849e+02   4.5842053961e+00   0.02194524   0.01174095  69.29  0.001571203    3.776    0.735
        12 -11.0093     39.5635    194.7715   2.9266244416e+02   5.3082751369e+00   0.01771845   0.01170992  24.37  0.001262013    1.517    0.341
        13 -13.5061    207.5039    183.5229   2.9062858590e+02   4.3925647335e+00   0.03777583   0.02377819 -85.94  0.001311867    2.223    0.550
        14 -13.0484    210.4984    181.5378   2.9058115389e+02   4.3964533522e+00   0.02249146   0.01594812 -47.45  0.001770033    1.425    0.298
        15 -10.2336     15.2159    189.0501   2.9291161507e+02   5.5240287009e+00  0.009039718    0.0081037 -17.07 0.0003639097    1.163    0.140
        16 -10.5295    157.5860    184.7569   2.9121947736e+02   4.6894214375e+00  0.009101388  0.006564083 -78.01 0.0007968011    1.613    0.380
        17 -12.0623    110.1356    231.6227   2.9206756631e+02   4.4515349802e+00   0.02565314   0.01486515 -74.47  0.002345688    2.140    0.533
        18 -12.1752     27.9035    183.6848   2.9272961464e+02   5.5065717439e+00   0.01534148   0.01381775  74.82 0.0005099303    1.211    0.174
        19 -11.6336     25.9131    231.6714   2.9305244444e+02   4.9729819829e+00   0.01239007  0.009023445 -46.53 0.0008295112    1.391    0.281
        20 -11.9176    197.7033    176.2528   2.9069738794e+02   4.5362397906e+00   0.02144174   0.01580149 -84.26  0.001540767    1.637    0.389
        21 -11.2150    124.8496    228.5082   2.9187613943e+02   4.3955706071e+00   0.02024664   0.01328037  71.15 0.0009077646    2.132    0.531
        22 -12.4119    178.9980    174.5697   2.9090533771e+02   4.6718974871e+00   0.02091763   0.01408317 -50.86   0.00165271    1.484    0.326
        23 -11.0133    177.4899    169.4729   2.9089096292e+02   4.7392113053e+00   0.01146376  0.006578025 -61.10 0.0008311426    1.778    0.438
        24 -12.0579    137.4172    172.0115   2.9137530827e+02   4.9597822062e+00   0.03023396   0.01543414  42.07  0.002728237    1.985    0.496
        25 -12.5143    146.0637    170.2082   2.9126290131e+02   4.9264922719e+00   0.03161463   0.01926781  64.71  0.002837588    2.335    0.572
        26 -11.8310    226.6767    168.5871   2.9031091224e+02   4.4426916456e+00   0.02569477   0.01445207  84.89  0.001946818    3.437    0.709
        27 -11.8532    112.3593    168.8733   2.9164868593e+02   5.1512452312e+00   0.02482283   0.01339545  46.68   0.00175831    2.016    0.504
        28 -10.4492     34.1591    168.3202   2.9256034717e+02   5.6426236212e+00   0.01040814  0.008643941 -42.62 0.0003660423    1.225    0.183
        29 -10.4452    123.7446    166.7955   2.9150248882e+02   5.1041019928e+00   0.01230578  0.007525562  51.42 0.0005030355    1.864    0.464
        30 -10.9520    205.9536    170.2900   2.9056357954e+02   4.5525651052e+00   0.02170429    0.0132558 -14.45  0.001905053    2.430    0.589
        31 -11.0084    140.2048    249.6744   2.9182917183e+02   4.0595328857e+00    0.0149733    0.0115196  73.25 0.0007033513    1.576    0.366
        32 -11.1887    200.2340    164.0764   2.9059134883e+02   4.6588087478e+00   0.01645752   0.01311734  70.34  0.001351009    1.470    0.320
        33 -10.8088    220.4356    227.9516   2.9075645967e+02   3.8072585777e+00   0.01027347  0.006590681 -62.23 0.0008401663    1.605    0.377
        34 -10.4191     14.5236    157.0847   2.9271998725e+02   5.8919323633e+00   0.01016832  0.008829233  25.56 0.0004747802    1.132    0.116
        35 -12.9675    134.3767    148.1961   2.9126144278e+02   5.2494137183e+00   0.03125819   0.01466254 -72.12  0.002465446    2.861    0.650
        36 -13.4037    133.5045    142.9979   2.9123901577e+02   5.3139245533e+00   0.03631941   0.01558068 -71.41  0.002674725    3.275    0.695
        37 -11.0451    174.3440    148.5144   2.9079610400e+02   4.9969676032e+00   0.01529519   0.01249669 -83.04  0.001195317    1.382    0.277
        38 -12.6262    153.2410    145.4952   2.9102386101e+02   5.1627074196e+00    0.0194471   0.01485568  42.97  0.002152522    1.320    0.242
        39 -10.8421      4.2974    228.1079   2.9328299298e+02   5.1471698583e+00   0.00599235  0.004080105  16.41 0.0002537108    1.574    0.365
        40 -11.8284     13.4615    143.9899   2.9265053348e+02   6.0474403689e+00    0.0150339   0.01087436 -81.65  0.001565238    1.651    0.394
        41 -13.4771    143.4890    144.0947   2.9112911508e+02   5.2393292859e+00   0.03918652   0.02144931 -87.24  0.003027376    3.259    0.693
        42 -10.5474    101.0595    224.4792   2.9212897059e+02   4.5891104592e+00  0.009226432  0.008782491  36.42 0.0008099868    1.045    0.043
        43 -12.4923      7.8107    139.4716   2.9268846302e+02   6.1337730021e+00   0.02536409   0.01478132  22.13  0.002425174    1.786    0.440
        44 -10.7153    110.1470    222.9151   2.9201297000e+02   4.5504805228e+00  0.009691739  0.008644016  65.50 0.0004450703    1.211    0.174
        45 -10.4286     20.8742    219.1837   2.9303348524e+02   5.1462163078e+00  0.008908399  0.008234595  57.05 0.0003955321    1.128    0.113
        46 -13.6499    135.3831    122.5985   2.9108893077e+02   5.5340766541e+00   0.07232559   0.01868709 -66.35  0.003776147    6.293    0.841
        47 -11.7714    160.1955    128.4330   2.9083534463e+02   5.3132857476e+00   0.01868519   0.01317918 -45.68  0.001986272    1.444    0.307
        48 -10.2533    139.4226    216.6454   2.9163159367e+02   4.4398856516e+00   0.01669163  0.009673201  76.35  0.001320868    3.097    0.677
        49 -10.7137     22.8922    240.2348   2.9314115171e+02   4.8942477582e+00  0.008547676  0.007704858  10.34 0.0003149043    1.120    0.107
        50 -10.5033    239.3220    126.6874   2.8989977552e+02   4.8395728828e+00  0.006983621  0.005022682  61.32  0.000314516    1.654    0.396
        51  -8.6192     13.0736    212.0711   2.9308035902e+02   5.2753744688e+00  0.009438081  0.006723956 -31.23 0.0003130112    1.580    0.367
        52  -9.7530      3.1474    211.4780   2.9319277644e+02   5.3434786387e+00  0.006867583  0.004091159 -45.36 0.0002905477    1.732    0.423
        53 -11.8287    134.4748    104.5497   2.9098613874e+02   5.7448167375e+00   0.02956023  0.007208533 -62.89  0.001757034    4.678    0.786
        54 -10.2762     30.6812    204.9752   2.9283009576e+02   5.2471838581e+00  0.009291788  0.008191874 -13.05  0.001089668    1.196    0.164
        55 -12.2209      4.2128    112.2428   2.9256021497e+02   6.4656517113e+00   0.02511749   0.01358768  14.98  0.002200469    2.241    0.554
        56 -10.9732    209.3346    235.3112   2.9093214454e+02   3.7927809032e+00   0.00706153  0.005022248 -22.83 0.0005743095    1.680    0.405
        57 -10.8374    205.4513    110.1816   2.9019150441e+02   5.2384303163e+00   0.01444564  0.009829327  15.00 0.0008934397    1.602    0.376
        58 -11.7514    182.2110    189.2227   2.9095976558e+02   4.4853695315e+00   0.01437406   0.01044565  41.80 0.0007369951    1.379    0.275
        59 -13.8307    179.4779    195.2304   2.9102938386e+02   4.4341140465e+00   0.03776106   0.03030544 -11.04  0.004230455    1.400    0.286
        60 -10.4877    155.4231    104.9956   2.9074382524e+02   5.6092920845e+00  0.009708944  0.008661908  26.81  0.000136242    1.099    0.090
        61 -10.8750    124.3667     94.8825   2.9104368480e+02   5.9175629182e+00   0.01092374  0.008869507  39.64 0.0004489124    1.222    0.182
        62 -12.4760    177.5357    189.4962   2.9101609835e+02   4.5113737720e+00   0.01844204   0.01380459  45.58  0.001169343    1.371    0.271
        63 -11.0854      6.8175    248.7050   2.9338183464e+02   4.8972664285e+00  0.006296266  0.004617726 -39.80 0.0005911448    1.430    0.301
        64 -12.8880    168.8757     28.4392   2.9010432118e+02   6.3945236238e+00     0.021373   0.01598189 -47.62  0.000987388    1.350    0.259
        65 -10.5247     13.5328     59.9592   2.9212318820e+02   7.0022373369e+00  0.009945492  0.008876992  27.29  0.000390787    1.099    0.090
        66 -10.3084    125.0000    245.9960   2.9198376945e+02   4.1958025685e+00   0.00956139  0.003810928 -61.13 0.0003566293    2.554    0.608
        67 -10.8655    143.8127     33.6652   2.9043068229e+02   6.4915554391e+00   0.01523726  0.008811628  40.19  0.001464487    1.712    0.416
        68 -10.7319    189.5139     14.9423   2.8977768467e+02   6.4187254793e+00   0.01009625  0.006586731 -60.24 0.0007666463    1.558    0.358
