#   1 NUMBER                 Running object number                                     
#   2 MAG_AUTO               Kron-like elliptical aperture magnitude                    [mag]
#   3 X_IMAGE                Object position along x                                    [pixel]
#   4 Y_IMAGE                Object position along y                                    [pixel]
#   5 X_WORLD                Barycenter position along world x axis                     [deg]
#   6 Y_WORLD                Barycenter position along world y axis                     [deg]
#   7 A_WORLD                Profile RMS along major axis (world units)                 [deg]
#   8 B_WORLD                Profile RMS along minor axis (world units)                 [deg]
#   9 THETA_WORLD            Position angle (CCW/world-x)                               [deg]
#  10 FWHM_WORLD             FWHM assuming a gaussian core                              [deg]
#  11 ELONGATION             A_IMAGE/B_IMAGE                                           
#  12 ELLIPTICITY            1 - B_IMAGE/A_IMAGE                                       
         1 -14.8645      6.6391     25.1781   1.2528045394e+02   6.8989328575e+01     1.748632     0.719037 -52.79  0.009028729    1.866    0.464
         2 -12.8157     80.3155     31.6518   9.8566076337e+01   5.8922267148e+01    0.6738393    0.6089693 -62.28  0.003006677    1.514    0.339
         3 -13.1621     83.1635     22.4489   9.3780132692e+01   5.9696847532e+01    0.8494685    0.5956766  51.85  0.004399295    1.635    0.388
         4 -13.6254    123.6381     10.3940   7.8347406991e+01   5.2399058886e+01     1.708523      0.89859  59.89  0.005044024    1.808    0.447
         5 -12.0869     73.3444      1.4106   8.7182849979e+01   6.3943411909e+01    0.3224939    0.2532901  52.28 0.0003992213    1.476    0.323
         6 -12.1747     75.4959     13.4083   9.2182677051e+01   6.2244762827e+01    0.3521111    0.3241165 -19.91 0.0009864394    1.271    0.213
         7 -14.4673     85.8206     11.7593   8.8264190082e+01   6.0486112031e+01     2.847501    0.5232718  48.88  0.009154134    4.363    0.771
         8 -14.1693     96.3552      3.8027   8.1845361222e+01   5.9140805620e+01     1.500052    0.6037844  59.71  0.006317254    2.603    0.616
         9 -13.9065     86.5037      4.0564   8.4569484647e+01   6.1148411421e+01     1.553079     0.349594  46.91  0.005519126    3.543    0.718
        10 -11.0977    150.2039     19.9791   7.6781253388e+01   4.4924483001e+01    0.4458118    0.3539703  30.30  0.001751399    1.272    0.214
        11 -11.6937     64.0594     17.9362   9.8143458545e+01   6.3632307895e+01    0.3459824    0.2471868  32.91 0.0008742089    1.411    0.291
        12 -11.9003    185.9457     11.8147   6.8780142209e+01   3.6599920360e+01    0.4638738    0.4351631 -71.87  0.001976767    1.068    0.063
        13 -10.2408    150.1590      8.4155   7.2765909263e+01   4.6086697609e+01    0.3311927    0.1957619  61.31  0.001143307    1.539    0.350
        14 -11.0184    193.0248      6.2968   6.6318237041e+01   3.5316049074e+01    0.3866383     0.193674 -27.67  0.001315726    2.020    0.505
        15 -11.8463    137.4492      5.1293   7.3725859250e+01   4.9546074237e+01    0.6032757    0.3577413  55.01  0.002560275    1.494    0.331
        16 -10.5477    142.8239      2.6036   7.1904464777e+01   4.8430427146e+01    0.3448384    0.2381183  88.49  0.001547304    1.709    0.415
        17  -9.4504    158.5503      4.9940   7.0313448947e+01   4.4265187881e+01     0.193633     0.136152 -19.72  0.000548083    1.524    0.344
        18 -11.5252     33.3788      3.9442   1.0355746457e+02   6.9874928732e+01    0.3418634    0.2354863  13.58   0.00123011    1.388    0.280
        19 -11.8643     36.8055    178.8789   1.4330606451e+02   3.4003328462e+01    0.3874796    0.3469799 -54.05  0.002150791    1.517    0.341
        20 -10.9770     42.1164    175.8435   1.4196558139e+02   3.4041554398e+01    0.2678905    0.1916011  69.32  0.001084377    1.211    0.174
        21 -10.4101     47.2355    176.3314   1.4098037638e+02   3.3362895625e+01    0.2201323    0.1126737 -63.18  0.001237288    1.828    0.453
        22 -11.5307     54.2363    171.0380   1.3897831728e+02   3.3631025295e+01    0.5360569    0.2806229  61.74  0.002173034    1.964    0.491
        23 -11.0956     45.9345    166.8912   1.4026652933e+02   3.5468362062e+01    0.3177884    0.2329932  51.39  0.001195292    1.356    0.262
        24  -9.2901     12.9778    174.4851   1.4758021478e+02   3.7220544693e+01     0.157918   0.05801837  56.13 0.0008103589    2.567    0.610
        25 -10.0201     48.5360    160.8050   1.3903209955e+02   3.6458114237e+01    0.1968248    0.1633885  49.86 0.0008997857    1.308    0.235
        26 -10.7954      8.3361    159.8577   1.4740001846e+02   4.0590994536e+01    0.3629111    0.1363153  36.62  0.002008562    2.725    0.633
        27  -9.7654     13.1487    153.8057   1.4591175691e+02   4.1451259108e+01    0.1717273    0.1199047  79.59 0.0006408134    1.195    0.163
        28 -10.0162    103.8758    151.5957   1.2517622904e+02   3.0660188105e+01    0.2115514    0.1764502 -53.28 0.0003722546    1.235    0.190
        29 -12.4863     59.7448    145.9786   1.3458993948e+02   3.8330016524e+01     1.953664    0.8969412  71.08  0.006904105    4.403    0.773
        30 -12.7340     55.1781    124.5993   1.3241676394e+02   4.3649820794e+01    0.9369155    0.5547771 -34.59  0.003843767    2.447    0.591
        31 -11.7894     49.8421    124.1207   1.3371594730e+02   4.4376473763e+01    0.7972243    0.3121132 -75.89  0.001923236    3.587    0.721
        32 -12.3562     46.1992    125.1779   1.3481885407e+02   4.4543975365e+01     0.759526    0.3731067 -61.55 0.0006624589    1.701    0.412
        33 -10.1614     43.9769    149.4981   1.3870173781e+02   3.9404431876e+01    0.1565075    0.1183415  37.86  0.000457238    1.533    0.348
        34 -10.3835     40.7586    143.9632   1.3875806497e+02   4.0959027612e+01    0.1838253    0.1638303  63.27 0.0002859793    1.222    0.182
        35 -11.3867      6.0374    143.0577   1.4650626330e+02   4.4283345976e+01    0.2794073    0.2588289  81.48  0.001489603    1.303    0.233
        36 -12.8057     10.0670    130.2016   1.4437471923e+02   4.6734042254e+01    0.3913927    0.3175562  24.95   0.00254976    1.654    0.396
        37 -11.1591     81.3379    130.9593   1.2686077770e+02   3.8729403056e+01    0.3334105    0.2063714 -55.63  0.001705326    1.494    0.331
        38 -11.6374    125.9731    128.6406   1.1533224870e+02   3.1570075569e+01    0.4719662    0.3711612  -8.64  0.002322346    1.736    0.424
        39 -11.5656     67.4387    128.2989   1.2990248386e+02   4.1275395061e+01    0.3623706    0.3306076 -86.44  0.001336067    1.061    0.057
        40  -9.7108      1.3519    126.0231   1.4601272548e+02   4.8250929306e+01    0.1693704   0.08067068 -74.93 0.0005496881    1.581    0.368
        41 -11.4889    137.5311    122.5693   1.1116252878e+02   3.0526723061e+01    0.2765944    0.2539656 -54.20  0.001508611    1.090    0.082
        42 -11.9982     51.8670    144.1219   1.3618195281e+02   3.9688660252e+01    0.6170737    0.3267062  53.25  0.003225566    1.998    0.500
        43 -11.1235     57.0069    119.9760   1.3114715402e+02   4.4471086941e+01     0.188636    0.1615344 -71.37  0.001196426    1.003    0.003
        44 -10.2720    154.9997    118.4688   1.0611564409e+02   2.7639191467e+01    0.2274381    0.1481564  49.25 0.0003787555    1.547    0.354
        45  -9.5726    233.1975    117.5982   9.0680862671e+01   1.0369948054e+01    0.1959467    0.1267669  37.08 0.0005764404    1.632    0.387
        46  -9.9176    125.6027    113.8439   1.1192371505e+02   3.4762920979e+01     0.200449    0.1826048  28.48 0.0005273257    1.168    0.144
        47 -10.8042     79.7126    109.9760   1.2304112097e+02   4.3659796757e+01    0.3141152    0.2238424 -31.57  0.001130685    1.688    0.408
        48  -9.9591      5.5247    108.0168   1.4302485282e+02   5.1880028784e+01    0.1868701    0.1488187 -23.49  0.001345134    1.690    0.408
        49 -13.6407     17.5724    101.1728   1.3882031712e+02   5.2542665451e+01     0.441412    0.3735222 -62.62  0.002042649    1.129    0.114
        50 -12.0086     58.6670     98.5806   1.2649524830e+02   4.9074722940e+01    0.4990275    0.2992598 -52.35  0.001858396    1.438    0.305
        51 -13.0937     55.4034     94.5468   1.2657211141e+02   5.0368474312e+01    0.6592973    0.4191728 -28.78  0.002021559    2.039    0.510
        52 -10.7134     31.9620    100.6427   1.3464971458e+02   5.1468244714e+01     0.235814    0.1937795  31.40  0.001045563    1.492    0.330
        53 -10.5583      5.3655     98.3069   1.4182627266e+02   5.4009144589e+01    0.3287339    0.1547759 -71.01  0.001850931    1.617    0.381
        54 -10.2858     81.6072     95.2651   1.1904688664e+02   4.6620238527e+01    0.2514495    0.2081166  79.45 0.0006453706    1.464    0.317
        55 -10.3359     70.0753     95.7013   1.2250378069e+02   4.8216074642e+01    0.2425544    0.1740338 -49.12 0.0003781662    1.242    0.195
        56 -11.1837    188.1479     94.1802   9.2690393966e+01   2.4486835585e+01     0.415102     0.328148 -75.73   0.00170258    1.638    0.389
        57 -10.0993    164.1864     92.7711   9.7208638710e+01   3.0457617982e+01    0.2792217     0.200693 -44.38  0.001285702    1.408    0.290
        58  -9.3971      2.9825     92.9464   1.4176740720e+02   5.5319829768e+01    0.1354216    0.1072022 -70.02  0.000911596    1.054    0.052
        59  -9.9779     44.5549     89.3603   1.2871159967e+02   5.2739386128e+01    0.3223301   0.09689499 -56.45  0.001279683    2.595    0.615
        60 -11.1325    152.4588     88.3111   9.8539955697e+01   3.4031928515e+01    0.3001215    0.2702181  66.01 0.0006851231    1.200    0.167
        61 -10.7730    249.7109     86.5105   8.0611849827e+01   1.1475462581e+01    0.2834105    0.2251803 -34.30 0.0007122247    1.141    0.123
        62 -11.0103     89.6211     86.3370   1.1436117171e+02   4.7245232890e+01    0.3074283    0.2627518  41.47  0.001022583    1.277    0.217
        63  -9.5624     38.7033     87.3124   1.3007429391e+02   5.3788141037e+01    0.1204955   0.09033205  85.68 0.0003165869    1.600    0.375
        64  -9.6655      1.3152     86.8646   1.4138987407e+02   5.6732397746e+01    0.1667638     0.071196 -62.13 0.0004200218    1.670    0.401
        65 -10.6752     26.0970     85.3972   1.3359708031e+02   5.5349428670e+01    0.2113697    0.1294933 -54.75 0.0005533089    1.306    0.234
        66 -11.5224    128.5420     82.9881   1.0272980468e+02   4.0419033207e+01    0.3937368    0.3231474  36.95 0.0008667666    1.260    0.206
        67  -9.0102     54.6784     82.3040   1.2392105749e+02   5.3140430047e+01    0.1253391   0.09838501  85.92 0.0003576033    1.634    0.388
        68  -9.5800     95.8848     95.3543   1.1501599232e+02   4.4262782256e+01    0.1842971     0.179205   0.52 0.0003516232    1.097    0.089
        69 -10.5264    143.5504     81.0715   9.8469056867e+01   3.7434620463e+01     0.275731    0.2219511  75.13 0.0007497955    1.521    0.343
        70 -10.3275     67.4912     81.0663   1.1958399328e+02   5.1751507321e+01    0.2399689    0.1790761  55.38 0.0009328602    1.670    0.401
        71 -10.6998     42.0099     78.2084   1.2697503864e+02   5.5440366148e+01    0.2934025    0.1960874 -31.06  0.001025383    1.643    0.391
        72 -10.0032     46.8924     75.5934   1.2473741679e+02   5.5480899318e+01    0.2544143    0.1574726 -58.98 0.0007809591    1.435    0.303
        73 -11.3204    144.6310     73.8109   9.5991833117e+01   3.8500470327e+01    0.3045821    0.2531201  53.18 0.0002948153    1.241    0.194
        74 -12.8798     96.7135     71.7677   1.0796600666e+02   4.8971408895e+01    0.7220588    0.3836058  37.73  0.001430678    2.062    0.515
        75 -10.2430    120.8105     72.9161   1.0162477071e+02   4.3987318999e+01     0.224881    0.1952919  -6.10 0.0004808318    1.207    0.171
        76  -9.1531    182.8249     72.6190   8.7603775124e+01   2.9402115190e+01    0.1954896    0.1477987  70.22 0.0002081997    1.485    0.327
        77  -9.2667     37.8138     72.3488   1.2693412603e+02   5.7119332557e+01    0.1435698    0.1146904  -2.24 0.0001492271    1.510    0.338
        78 -10.9467     83.2247     68.4867   1.1099796771e+02   5.1961306606e+01    0.2450313    0.2121055 -36.92 0.0003316349    1.046    0.044
        79  -9.9560    210.0296     68.5184   8.1752015915e+01   2.3292325967e+01     0.225855    0.1448063  56.79  0.001028364    1.592    0.372
        80 -10.9949    146.9865     65.5610   9.2846842925e+01   3.9372068611e+01    0.3528341    0.2256123 -35.63  0.001571999    1.539    0.350
        81  -9.7906     19.6528     66.2330   1.3167912422e+02   5.9982350876e+01    0.1753557     0.135454  38.69 0.0005109742    1.641    0.391
        82  -9.9331    130.4319     65.5134   9.6770199037e+01   4.3224045602e+01     0.149713    0.1412049  -7.13 0.0008064716    1.021    0.021
        83 -10.5004    104.2559     64.8476   1.0354421656e+02   4.8865044383e+01    0.3456602    0.2391282  45.18  0.001710472    1.531    0.347
        84  -9.8130     61.2386     65.0320   1.1702103526e+02   5.5936273967e+01      0.18401    0.1534129 -39.81 0.0004029422    1.029    0.028
        85 -11.2793    214.4191     61.9910   7.9288508274e+01   2.3172899846e+01    0.4749451    0.3550053 -18.94   0.00236755    1.405    0.288
        86 -10.4779    170.4088     62.6677   8.6998075400e+01   3.4092299939e+01    0.2981611    0.1853021  52.99 0.0007590372    1.588    0.370
        87 -10.1400    135.2442     63.4123   9.4900357279e+01   4.2491285878e+01    0.2004346      0.14711  63.84 0.0005025109    1.574    0.365
        88 -10.4929     52.2928     62.5846   1.1932402205e+02   5.7570653193e+01    0.3529866    0.2175898  16.45   0.00112343    2.104    0.525
        89 -12.7985    125.5801     57.4750   9.5303416519e+01   4.5687295928e+01    0.3515622    0.3137386   5.75 0.0001880403    1.120    0.107
        90 -10.0131    174.6181     56.4944   8.4295495924e+01   3.3977010691e+01    0.2549362    0.2273172 -12.38 0.0005619738    1.155    0.134
        91 -12.0695     68.8087     55.2305   1.1131224466e+02   5.6787638994e+01     0.371238    0.3359669  31.90  0.001344355    1.262    0.208
        92 -11.4791    210.1843     54.7468   7.7912494221e+01   2.5243865195e+01     0.352569     0.260138  34.01  0.001094445    1.549    0.355
        93 -11.4990    133.6691     53.9081   9.2095879526e+01   4.4424404416e+01    0.4889546    0.3166143  66.80  0.001589788    1.926    0.481
        94 -12.9625      3.3233     47.0249   1.3312435808e+02   6.4992543604e+01    0.5533617    0.4682198 -88.66  0.001931896    1.463    0.317
        95 -13.4988    182.4310    221.4859   1.2069435741e+02   4.4131618915e+00     1.127871    0.7904279  47.96  0.007008603    1.305    0.234
        96  -9.8932    156.1783     52.6166   8.6667748911e+01   3.9193576167e+01    0.2199703    0.1319722  46.18 0.0006042051    1.650    0.394
        97 -11.4348    145.4202     50.8041   8.8351964471e+01   4.2111055499e+01    0.3291603    0.2738215 -20.27 0.0006550883    1.210    0.174
        98 -10.5692     38.0884     27.4849   1.1240597843e+02   6.5773109838e+01    0.2683212    0.1963267  54.13  0.001341365    2.307    0.567
        99 -12.3930     42.0585     33.4426   1.1317268862e+02   6.4296671593e+01    0.6450549    0.6033313 -74.89  0.003586673    1.553    0.356
       100 -13.0477     42.5895     47.3831   1.1800617470e+02   6.1690754271e+01    0.5489644    0.4077442  -5.36  0.001782602    1.488    0.328
       101 -12.6035     42.2261     42.4456   1.1644523499e+02   6.2659989595e+01    0.5256243    0.3314309   2.25  0.002014417    2.047    0.511
       102 -10.8655    176.5393     45.2797   8.0475986797e+01   3.5093386132e+01    0.2685141    0.2580181  50.70  0.000505642    1.026    0.025
       103 -11.6980    157.3241     43.7614   8.3528261757e+01   4.0188323088e+01    0.3653584    0.2816423  33.55 0.0008218467    1.347    0.258
       104  -9.4126    138.5789     45.2023   8.7955797299e+01   4.4594284077e+01    0.2006878    0.1403263 -11.79  0.000928634    1.597    0.374
       105  -9.5348    202.6863     44.3251   7.6059869224e+01   2.8540582235e+01    0.1542936    0.1061288 -61.92  0.000704196    1.664    0.399
       106 -10.0752     95.8096     42.5547   9.8079415910e+01   5.4359052542e+01    0.2060187     0.185784 -43.06 0.0004998011    1.249    0.200
       107 -10.4688    197.3560     41.2027   7.5931939729e+01   3.0303145021e+01    0.2543334    0.2296337  72.79 0.0006128139    1.106    0.096
       108 -10.5751    102.0870     41.5314   9.5867937470e+01   5.3272789074e+01    0.2475484    0.1908228 -26.17 0.0003321011    1.230    0.187
       109 -10.6784    217.3037     38.6681   7.2513279517e+01   2.5606076583e+01    0.3599482    0.2149322  47.57  0.001071315    1.802    0.445
       110  -9.2398     53.9943    224.0847   1.4389010281e+02   2.3489500035e+01    0.1246026   0.09272864  79.70 0.0003299275    1.108    0.097
       111 -10.6947    140.0812    221.7177   1.2837225955e+02   1.1469157763e+01    0.2625947    0.2068864 -40.00  0.001290137    1.617    0.381
       112 -13.3664     85.3431    208.8760   1.3695460779e+02   2.2098269846e+01     1.343216    0.7930678  85.01  0.007596516    1.964    0.491
       113 -12.5009    160.6180    220.9743   1.2454096501e+02   8.1713646318e+00    0.8208886    0.3821944  54.82  0.003822061    2.418    0.586
       114 -11.6203      2.3175    208.9323   1.5151806905e+02   3.1612504753e+01    0.3701129    0.3081297 -76.50   0.00265011    1.501    0.334
       115 -11.5736      9.3531    210.8710   1.5047272368e+02   3.0624080173e+01    0.3255205    0.1659011  61.38   0.00226641    1.531    0.347
       116 -11.6002     13.5348    208.8255   1.4967258506e+02   3.0599616954e+01    0.2297892    0.2182895  81.62  0.001802359    1.563    0.360
       117 -11.0516    176.4615     33.4440   7.6788239991e+01   3.6653777279e+01    0.2935385    0.2454696  48.31 0.0006134361    1.173    0.147
       118 -10.7293     44.6901    208.4900   1.4430575762e+02   2.7387157825e+01    0.2184084    0.1630361  73.62 0.0009797363    1.017    0.016
       119  -9.7374    109.1575     28.3334   8.8814028636e+01   5.3665827591e+01    0.2322631      0.15898  31.40  0.001174839    1.459    0.314
       120 -11.1493    241.9818     23.1650   6.5803552760e+01   2.1516937850e+01    0.3755702    0.2715099 -77.56  0.001210886    1.419    0.295
       121 -11.6721     82.0190    222.3280   1.3889843853e+02   2.0176626104e+01     0.358711     0.182203  84.98  0.001820928    2.734    0.634
       122 -10.3685    139.5698     20.4874   7.8942415608e+01   4.7517299827e+01    0.2426903    0.2240982  37.01 0.0002270248    1.009    0.009
       123 -11.5851     35.5054    207.0801   1.4581455117e+02   2.8676923252e+01    0.4044999    0.1464529  48.50  0.002227549    2.256    0.557
       124  -9.8385    208.8892     18.1229   6.7880014069e+01   3.0104887921e+01    0.2121021    0.1757851 -74.28 0.0007306774    1.196    0.164
       125 -10.3080     37.3503     16.4227   1.0791668264e+02   6.7623927648e+01    0.2221362    0.1515479 -25.01  0.001139977    1.187    0.158
       126 -13.5280     70.8873    202.1164   1.3896121312e+02   2.5333813011e+01     1.318305    0.6417266  81.35   0.00618066    2.902    0.655
       127  -9.7960     53.4894     10.5126   9.8547895196e+01   6.6261385254e+01    0.1236958   0.09985704  -6.08  2.45446e-05    1.024    0.023
       128 -10.8466     77.2202    219.1224   1.3944720092e+02   2.1388423570e+01    0.3959444     0.189587  68.79  0.002021759    2.464    0.594
       129 -10.4718     53.3009    201.0210   1.4213384429e+02   2.7770673816e+01    0.2657314    0.1636971  82.55  0.001348461    1.488    0.328
       130 -11.6390     27.9788    219.5947   1.4791918508e+02   2.7219551099e+01    0.3806126    0.2340775 -81.91  0.002800266    1.434    0.303
       131 -10.9036     68.9541    184.8148   1.3750297665e+02   2.8951491721e+01    0.4035775    0.2142284  47.88  0.002243508    1.723    0.420
       132 -10.7306     49.6923    182.0155   1.4105435157e+02   3.1922082427e+01    0.1821356    0.1718713 -19.85  0.001342687    1.611    0.379
