#   1 NUMBER                 Running object number                                     
#   2 MAG_AUTO               Kron-like elliptical aperture magnitude                    [mag]
#   3 X_IMAGE                Object position along x                                    [pixel]
#   4 Y_IMAGE                Object position along y                                    [pixel]
#   5 X_WORLD                Barycenter position along world x axis                     [deg]
#   6 Y_WORLD                Barycenter position along world y axis                     [deg]
#   7 A_WORLD                Profile RMS along major axis (world units)                 [deg]
#   8 B_WORLD                Profile RMS along minor axis (world units)                 [deg]
#   9 THETA_WORLD            Position angle (CCW/world-x)                               [deg]
#  10 FWHM_WORLD             FWHM assuming a gaussian core                              [deg]
#  11 ELONGATION             A_IMAGE/B_IMAGE                                           
#  12 ELLIPTICITY            1 - B_IMAGE/A_IMAGE                                       
         1 -14.9893    167.9036     43.6416   7.3226431020e+01   3.7950584049e+01     1.221949     1.098383   5.54  0.004067065    1.349    0.259
         2 -15.1405    188.3752      9.8730   6.1532953402e+01   3.7031158582e+01     2.647187     1.004307  65.96  0.008254337    2.180    0.541
         3 -10.3109    138.7609    243.3183   1.2432212156e+02   4.0532937754e+00    0.1875547    0.1494949 -62.53 0.0006807647    1.438    0.305
         4 -15.0680    100.6299    243.6453   1.3188862127e+02   1.0270282396e+01    0.7922035    0.5839763 -53.35  0.004784832    1.643    0.391
         5 -19.8750     62.1159    168.7028   1.3054149767e+02   3.2708440398e+01     18.88882      6.73972 -66.07   0.07157807    2.640    0.621
         6 -12.0127    151.6711    191.1622   1.1316978424e+02   1.2105552156e+01    0.5724354    0.3971638  79.44  0.002504404    2.099    0.524
         7 -12.4773    154.9495    187.5419   1.1175001341e+02   1.2245594210e+01    0.4295442    0.3281762  56.76 0.0009027945    1.356    0.262
         8 -11.5777    151.1757    183.1467   1.1175497286e+02   1.3946050416e+01    0.3249542    0.2591347 -83.16 0.0004023987    1.502    0.334
         9 -14.0360    145.2047    175.0305   1.1153196853e+02   1.6940557851e+01     1.659441    0.7690029 -56.97  0.006088057    2.443    0.591
        10 -10.3530    121.2493    197.8144   1.2120651835e+02   1.6360820838e+01    0.1827225    0.1652398 -63.51 0.0003793906    1.151    0.131
        11 -10.1578    112.6511    196.3328   1.2291329279e+02   1.8223492509e+01    0.4203668    0.2951365  -6.67  0.001755429    2.861    0.650
        12 -10.9375    103.2969    195.3203   1.2488020314e+02   2.0069226939e+01    0.3443855    0.2462511  65.98  0.001752618    1.430    0.301
        13 -12.9360    164.4086    186.2166   1.0938560818e+02   1.0662900829e+01    0.5391031    0.3612659 -44.95  0.002158659    1.538    0.350
        14 -11.0022     28.6084    238.9881   1.4480592474e+02   2.1153629733e+01    0.1680298    0.1082302  86.53  0.001105838    1.244    0.196
        15 -10.2046      7.7164    185.3389   1.4462646780e+02   3.4781452963e+01    0.1241752   0.06997522  75.10 0.0002274755    1.629    0.386
        16 -10.5880    131.0752    235.2402   1.2475543738e+02   6.8645188178e+00    0.2019354    0.1561928 -62.04 0.0009264365    1.440    0.305
        17 -10.5039    107.6735    183.8708   1.2201216857e+02   2.1967519832e+01    0.3264995    0.1951801  40.17  0.001098729    1.689    0.408
        18 -10.2428     22.3365    183.3060   1.4140734626e+02   3.3869783199e+01    0.1173135   0.08396779 -50.23 0.0007040706    1.673    0.402
        19 -12.0922    188.2612    175.8718   1.0211619712e+02   8.0452698950e+00    0.5574552    0.2745394 -57.42  0.001997544    2.837    0.648
        20 -11.9249      4.0053    180.4084   1.4497479307e+02   3.6205947521e+01    0.2460648     0.207528  -4.79  0.001707197    1.880    0.468
        21 -10.4403    141.1709    230.1589   1.2195707824e+02   6.0861476966e+00     0.210585    0.1511566  73.03  0.000852256    1.691    0.409
        22 -12.7087    204.3872    175.6091   9.8736074585e+01   4.8987569858e+00    0.4833783    0.4496343 -68.85  0.001246698    1.226    0.185
        23 -12.5447    196.5639    176.0543   1.0042244280e+02   6.3508853647e+00    0.7104195    0.4454205 -63.29  0.002120377    2.292    0.564
        24 -12.4779    189.4639    155.2318   9.7394830420e+01   1.2070887743e+01    0.5286573    0.4899927 -14.69  0.001548938    1.124    0.110
        25 -12.3514    192.9795    165.0466   9.8820120636e+01   9.3032987041e+00    0.4143851    0.3430284 -47.07 0.0009296568    1.203    0.168
        26 -11.8452    189.9858    161.0080   9.8565465896e+01   1.0757058840e+01    0.3820075    0.3300598  76.10   0.00158731    1.355    0.262
        27 -10.3691    138.8027    250.4647   1.2527479983e+02   2.7752745109e+00    0.1789032     0.133763  38.03   0.00106657    1.220    0.180
        28 -12.2672    124.7727    172.0869   1.1579696817e+02   2.1608543854e+01    0.3875915    0.3067465  51.07  0.000792623    1.249    0.199
        29 -11.6154     10.2001    174.9657   1.4320521412e+02   3.6908769273e+01    0.1748869    0.1451098  80.06  0.000649491    1.149    0.130
        30 -12.0906    177.2641    169.8827   1.0321432877e+02   1.1531801193e+01    0.4461144     0.203321 -56.18  0.001524968    2.866    0.651
        31 -10.0002     25.5790    224.0137   1.4425243569e+02   2.4563783214e+01    0.2708424   0.09068175 -65.41  0.001282263    2.635    0.621
        32 -14.0186    138.0998    171.5171   1.1249941025e+02   1.9153031204e+01    0.8567496     0.623896  59.53  0.003441927    1.470    0.320
        33  -9.7864    151.1122    241.8783   1.2165320412e+02   2.2046295558e+00      0.16472    0.1453296  14.38 0.0007114479    1.278    0.218
        34 -10.2769     24.5663    165.5922   1.3905863002e+02   3.7766607975e+01    0.1802992    0.1278311  19.46 0.0008319861    1.956    0.489
        35 -11.2157     15.3331    163.9332   1.4099144633e+02   3.9002324221e+01    0.4338944    0.2603357 -10.99   0.00211671    3.460    0.711
        36 -10.0412      1.9419    164.8669   1.4406379127e+02   3.9884096860e+01    0.1407519    0.1058218  61.26 0.0006133756    1.372    0.271
        37 -11.7178     12.6307    241.4834   1.4767667360e+02   2.2435541036e+01    0.1700173    0.1174063 -61.27  0.001174466    1.840    0.457
        38 -11.1825    109.0566    240.0149   1.2980521573e+02   9.6226327466e+00    0.1858469    0.1573433  64.93 0.0003520129    1.025    0.024
        39 -12.3166    166.2636    154.4789   1.0230126350e+02   1.7184925884e+01    0.4722457    0.3244592  71.40  0.001965934    1.999    0.500
        40  -9.5371      1.5198    153.4130   1.4307103371e+02   4.2529180927e+01    0.1191363   0.09010528 -70.95  0.000242208    1.116    0.104
        41 -11.3866    174.1926    148.7650   9.9227666376e+01   1.6727926867e+01    0.3625207    0.3122662 -78.26  0.001277299    1.306    0.234
        42 -10.1760     96.5964    212.6540   1.2886619911e+02   1.7298782248e+01    0.3685068    0.2077891 -43.41  0.001661464    2.431    0.589
        43 -13.2526      6.8740    138.6225   1.4018509390e+02   4.5548407668e+01    0.5943878    0.4494213 -81.86  0.003185329    1.105    0.095
        44 -11.9844      3.7060    130.9865   1.4006935517e+02   4.7520793085e+01    0.2866311    0.2115526 -63.24  0.001231351    1.118    0.106
        45 -12.6716      2.5898    125.7039   1.3970254045e+02   4.8798573719e+01    0.4055459    0.2678597 -60.00  0.001694766    1.214    0.176
        46 -11.5524    150.7709    137.5502   1.0200775629e+02   2.4322909571e+01    0.3670346    0.1463323  53.29  0.001143245    3.045    0.672
        47  -9.9528    166.9819    133.5368   9.7263001891e+01   2.1636972132e+01    0.2354119     0.155729  50.05 0.0006807072    1.548    0.354
        48 -12.3136    160.2793    127.6074   9.7352584310e+01   2.4433797099e+01    0.4755041    0.3758146 -65.34  0.001276436    1.383    0.277
        49 -13.2128      5.3315    120.3288   1.3826080506e+02   4.9847277984e+01    0.5069912    0.3547819   7.98  0.003195115    1.929    0.482
        50 -14.3616    116.0821    108.8369   1.0368661259e+02   3.8091249553e+01     1.575194    0.8191488  63.79  0.005000368    3.725    0.732
        51 -12.1601      2.6597    112.6812   1.3793441542e+02   5.1738263443e+01    0.3375146    0.1488263 -64.75  0.001257405    1.669    0.401
        52 -10.9331    204.8916    110.2939   8.3798905816e+01   1.7805556814e+01    0.3918534    0.2314628  46.45  0.001220293    1.829    0.453
        53 -11.2698     14.0117    109.9998   1.3425895062e+02   5.1607896920e+01    0.2103863    0.1680413 -20.19 0.0004104542    1.480    0.324
        54 -11.6051     18.5326    108.9126   1.3274098923e+02   5.1524803089e+01    0.2431595    0.1905246 -23.44 0.0008834712    1.464    0.317
        55 -11.9587     25.7339    108.8670   1.3057683206e+02   5.0963797013e+01    0.1994281    0.1858011  30.15 0.0004453414    1.307    0.235
        56 -12.0450      6.2155    111.6092   1.3676889692e+02   5.1762618009e+01    0.3024852     0.206488 -15.46  0.001427468    1.897    0.473
        57 -10.7367    167.8907    112.8781   9.1919717049e+01   2.5840464616e+01    0.4089472    0.2657082 -82.79  0.001500416    2.644    0.622
        58 -11.8299    106.2000    206.1745   1.2586756582e+02   1.7133101158e+01    0.3246802    0.2724859 -39.97  0.001307664    1.484    0.326
        59 -10.7565    146.6544     81.1090   8.8165915112e+01   3.7055661547e+01    0.2083012    0.1987094 -28.12 0.0007577861    1.086    0.079
        60 -10.9825    124.9636     81.1816   9.3541721034e+01   4.1914296245e+01    0.2268151    0.2046766  84.05 0.0007643855    1.268    0.211
        61 -12.1662    104.2007    202.2668   1.2573191751e+02   1.8341780851e+01    0.3535947      0.27393  38.36 0.0007407587    1.359    0.264
        62 -11.0478     96.0254     80.0432   1.0132062921e+02   4.7925624455e+01    0.2637984    0.2001549  47.05 0.0005034279    1.418    0.295
        63 -10.2469    121.2252     79.2286   9.3948822239e+01   4.3080576968e+01    0.1983789    0.1754668 -76.32 0.0004209218    1.332    0.249
        64 -14.5067    155.7187     58.1672   7.9605761416e+01   3.8785700721e+01     1.343103     1.128326  51.05   0.00103112    1.146    0.128
        65 -12.5479    125.0683    241.8655   1.2685617573e+02   6.6284733970e+00     0.487097    0.1714227 -55.00  0.001992142    3.189    0.686
        66 -13.0067    172.3414     35.8244   7.0362451056e+01   3.7904163569e+01    0.3740991    0.3525623  47.60 0.0008846582    1.170    0.145
        67 -12.8927     11.8497    206.0352   1.4544618079e+02   2.9835647650e+01    0.3893589    0.2458029  33.21  0.002298384    1.971    0.493
        68 -10.8169     13.5441     59.8961   1.2396577592e+02   6.2189924415e+01    0.1793858    0.1593402   1.21 0.0003948751    1.303    0.233
        69 -10.9404    152.0190    197.0191   1.1417166525e+02   1.0788935942e+01    0.3016447    0.2946253  52.12 0.0008551013    1.035    0.034
        70 -11.3858    187.8640     30.9070   6.6779218178e+01   3.4781119695e+01    0.2038983    0.1759197  50.60 0.0007025151    1.279    0.218
