#   1 NUMBER                 Running object number                                     
#   2 MAG_AUTO               Kron-like elliptical aperture magnitude                    [mag]
#   3 X_IMAGE                Object position along x                                    [pixel]
#   4 Y_IMAGE                Object position along y                                    [pixel]
#   5 X_WORLD                Barycenter position along world x axis                     [deg]
#   6 Y_WORLD                Barycenter position along world y axis                     [deg]
#   7 A_WORLD                Profile RMS along major axis (world units)                 [deg]
#   8 B_WORLD                Profile RMS along minor axis (world units)                 [deg]
#   9 THETA_WORLD            Position angle (CCW/world-x)                               [deg]
#  10 FWHM_WORLD             FWHM assuming a gaussian core                              [deg]
#  11 ELONGATION             A_IMAGE/B_IMAGE                                           
#  12 ELLIPTICITY            1 - B_IMAGE/A_IMAGE                                       
         1 -12.2756    166.6826     83.6999   5.0671055687e+01   3.1438732351e+01     0.847278     0.695808  39.26  0.004179687    1.364    0.267
         2 -12.4980     11.4156     47.6398   9.2104898410e+01   6.7039635400e+01     1.067402    0.5932681 -89.55  0.004626733    3.346    0.701
         3 -13.0541     57.9505     34.2040   6.4318423499e+01   6.3916970432e+01    0.4788747    0.3493517 -12.37  0.001219324    1.503    0.335
         4 -13.4099     37.5342     48.3985   7.9245414841e+01   6.4329967217e+01     1.423537    0.9633175 -65.44  0.007484477    1.834    0.455
         5 -12.3066    128.6584     10.9130   3.4953033163e+01   5.1274455756e+01     0.454879    0.3120877 -70.37 0.0004985922    1.644    0.392
         6 -11.4263    128.4310     25.1511   4.0008072398e+01   4.9781487872e+01      0.49467    0.2782974 -24.10  0.002288318    2.014    0.504
         7 -11.2007    128.9470     18.5800   3.7604465702e+01   5.0407259604e+01    0.3090063    0.2434513  17.53  0.000496408    1.552    0.356
         8 -10.3795     15.0708     13.7006   7.6752180688e+01   7.3277234737e+01     0.185983    0.1449475 -30.51 0.0003828923    1.139    0.122
         9 -11.4657     22.8127     23.8618   7.6981338642e+01   7.0709460512e+01    0.5617107    0.2383469 -36.53  0.002638091    2.275    0.560
        10 -11.2252     20.0810     15.9369   7.4771420520e+01   7.2364185954e+01    0.6175228    0.3319906 -11.45  0.002957119    2.619    0.618
        11 -11.5204    160.0080     22.6715   3.4082992938e+01   4.2242792838e+01    0.4419885    0.3196757  15.00  0.001627859    1.997    0.499
        12 -11.2273    107.0288     18.0367   4.1804957543e+01   5.5787248615e+01    0.5328893    0.2152277  46.12  0.002144687    2.434    0.589
        13 -11.9903      3.6785     16.4489   8.5595186649e+01   7.3812169724e+01     0.383455    0.2821196  40.68    0.0017221    1.836    0.455
        14 -12.0037    237.9868     17.6706   2.5230566948e+01   2.5001658912e+01    0.2863522    0.1959384 -71.47 0.0003791061    1.273    0.215
        15  -7.0315     43.9931      8.4856   5.7837949780e+01   7.0029069851e+01    0.5925758    0.3768471  68.64  0.002759491    3.279    0.695
        16 -12.1011     40.7107     16.6064   6.3773503133e+01   6.9470758019e+01    0.8898322    0.4650765  38.24  0.004638608    1.864    0.463
        17 -11.1303     39.9578     10.9899   6.1148164150e+01   7.0371129094e+01    0.3222305    0.2303063  49.13 0.0007106428    1.648    0.393
        18 -10.3278     34.3198     15.7406   6.6580402516e+01   7.0557381054e+01    0.3234915    0.2088034 -12.53  0.001497987    1.689    0.408
        19 -10.7799     73.6923      6.2804   4.5403146140e+01   6.4550718475e+01    0.3175257    0.2303731 -29.44  0.001365688    1.489    0.328
        20 -10.1561     74.2757      2.2813   4.3277042107e+01   6.4806047939e+01    0.2818087    0.1661309  69.31  0.001435793    1.920    0.479
        21 -11.1932     78.1906     10.4570   4.6035312561e+01   6.3160675443e+01    0.7240199    0.2851542  44.43  0.002856427    2.349    0.574
        22 -11.2261     73.0360     16.7734   5.0629926616e+01   6.3534622910e+01    0.6454715    0.2834219  48.04  0.002907898    2.055    0.513
        23 -10.7576     70.4507     13.5504   4.9967947734e+01   6.4447294457e+01    0.3618394    0.2213246   0.48  0.001671262    2.148    0.535
        24 -10.3679    115.7599     15.2151   3.8863838764e+01   5.3996016852e+01    0.3401973      0.17907  47.66  0.001581574    1.828    0.453
        25 -10.8491    118.1583      8.5729   3.5911967863e+01   5.4075080705e+01    0.3559304    0.1855262 -23.81  0.001231959    2.124    0.529
        26 -11.5489    119.8524      3.9767   3.3907698791e+01   5.4079074035e+01    0.3874857    0.1884095  72.97  0.001045345    1.955    0.489
        27 -10.2559     98.5833     13.1708   4.1792119678e+01   5.8296506906e+01    0.3860429    0.2639173  67.84  0.001005697    1.445    0.308
        28 -10.9201     60.4680     13.6046   5.3592246230e+01   6.6421712156e+01    0.4083365    0.2533318  60.77  0.002071341    1.976    0.494
        29 -11.6408    233.7513     11.2023   2.4115840323e+01   2.6590274933e+01    0.2764031    0.1714599 -45.84 0.0008855342    1.328    0.247
        30 -12.1053    235.0477      4.6535   2.2628041489e+01   2.7026659498e+01    0.3919902    0.2910102  22.77  0.002368646    2.366    0.577
        31 -10.4929     25.5962      8.5874   6.7512908326e+01   7.2815887298e+01    0.5013127    0.2447724  51.34  0.002139995    3.937    0.746
        32 -10.5475    175.6042     11.0908   2.8859612393e+01   3.9693831051e+01    0.2526177    0.1764596  69.45 0.0009148146    1.348    0.258
        33 -11.0789    164.5647      7.3277   2.8964231855e+01   4.2753489966e+01    0.5120474    0.2069198 -20.95  0.002106273    3.045    0.672
        34  -9.7396    150.5527      5.5601   3.0053002259e+01   4.6366650142e+01    0.2342479    0.1468741  72.59 3.782639e-05    1.423    0.297
        35 -11.5995    146.2684      6.9639   3.1039166278e+01   4.7294547714e+01    0.4036553    0.3034064  -3.37  0.001888552    1.701    0.412
        36 -10.8044      8.9410      8.7849   7.8248721840e+01   7.4694149126e+01    0.3353123    0.1880427  26.60  0.002010646    1.828    0.453
        37 -11.0325    241.0284      9.2274   2.3241560494e+01   2.5327778914e+01     0.195354    0.1370257 -51.31  0.000457321    1.141    0.124
        38 -10.3045      5.9584     11.2215   8.1572007433e+01   7.4553866045e+01      0.16113    0.1408488 -20.17  0.000464533    1.158    0.137
        39 -12.5155    214.0949      5.7362   2.4211055132e+01   3.1354492421e+01    0.7598276    0.3854451 -64.50  0.003972993    1.820    0.451
        40 -11.1053    191.0479      6.7828   2.6250022650e+01   3.6467904582e+01    0.3705442    0.2787248 -45.24  0.001500468    1.266    0.210
        41 -10.2876    155.6825      6.7349   2.9798129203e+01   4.4990691910e+01    0.3287148    0.1992019  27.24 0.0009930449    2.465    0.594
        42 -10.2999     91.4205      6.8094   4.0804279076e+01   6.0580684777e+01    0.4037139    0.1965022  50.03  0.001923502    1.793    0.442
        43  -9.4306    109.0791      5.4947   3.6423080127e+01   5.6554405484e+01    0.1942158    0.1161178  63.50 0.0006950353    1.478    0.323
        44 -10.7248     97.9460      4.2336   3.8192653995e+01   5.9305719627e+01    0.3061068    0.1971872  15.56  0.001324227    1.921    0.480
        45 -11.3508     19.5326      3.2923   6.8077425718e+01   7.4353668171e+01    0.6259301    0.2943637  17.28    0.0028898    2.949    0.661
        46 -11.4196     11.2381      2.9219   7.3341175527e+01   7.5378920916e+01     0.303989    0.1917516  -1.00  0.001163293    1.618    0.382
        47 -10.4605    178.8233      3.9765   2.6591528806e+01   3.9631759077e+01    0.2210719    0.1662351  88.21 0.0005315139    1.175    0.149
        48 -10.3552     68.0643      3.6482   4.5863219975e+01   6.5989945585e+01    0.2161922    0.1752089  26.61 0.0009755237    1.134    0.118
        49 -11.6726     27.8122      3.3479   6.3158207839e+01   7.3223521529e+01    0.2565723    0.2309939  37.37 0.0008342412    1.418    0.295
        50 -10.3502     32.5703      1.1487   5.9212787538e+01   7.2781574853e+01    0.3101202    0.1003097  46.47  0.001306174    3.219    0.689
        51 -10.6855    243.0028      2.7806   2.1787566202e+01   2.5620037968e+01    0.1991254    0.1393671 -46.65 0.0006935048    1.207    0.171
        52  -9.9971    126.3007      2.8717   3.2475550930e+01   5.2595356392e+01    0.1699132    0.1656715   8.28 0.0004519758    1.168    0.144
        53 -10.6470    194.3941      1.6741   2.4677387073e+01   3.6198372421e+01    0.3092534     0.136414  81.36  0.001457329    2.139    0.533
        54 -10.6859    202.5985      3.2206   2.4439062736e+01   3.4171844029e+01     0.355417    0.2219867  51.36  0.001827948    1.970    0.492
        55 -11.2105    148.6953      1.9374   2.9140508923e+01   4.7153090372e+01    0.2471378    0.1835066  78.44 0.0003646369    1.192    0.161
        56 -10.9258     18.0443    172.9791   1.0821803196e+02   3.6079677288e+01    0.3280107    0.1794503  57.03  0.001500588    1.664    0.399
        57 -10.6251    247.6478    250.0657   6.9570762572e+01  -8.9522552064e+00    0.1712918      0.12086  22.57  0.001313801    1.347    0.258
        58 -12.2635    232.4502    245.3277   7.1311458795e+01  -6.7337749356e+00    0.4867094    0.2114641 -27.43  0.002745088    2.327    0.570
        59 -11.2386    238.0023    246.0197   7.0510162651e+01  -7.4448493741e+00    0.1830834    0.1383645  31.51 0.0007064623    1.569    0.363
        60 -11.6362     88.9240    249.4168   9.8796002960e+01   1.1635411381e+01    0.3194447    0.2199531  37.96 0.0009433351    1.203    0.169
        61 -10.1403     72.4145    250.1575   1.0213348573e+02   1.3624845422e+01    0.1966242    0.1484434  22.13  0.001297915    1.545    0.353
        62 -13.0160     18.9468    237.0228   1.1181565607e+02   2.2176812608e+01     1.782456    0.3150035  55.51  0.006214451    4.909    0.796
        63 -11.7369      5.2289    235.7373   1.1439149380e+02   2.3756113975e+01     0.356475    0.3030921  51.73  0.002812832    1.276    0.216
        64 -13.1251      6.8283    244.9230   1.1443198698e+02   2.1872774616e+01     0.725064    0.5427529  54.79  0.003871592    1.117    0.105
        65 -12.5370     22.4072    248.7680   1.1169827387e+02   1.9620415343e+01    0.7322806    0.1946793  36.22  0.003521776    2.688    0.628
        66 -12.1921     15.8939    246.5803   1.1281815612e+02   2.0683429345e+01    0.5825042    0.2118364  57.15  0.002052649    2.135    0.532
        67 -12.0962     36.8004    165.9634   1.0274752246e+02   3.5891830251e+01    0.5141307    0.3203179  65.37  0.002313525    1.563    0.360
        68 -11.3454     35.2808    161.4079   1.0268286752e+02   3.7170197425e+01     0.298535    0.2766308  -9.58 0.0004643253    1.387    0.279
        69  -9.3108    177.2681    168.6599   6.8403710646e+01   1.2868896459e+01    0.1309616    0.1110839 -80.92 0.0002758452    1.601    0.375
        70 -10.0855      4.9931    168.5356   1.1117841181e+02   3.8247784742e+01    0.1679551    0.1167747  31.58 0.0007050903    1.569    0.363
        71 -11.8943     51.0962    162.1819   9.8471701593e+01   3.5166528152e+01    0.6485336    0.4048646  81.53  0.003090823    1.721    0.419
        72 -10.1991    186.7593    165.2561   6.5825244094e+01   1.1817256129e+01    0.2499283    0.1745722 -89.54  0.001031037    3.168    0.684
        73 -11.4907     44.2370    162.4876   1.0037316280e+02   3.5909092045e+01    0.3529004    0.1945114 -55.66  0.001667973    1.854    0.461
        74  -9.2016    111.7064    164.3294   8.2666501400e+01   2.5552885380e+01    0.1490469    0.1107495  74.87 0.0004041942    1.629    0.386
        75  -8.9286    200.6464    162.3092   6.2580400306e+01   9.9180146795e+00    0.1287993    0.1092011 -85.04 0.0007043564    1.722    0.419
        76 -12.6920     21.0272    157.4663   1.0616243823e+02   3.9550380651e+01    0.6241744    0.4078544  19.52  0.000905024    1.866    0.464
        77  -9.6942    216.3161    154.9830   5.8306567762e+01   8.4952368990e+00    0.1849794    0.1517079 -29.60 0.0003243517    1.095    0.087
        78 -11.3827     10.0248    152.6111   1.0874079571e+02   4.1679127102e+01    0.2729138     0.203394  60.79 0.0003917752    1.243    0.195
        79  -9.2062    222.6939    151.7161   5.6570688967e+01   7.9671409885e+00    0.1292891   0.09463192  -2.58 0.0002448847    1.562    0.360
        80 -10.1215    177.4155    150.6440   6.4703377595e+01   1.6268993499e+01    0.2716645    0.2179925  76.51  0.001387659    1.695    0.410
        81 -10.5746    207.0366    146.5032   5.8172867445e+01   1.1556179479e+01    0.2093464    0.1738734 -31.66 0.0007202348    1.098    0.089
        82  -9.3437     19.2948    145.6837   1.0553785203e+02   4.2620292585e+01    0.1374712   0.08429327  66.68 0.0002487815    1.604    0.376
        83 -10.2403    220.1835    143.8440   5.5367441249e+01   9.6967486563e+00    0.1831009    0.1463502  -8.62  0.000526064    1.303    0.233
        84  -9.9914      2.9564    143.8334   1.1001227410e+02   4.4354859165e+01    0.1828451      0.14841 -66.08 0.0005522215    1.232    0.188
        85 -10.7018     17.5160    137.1412   1.0519638459e+02   4.4909153572e+01    0.2529627    0.1878412  48.51  0.001124051    1.368    0.269
        86  -9.8335     20.8744    134.8278   1.0393639702e+02   4.5206363379e+01    0.2116172    0.1711145 -87.73 0.0005418319    1.070    0.066
        87 -11.2792      9.2131    136.4649   1.0759624193e+02   4.5729017102e+01    0.2655718    0.1841854 -71.71 0.0002776709    1.248    0.199
        88 -10.4954      2.6788    136.1974   1.0949137462e+02   4.6253312134e+01    0.3707617    0.1355863 -73.28  0.001634291    2.202    0.546
        89  -9.0948    143.6971    137.3080   6.9247942546e+01   2.5618133382e+01    0.1501995    0.1197287  87.63 0.0003477662    1.603    0.376
        90  -9.8156     54.4716    137.5157   9.4054727266e+01   4.0927208977e+01    0.1417615    0.1291308 -83.62 0.0001377802    1.017    0.016
        91  -9.9741    249.1296    133.8840   4.8937576128e+01   6.4831944731e+00    0.1851248    0.1514686 -44.42 0.0004377252    1.217    0.179
        92  -9.4174    122.6920    134.6927   7.3907235535e+01   3.0363966584e+01    0.1511184    0.1217658  -9.95 0.0003095549    1.612    0.380
        93 -10.0113     48.3038    133.6811   9.5344769579e+01   4.2667262059e+01     0.289653    0.1422647  43.75   0.00125509    2.065    0.516
        94 -10.2960     79.8793    132.6472   8.5510969959e+01   3.8512064378e+01    0.2048918     0.184484  49.53 0.0005974653    1.125    0.111
        95 -11.4762     54.3091    132.3018   9.3261949674e+01   4.2273239808e+01    0.4703675     0.240621  35.79  0.001199218    1.985    0.496
        96 -11.3787     36.5776    130.3004   9.8502829595e+01   4.4851885142e+01    0.4601291    0.2820913 -45.59  0.001740909    1.777    0.437
        97 -11.2656     74.0150    128.8090   8.6535223433e+01   4.0386365857e+01    0.3881726    0.2897511 -64.68  0.001078686    1.285    0.222
        98 -11.4727     23.9979    125.8733   1.0189506472e+02   4.7198985579e+01    0.2903554    0.2279856  32.59 0.0009953737    1.412    0.292
        99 -10.2297     20.1737    121.8420   1.0261597854e+02   4.8549726045e+01    0.2172205    0.1368458 -45.25 0.0006282766    1.694    0.410
       100 -11.1653     15.6561    125.5382   1.0450890133e+02   4.7980127917e+01    0.3775977    0.2484679  21.87  0.002082098    1.775    0.437
       101  -9.6302    220.1254    123.8726   5.1115146868e+01   1.3060684174e+01    0.1820574    0.1492486 -14.95 0.0004562378    1.276    0.217
       102 -11.2430     10.9634    122.6651   1.0568260819e+02   4.9055542485e+01    0.3058282    0.2252444  61.35 0.0009767535    1.371    0.271
       103 -10.4896     73.2274    117.7301   8.4511729377e+01   4.3278913349e+01    0.4723674     0.260876 -80.90  0.001724129    2.810    0.644
       104 -10.0961      1.4033    118.8747   1.0835560446e+02   5.0630108553e+01    0.1894514    0.1038303 -77.51 0.0004041544    1.510    0.338
       105  -9.9242     32.4818    117.4547   9.7929607672e+01   4.8544217134e+01     0.259246     0.166744  66.78 0.0007224218    1.761    0.432
       106 -10.1641     23.2849    117.6035   1.0103168827e+02   4.9359892568e+01    0.1646864    0.1304063  -3.22 0.0005426403    1.590    0.371
       107  -9.6213     85.9647    115.9777   8.0109243447e+01   4.1625815669e+01    0.1885632    0.1677227 -60.90 0.0007839216    1.083    0.077
       108 -11.2624     16.3368    115.1760   1.0303637465e+02   5.0542105932e+01    0.3661774    0.2350834 -28.23  0.001227422    1.979    0.495
       109  -9.7017    214.1399    115.1448   5.0125442412e+01   1.5669062270e+01    0.2030188    0.1752251 -13.53 0.0004246843    1.235    0.190
       110 -10.9186    249.3810    112.2800   4.4474660068e+01   9.7414230180e+00    0.2351952    0.1854958 -46.91 0.0006181744    1.169    0.145
       111 -10.6505     94.8931    112.2336   7.6484300325e+01   4.0941906811e+01    0.3029375    0.2742959  14.44  0.001594105    1.244    0.196
       112 -11.7331     37.1375    110.1493   9.5131144171e+01   4.9923277181e+01    0.4561015    0.2887436  65.53  0.002183881    1.899    0.473
       113  -9.0798    207.5053    110.5279   5.0139067993e+01   1.7766919178e+01    0.1397039    0.1262861 -39.56 0.0002468129    1.007    0.007
       114 -11.4366     55.0799    109.7485   8.8840209993e+01   4.7891754941e+01    0.2827129    0.2554664  36.54 0.0004730814    1.191    0.160
       115 -10.9989      1.8562    107.2416   1.0701609424e+02   5.3493929264e+01    0.4794108    0.1036299 -66.38   0.00175732    3.088    0.676
       116 -11.4873     19.7269    100.7782   9.9791886747e+01   5.3897930301e+01    0.3296613    0.2427603 -23.34  0.001856119    1.612    0.380
       117 -11.5410     23.8290    106.0008   9.9133966273e+01   5.2247104508e+01    0.4071229    0.3262825  61.36   0.00209557    1.334    0.251
       118 -10.3658     25.9324    102.1540   9.7747671962e+01   5.3030188474e+01    0.3018904     0.181739 -81.33 0.0002564022    1.677    0.404
       119 -12.1201     14.4485    108.8728   1.0285687206e+02   5.2270936622e+01     0.463378    0.3279599   1.90  0.002602571    1.790    0.441
       120 -11.0162    120.2020    101.3940   6.6381376915e+01   3.8398306016e+01    0.7403258    0.2824319 -34.78  0.002047444    4.255    0.765
       121 -10.8852     51.9251    103.8177   8.8693619487e+01   4.9787444008e+01    0.2205951    0.1823242 -37.95 0.0005794262    1.266    0.210
       122 -10.1464     38.0104    103.5129   9.3608348702e+01   5.1504419453e+01    0.2895154     0.210247  56.54  0.001046571    1.538    0.350
       123 -11.5850    143.9827     98.2375   5.9506631081e+01   3.3851406548e+01    0.5746794    0.4324276  61.90  0.002238554    1.429    0.300
       124 -11.4979     62.3165     98.5876   8.3828725054e+01   4.9653203404e+01    0.3613727    0.3093417   2.62  0.001213985    1.360    0.265
       125  -9.9450     66.6461     97.7541   8.2104919524e+01   4.9209528088e+01    0.2156458    0.1743013 -55.38 0.0001777039    1.165    0.141
       126 -10.9448     50.5935     99.1782   8.8160120616e+01   5.1110288808e+01    0.2966745    0.2216744   0.87 8.225203e-05    1.704    0.413
       127 -11.9553     14.3990     96.8300   1.0114876434e+02   5.5284476864e+01    0.4432616    0.2171063 -49.44  0.002125539    1.872    0.466
       128 -12.3674     10.7843     90.7104   1.0157517548e+02   5.7043846731e+01    0.3795666     0.302262  21.44 0.0006348151    1.461    0.316
       129 -11.2343      5.1018     97.9916   1.0475833628e+02   5.5599383704e+01    0.2277509    0.1817328  14.19 0.0007365929    1.501    0.334
       130  -9.6185    205.5390     97.4670   4.7389133087e+01   2.0413272626e+01    0.1410643    0.1257057 -49.61 0.0001239719    1.028    0.027
       131 -12.4358    157.9656     89.1701   5.3924162546e+01   3.2444532952e+01     1.275185    0.5899035 -57.63  0.004169337    3.247    0.692
       132 -11.3670    156.5128     82.5816   5.2405319573e+01   3.4012554254e+01    0.8585903    0.3748781  37.92  0.002746857    3.558    0.719
       133 -12.1370     37.0725    243.2189   1.0861230141e+02   1.9080590778e+01    0.6159738    0.2846776  83.73  0.002452873    2.390    0.582
       134  -9.0848    113.3375     93.2833   6.6032374061e+01   4.1618540263e+01    0.1525784    0.1230375   4.04 0.0003216964    1.625    0.385
       135 -10.3767     66.7265     93.3932   8.0972646322e+01   5.0245415534e+01    0.2581578    0.1809652  29.03 0.0002878519    1.558    0.358
       136  -9.7000     31.3617     92.8289   9.3997379987e+01   5.4847679691e+01    0.2053212    0.1037907 -55.24 0.0004983869    1.701    0.412
       137  -9.9555    127.3998     92.2831   6.1944426789e+01   3.8782201310e+01    0.2150074    0.1428388 -53.45 0.0004893705    1.561    0.359
       138 -10.6222     25.6247     90.9923   9.5854624684e+01   5.5834595644e+01    0.2767416    0.2043607 -70.78 0.0007175818    1.232    0.188
       139 -11.7377     21.8853     87.5239   9.6661430856e+01   5.7006281124e+01    0.4633052    0.2397108 -57.03  0.001570649    1.618    0.382
       140 -11.3794     58.0321     90.0462   8.3258614435e+01   5.2334038490e+01     0.435923    0.2953436  16.84  0.001202283    1.804    0.446
       141 -10.0673    173.4694     83.4809   4.9326560847e+01   2.9908616345e+01    0.2497898    0.1391783 -39.14  0.001071336    1.715    0.417
       142 -10.2660     96.6112     89.1168   6.9798242401e+01   4.5953482701e+01    0.2614953    0.1824458  37.48  0.001210053    1.502    0.334
       143 -10.1873     83.0692     88.5230   7.4003141040e+01   4.8644734041e+01     0.241112    0.2132602  49.79 0.0005774124    1.179    0.152
       144 -10.8339     78.3857     87.3575   7.5259338996e+01   4.9740926897e+01    0.3264397    0.2880857 -58.76 0.0009159764    1.120    0.107
       145 -12.2026      4.8574     84.1055   1.0288613418e+02   5.9015361846e+01    0.6572689    0.3051755 -47.83  0.002412163    1.925    0.481
       146 -11.1884     65.2406     87.3472   7.9904749379e+01   5.1905609882e+01    0.3182613    0.2710953 -36.10  0.001091282    1.177    0.151
       147 -10.4854     46.5277     87.0123   8.6847024727e+01   5.4591334791e+01    0.3523322    0.2301345  72.41  0.001588111    2.250    0.556
       148  -9.7950    120.9768     86.6564   6.2014051898e+01   4.1367600952e+01    0.2125496    0.1953206  53.54 0.0004929454    1.097    0.088
       149  -9.9613    115.5927     83.8756   6.2658340441e+01   4.3122335840e+01    0.2737751    0.2006779  38.38 0.0006653058    1.446    0.309
       150 -10.4125     14.7651     84.0905   9.8881887674e+01   5.8391185944e+01    0.1900386     0.179612 -47.48 0.0005004912    1.116    0.104
       151 -11.8419     30.9710     80.5074   9.1505926933e+01   5.7885008716e+01    0.4400781     0.285976 -51.08  0.002331598    1.356    0.263
       152 -10.1160     74.1320     82.1901   7.5251338320e+01   5.1647892077e+01    0.2282421    0.1972242 -20.52 0.0006889326    1.250    0.200
       153 -10.0382     62.8121     82.5289   7.9467408433e+01   5.3399682825e+01    0.2048378    0.1421948  34.15  0.001007738    1.521    0.343
       154  -9.6608     42.3840     82.2933   8.7307199153e+01   5.6221894651e+01    0.2225541    0.1570367  53.40 0.0007421015    1.694    0.410
       155  -9.7938    126.9991     80.6660   5.8659533831e+01   4.1224814864e+01    0.2157752    0.2008101  48.23 0.0007818487    1.092    0.084
       156 -11.4869      6.1066     50.3283   9.5588905076e+01   6.6801375540e+01    0.6141241    0.4026354  77.41  0.003319076    2.223    0.550
       157 -13.2896      4.9728     63.3151   9.9127761397e+01   6.3936908712e+01    0.7630584    0.6034675 -62.54  0.004931798    1.091    0.083
       158 -11.1842     13.2797     58.2627   9.4026257222e+01   6.4564038855e+01    0.4539279    0.2307204  55.27  0.001958441    3.286    0.696
       159 -11.4278     30.4672    233.9697   1.0939197535e+02   2.1567513215e+01    0.4324012    0.1545918  81.28  0.001780432    3.792    0.736
       160 -14.1833     16.6048     67.3387   9.4661178389e+01   6.2243745379e+01     0.779867    0.5186325 -75.36  0.001116983    1.546    0.353
       161 -11.7078     13.3708     77.2488   9.8179696261e+01   6.0139230455e+01    0.3683824    0.2912464  37.51  0.001079309    1.456    0.313
       162 -12.2611      7.9863     73.7095   9.9813537798e+01   6.1330051369e+01    0.6675569    0.3912259 -12.75  0.003379268    2.099    0.524
       163  -9.5090    183.6246     80.6899   4.6788802859e+01   2.8067364902e+01    0.1466079    0.1137901  19.19 0.0007030407    1.783    0.439
       164  -9.0638    122.6888     79.7214   5.9490941045e+01   4.2387136246e+01    0.1486068    0.1209994  11.76 0.0002596942    1.562    0.360
       165  -8.9853    112.3059     79.7039   6.2314048915e+01   4.4692532025e+01    0.1510645    0.1198831 -86.05 0.0002406575    1.585    0.369
       166 -10.4623     60.2515     78.3481   7.9240624864e+01   5.4746523808e+01    0.3474045    0.2718977  -4.87  0.001062217    1.540    0.351
       167 -12.8501     44.7300     74.9075   8.4417716962e+01   5.7669926041e+01    0.3494757    0.2815382  50.35 0.0004921884    1.428    0.300
       168 -10.4834     42.7273     68.2936   8.3373105484e+01   5.9425481317e+01    0.2865689    0.2247177 -21.26  0.001601796    1.354    0.261
       169 -10.8744     36.1915     68.2392   8.6170039103e+01   6.0205834896e+01    0.4344498    0.2262091  48.13  0.001330497    2.536    0.606
       170  -9.7013    145.5049     74.5113   5.2435946172e+01   3.8081916527e+01    0.2632363    0.1484492 -26.87  0.001031411    2.234    0.552
       171 -10.4287     95.0693     72.6578   6.5244141063e+01   4.9767095514e+01    0.4063151    0.2499698 -17.00   0.00152789    2.797    0.642
       172 -10.6860     76.3508     74.3176   7.2067965403e+01   5.2999070027e+01     0.341335    0.2356076  18.06 0.0004464453    1.844    0.458
       173 -11.2935     50.4204     61.7553   7.8071490406e+01   5.9842794323e+01    0.6844118    0.4808058  70.27  0.003252805    2.297    0.565
       174 -10.9921     54.1432     74.1590   8.0399175538e+01   5.6588556520e+01    0.3474275     0.238714  51.53 0.0002661644    1.741    0.426
       175 -11.8773     50.5099     68.3658   8.0132590369e+01   5.8392579533e+01    0.4767206    0.2581252 -54.72  0.001404023    1.763    0.433
       176 -10.7397    207.5401     73.1375   4.1208419480e+01   2.3975146802e+01    0.2272751    0.2121127  77.78 0.0003249799    1.156    0.135
       177 -10.5913    100.6221     71.7289   6.3221241452e+01   4.8803604720e+01    0.3869335    0.2556595  78.64  0.001024048    2.550    0.608
       178  -9.9885     37.9520     95.0000   9.1933771254e+01   5.3633396540e+01    0.2760361    0.1793929   4.04  0.001332968    2.035    0.509
       179 -10.2611    194.8794     69.8514   4.2194640676e+01   2.7297711460e+01    0.1913817    0.1892121 -27.24  0.000369368    1.161    0.139
       180  -9.9228    167.8996     69.6478   4.6562907191e+01   3.3602765816e+01    0.1965123    0.1779813  77.59 0.0003523898    1.102    0.092
       181 -11.3115     77.7331     69.7029   7.0093504196e+01   5.3730293744e+01    0.3738094    0.2822374  55.41 0.0009494066    1.504    0.335
       182 -10.2079     91.0060     74.4688   6.7128599228e+01   5.0210502401e+01    0.2709167    0.2248713  46.30 0.0005096118    1.229    0.187
       183 -12.5092    122.5335     63.7543   5.4513275649e+01   4.5432251650e+01     0.480817    0.3731124 -61.16 0.0004470592    1.425    0.298
       184 -10.0511    124.6358     58.0417   5.2118833414e+01   4.5933577121e+01    0.1998609    0.1820418 -37.65 0.0005618052    1.124    0.111
       185  -9.2709    230.2896     68.6678   3.7293686364e+01   1.9891782570e+01     0.137884   0.08508865 -59.34 0.0002824799    1.627    0.385
       186 -10.6749    127.6883     66.3677   5.4070043543e+01   4.3760080743e+01    0.2237248    0.1463555  56.96  0.001009806    1.540    0.351
       187 -11.4264     94.7289     65.9370   6.3131720457e+01   5.1176295293e+01    0.5438133    0.3424587  25.60 0.0009629118    2.119    0.528
       188 -12.3689    226.4316    245.1887   7.2286355014e+01  -6.0173732631e+00    0.6232615     0.317739  -5.94  0.003288576    2.631    0.620
       189 -12.3260     30.6984     63.6054   8.7301078193e+01   6.1842276637e+01     0.680604    0.5564365 -48.33  0.004124139    1.083    0.077
       190 -10.8657     51.9276     40.1274   6.9423566606e+01   6.3889156683e+01    0.2647651    0.2270838 -43.79 0.0005721829    1.229    0.186
       191 -12.1770     45.5541     38.6349   7.1687148086e+01   6.5127940587e+01    0.7678736     0.474688  61.68   0.00127165    3.203    0.688
       192 -11.6430     23.7890     41.6704   8.3679415979e+01   6.7232475351e+01    0.5929528    0.4269908  74.73  0.002399196    2.431    0.589
       193 -13.2819     74.3059    238.0480   1.0076114758e+02   1.5581865425e+01    0.7830411    0.6343269  87.81  0.005388333    1.301    0.232
       194 -11.3159     26.3919     55.3967   8.6900951514e+01   6.4090889850e+01    0.3288938    0.2307844 -54.64  0.001226784    1.292    0.226
       195 -11.8504     26.8831     49.4756   8.4787473958e+01   6.5309800366e+01    0.8871936    0.5604634  63.10  0.004154706    2.850    0.649
       196 -12.8825     28.1243     37.7927   7.9958561281e+01   6.7541537671e+01    0.3808489    0.2647001  17.81  0.001793938    1.498    0.332
       197 -11.4926     24.4032     34.7463   8.0739837417e+01   6.8534082593e+01    0.2640159    0.2000254 -11.46   0.00104874    1.290    0.225
       198 -10.5475    151.6286     63.8343   4.7978878406e+01   3.8479489362e+01    0.3650004    0.1723219  44.44   0.00138338    2.435    0.589
       199  -9.3295    143.7836     64.3903   4.9768522043e+01   4.0276718633e+01    0.1993729    0.1354797  47.80 0.0003348642    1.514    0.340
       200 -10.1298     76.9654     62.9356   6.8089897351e+01   5.5256312264e+01     0.222858    0.2108139 -25.13 0.0006865864    1.023    0.022
       201  -9.7974    202.6854     61.0790   3.8875827236e+01   2.6894941227e+01    0.1948293    0.1623756 -44.58 0.0004052408    1.118    0.105
       202  -9.3265    113.3705     61.1335   5.6044185319e+01   4.8010617740e+01    0.2071072    0.1327152 -50.43  0.000634036    1.673    0.402
       203 -11.2194     59.0271     58.1588   7.3278097088e+01   5.9305151551e+01    0.6048646    0.3969114 -18.35  0.002837271    1.985    0.496
       204  -9.3469    183.6207     60.2309   4.1360611053e+01   3.1398916227e+01    0.1442196    0.1011961 -78.18 0.0003558616    1.617    0.382
       205  -9.6423    148.9384     58.7211   4.6973552893e+01   3.9973810004e+01    0.1965044    0.1796647 -87.35 0.0002572142    1.071    0.066
       206 -10.1004     69.2794     58.1342   6.9239575595e+01   5.7596834109e+01    0.3845633    0.1723686 -55.47  0.001417039    2.910    0.656
       207 -10.6371    131.6985     42.0626   4.5169978542e+01   4.6744552151e+01     0.382407    0.2510718 -59.20 0.0008856208    1.777    0.437
       208 -10.9412    132.5411     55.0200   4.9277691775e+01   4.4548703846e+01     0.408097     0.340069  -4.49  0.002111631    1.468    0.319
       209 -12.0639    129.6112     49.3656   4.8072552809e+01   4.6155693956e+01    0.4289408    0.3977551  12.82 0.0007824593    1.206    0.171
       210 -10.7870     75.2067     55.8024   6.6192800804e+01   5.6976575213e+01    0.2403613    0.2070031 -35.09 0.0002785944    1.137    0.121
       211  -9.7994     48.2942     55.7812   7.6964960148e+01   6.1396556895e+01    0.1806114    0.1453048 -14.00  0.001018315    1.296    0.228
       212 -13.0755    105.6858     52.4761   5.5169277144e+01   5.1257893968e+01    0.5460199    0.3462795  47.55  0.001200654    1.541    0.351
       213  -9.6326    230.5061     54.5365   3.4054607838e+01   2.1867650013e+01    0.1300338     0.108171 -55.68 0.0008095239    1.003    0.003
       214 -11.0656     87.9888     51.5276   6.0195570015e+01   5.5247918401e+01    0.4801571    0.2202809 -45.77  0.001920586    2.310    0.567
       215  -9.6391     55.4480     53.1649   7.2969405063e+01   6.0870229970e+01    0.3093827    0.1598212  20.30   0.00122855    2.833    0.647
       216 -10.3881     37.8204     90.2694   9.0971154293e+01   5.4811644739e+01    0.4926705    0.1662008 -47.92  0.001808606    2.775    0.640
       217  -9.6639    119.9921     52.4811   5.1392665972e+01   4.7956213976e+01    0.2165021    0.1386739  52.26 0.0003676318    1.514    0.339
       218 -11.5703     78.6440     47.2808   6.1754879582e+01   5.7875726690e+01    0.3733523    0.2229974 -35.11 0.0004059179    1.706    0.414
       219  -9.7207    237.4888     50.5012   3.2457151242e+01   2.1006360292e+01    0.1289069    0.1031262 -55.71 2.028743e-05    1.027    0.026
       220 -10.1686     52.4548     49.5966   7.2922586058e+01   6.2031561100e+01    0.2311219    0.2103305  30.30 0.0006451528    1.169    0.144
       221  -9.9923    200.0574     49.3171   3.6239377845e+01   2.9199491078e+01     0.183828    0.1583576 -82.43  0.000362764    1.104    0.094
       222  -9.9171     59.2034     47.6557   6.9331212426e+01   6.1332498678e+01    0.1780661    0.1617679 -41.54 0.0003543708    1.145    0.127
       223 -10.6417    151.4953     46.0908   4.2608554788e+01   4.1293717202e+01    0.2494254    0.2232583  72.38 0.0005935763    1.077    0.072
       224 -10.1709    143.1417     45.6084   4.4020928658e+01   4.3420914736e+01    0.2322322    0.1890957 -53.31 0.0005409383    1.237    0.192
       225 -10.1108    104.3031     47.0861   5.3611319073e+01   5.2460864993e+01    0.2231815    0.1930137  14.55  0.000667216    1.277    0.217
       226 -10.6733    112.6119     45.3616   5.0762122075e+01   5.0823191709e+01    0.4422697    0.2598723  31.72  0.001850197    2.245    0.555
       227 -11.1732     91.6083     43.2691   5.5910173965e+01   5.5877845856e+01    0.5201069    0.2447868 -47.11  0.002090112    2.448    0.591
       228 -11.6955     98.5542     36.6736   5.1295175306e+01   5.5359792642e+01    0.5493442    0.4018769  22.63  0.002789941    1.612    0.380
       229 -10.0946    139.2631     42.8251   4.3881140147e+01   4.4779714503e+01     0.252362    0.1736036 -38.92 0.0006771091    1.472    0.321
       230 -10.3060    108.5543     41.9398   5.0571022190e+01   5.2291329073e+01    0.4817227     0.175817  44.72  0.001686463    2.893    0.654
       231  -9.8399    148.5183     40.5159   4.1404377458e+01   4.2822634105e+01    0.3008191    0.1374813 -33.09   0.00122602    2.226    0.551
       232 -11.1220     81.3059     36.3383   5.6463304460e+01   5.9138010963e+01    0.3907398    0.2459325 -48.52  0.001892622    1.842    0.457
       233 -11.8296     74.9457     35.4788   5.8299508013e+01   6.0556886782e+01    0.4134716    0.2728094  17.16  0.000612366    1.957    0.489
       234 -10.6592     79.4715     29.4279   5.4166364938e+01   6.0539432131e+01    0.4142197    0.2217597 -26.90  0.001290565    2.050    0.512
       235 -11.3799     69.8508     37.3382   6.0943227950e+01   6.1248569417e+01    0.3614585    0.2513665  -1.71 0.0006429499    1.855    0.461
       236 -11.2962    224.9667     37.8920   3.0784360576e+01   2.5252229690e+01    0.3274058    0.2081869 -75.18 0.0004706479    1.598    0.374
       237 -11.3211    221.7861     32.1241   2.9739690892e+01   2.6661586155e+01    0.2712619     0.182145 -41.85 0.0003020864    1.316    0.240
       238  -9.7949    152.3597     38.9282   4.0238842171e+01   4.2091312143e+01    0.1939746    0.1737824 -48.86 0.0004407425    1.125    0.111
       239  -9.1168    160.2369     38.0101   3.8669410033e+01   4.0269891658e+01    0.1656922    0.1159398 -34.56            0    1.463    0.317
       240  -9.6949     85.9950     38.5532   5.5825536628e+01   5.7818149486e+01    0.1944033     0.131677  49.97 6.401813e-05    1.443    0.307
       241  -9.9013      1.3534     37.5580   9.4678342203e+01   6.9815173142e+01    0.1903561   0.09483166 -60.19  0.000179549    1.698    0.411
       242  -9.7243    172.0194     35.9878   3.6330681598e+01   3.7649574169e+01    0.2169892    0.1582297  38.48 0.0007281455    1.714    0.416
       243 -10.2949    108.1528     34.1836   4.7780017023e+01   5.3507969433e+01    0.2923935    0.2189081  72.34 0.0006181198    1.446    0.309
       244 -11.2461     17.6202     31.0918   8.3064846517e+01   6.9913158044e+01    0.4493776     0.201859  29.36  0.002246103    2.340    0.573
       245 -10.0565     12.4819     32.5660   8.6593301774e+01   7.0077010294e+01    0.2090419    0.1956482  68.48 0.0007594186    1.435    0.303
       246  -9.8682      9.1527     34.8168   8.9321082832e+01   6.9883767831e+01    0.2679536    0.1925816 -49.98 0.0009890817    1.208    0.173
       247 -11.0183      8.0738     31.2696   8.8708901764e+01   7.0673041964e+01    0.2587731    0.2014809 -18.87 0.0004273205    1.182    0.154
       248  -9.2639    215.2824     35.3182   3.1102140074e+01   2.7669535929e+01     0.115491    0.1013426  23.13 0.0004387774    1.583    0.368
       249  -9.4695    134.5153     35.0675   4.2241601774e+01   4.7026006686e+01    0.2077831    0.1388263 -33.37  0.001021459    1.559    0.359
       250  -9.4399     84.7730     34.6472   5.4630266796e+01   5.8670067777e+01    0.1757471    0.1261996  57.24  0.000262172    1.454    0.312
       251  -9.2969    184.3277     33.6913   3.4078736009e+01   3.4979084487e+01    0.1459604   0.09110136 -65.76 0.0001895815    1.659    0.397
       252  -9.8062    247.1930     32.6255   2.7759205733e+01   2.1394252746e+01    0.1500766    0.1049981  65.47  0.000684144    1.652    0.395
       253 -10.0084    232.8162     32.3789   2.8843505380e+01   2.4308310146e+01    0.1530246    0.1090218  66.14 0.0004363895    1.560    0.359
       254 -10.2705    205.9262     32.0725   3.1243685318e+01   3.0163133677e+01    0.1922332    0.1653907 -65.32 0.0002934248    1.023    0.022
       255 -10.0818    166.5935     32.2715   3.6018303168e+01   3.9455787776e+01    0.1816285      0.13561 -17.28 0.0009484277    1.631    0.387
       256 -10.5809     98.0098     31.2528   4.9313891476e+01   5.6249695784e+01    0.2457066    0.2014206  54.33 0.0006868888    1.166    0.142
       257 -11.3283    102.4194     28.5949   4.7086417618e+01   5.5594313196e+01    0.4937725    0.3280053  81.39  0.001344883    1.992    0.498
       258  -9.8415     49.3012     30.6747   6.6519169547e+01   6.5936183304e+01    0.1836031    0.1411072  -4.32 0.0005297009    1.343    0.255
       259  -9.8972     50.9495     27.4942   6.4321971768e+01   6.6181080821e+01    0.3118048    0.1919101   9.52  0.001478696    2.251    0.556
       260  -9.7640     44.0563     31.2680   6.9220024634e+01   6.6647746103e+01    0.1722569    0.1556317   5.16 0.0004007029    1.073    0.068
       261  -9.2730     25.8040     30.1797   7.8095688011e+01   6.9238645931e+01     0.160924    0.1181553 -23.71  0.000237538    1.249    0.199
       262 -10.7108    237.9457     28.9774   2.7682102760e+01   2.3677932888e+01    0.1704777    0.1480078  20.04 0.0009913385    1.719    0.418
       263 -11.5901    111.8374     27.5091   4.4363226607e+01   5.3519685649e+01    0.2939443    0.2252882 -26.26 -0.0002643772    1.405    0.288
       264 -10.8773     60.0424     27.0054   6.0226654950e+01   6.4679315468e+01    0.2032181    0.1835085 -34.99 0.0004165384    1.216    0.178
       265 -10.4006    204.5092     26.5047   3.0004177959e+01   3.1169443429e+01    0.2419025    0.1379559 -59.88  0.000611259    1.662    0.398
       266 -10.7332    174.9991     26.5295   3.3252972529e+01   3.8113628264e+01     0.259453    0.1819202 -37.74 -1.324613e-05    1.417    0.294
       267 -10.6368     88.4647    241.3162   9.8149370368e+01   1.3125490900e+01    0.1971348    0.1122164 -57.95  0.001119372    2.073    0.518
       268 -10.5166     61.4179    241.8829   1.0369336706e+02   1.6488564887e+01    0.4294897   0.06379123  40.87   0.00156996    3.705    0.730
       269 -10.0853    195.5357    238.6518   7.6707375288e+01  -1.3200389557e+00    0.2095305    0.1456271  -5.20  0.001347086    1.452    0.311
       270 -10.5244     69.7622     25.6636   5.5877477486e+01   6.3034739425e+01    0.3809943    0.2113389  30.56  0.001162496    2.066    0.516
       271 -10.7976    244.1240    237.1156   6.8189106406e+01  -7.1074977558e+00    0.1859691    0.1304678 -25.48  0.001278943    1.385    0.278
       272  -9.7029    134.7884    238.2155   8.8355189083e+01   7.2144036843e+00    0.1745762   0.08843258 -41.20 0.0008767098    2.480    0.597
       273 -10.3241    159.9707    235.7247   8.3014568434e+01   4.0113246256e+00    0.1735706    0.1359686  26.58 0.0004343842    1.068    0.064
       274 -10.9981      8.2066     24.8400   8.6188432698e+01   7.1912196639e+01    0.4006026    0.1727902  15.42  0.001979175    2.576    0.612
       275 -11.0263     14.0619     23.1497   8.1860983618e+01   7.1730113347e+01    0.2398789    0.1605341 -18.64 0.0003899042    1.433    0.302
       276  -9.8533      1.4608     25.8525   9.0810672827e+01   7.2183632850e+01    0.1688514   0.09695614 -53.95 0.0004040072    1.483    0.326
       277 -12.1005    165.1538     22.7735   3.3425481422e+01   4.0962720961e+01    0.3047566    0.2331019  65.20 0.0002392243    1.261    0.207
       278 -10.0316    221.0521    234.7804   7.1634992079e+01  -4.0865809928e+00    0.1909717    0.1067628   8.74 0.0009958083    1.961    0.490
       279 -10.6146    185.6979     22.1292   3.0802247142e+01   3.6062745598e+01    0.2645829    0.1607309 -58.08  0.001359999    1.574    0.365
       280  -9.8947    106.7527     23.2031   4.3897706513e+01   5.5255999104e+01    0.2564066    0.1804262 -70.63 0.0008060827    1.862    0.463
       281  -9.7361    177.3809    234.8348   7.9528145929e+01   1.6889486917e+00    0.1599582    0.1038768 -26.87 0.0009476662    1.713    0.416
       282 -10.8150     99.5858     22.8599   4.5523615819e+01   5.6971761443e+01    0.4729204     0.253067  52.57  0.001947681    1.694    0.410
       283 -10.2887     93.9958     22.2938   4.6762224854e+01   5.8319286380e+01     0.240009      0.23285  47.21 0.0007115166    1.061    0.058
       284  -9.6509     53.8797     22.8770   6.0854478442e+01   6.6384703177e+01    0.1589953    0.1518219  55.77 0.0003776248    1.307    0.235
       285 -10.9427     59.3430     20.6400   5.7505554557e+01   6.5720847616e+01    0.3394804    0.2070608 -12.70  0.001252495    2.011    0.503
       286  -9.3937    226.5449     21.5338   2.6913625113e+01   2.6925871454e+01    0.1239561    0.1015196 -62.78 0.0001411249    1.025    0.025
       287 -10.2851    120.3717     20.9934   4.0093244901e+01   5.2241831443e+01    0.1801107    0.1636733 -27.85 0.0001972044    1.194    0.162
       288 -10.2217     67.2089     21.0995   5.4704877212e+01   6.4159964588e+01    0.2821032    0.1793896  52.49    0.0014847    1.601    0.375
       289 -10.3549      9.5320     15.6755   8.1327293903e+01   7.3474781415e+01    0.3126538    0.1604084 -23.49 0.0008897257    2.110    0.526
       290 -11.3902      6.0660     20.5214   8.5772430585e+01   7.2886535582e+01    0.2474854    0.1613154  14.72 0.0006588158    1.587    0.370
       291 -10.4046     86.9809    233.1674   9.7678775579e+01   1.4821052167e+01     0.221065    0.1063299  53.41  0.001083451    2.022    0.505
       292 -10.1352     38.2795    232.5377   1.0773375950e+02   2.0991322542e+01    0.1838026    0.1372396  85.31 0.0005728209    1.270    0.212
       293  -9.9052     87.7358     20.4211   4.7715011642e+01   5.9947937466e+01     0.316002     0.165073  62.96  0.001422838    2.057    0.514
       294 -10.0974     24.0423    232.3129   1.1058304254e+02   2.2569210324e+01    0.1731848    0.1404452 -85.30 0.0006606202    1.312    0.238
       295  -9.4747    170.0148    228.9767   8.0101762241e+01   3.6185125460e+00    0.1468883    0.1257304  16.48 0.0003802232    1.027    0.026
       296  -9.6156    109.7217    242.5792   9.3939920945e+01   1.0011103899e+01    0.1737673    0.0906784  43.98 0.0004234106    1.595    0.373
       297 -10.0818     54.4345     18.4533   5.8452946492e+01   6.6912219102e+01    0.1922525    0.1678115  79.89 0.0005140943    1.652    0.395
       298 -10.0868     29.8516     18.2616   7.0295247757e+01   7.0787591260e+01    0.2601469    0.2141325   1.09  0.001731857    1.079    0.073
       299 -10.0203    151.6939    228.6627   8.3691966352e+01   6.3375977770e+00    0.1246623   0.09005293  -0.66 0.0007041036    1.675    0.403
       300  -9.7357    151.9915     18.0048   3.3760785747e+01   4.4752562213e+01    0.2331918     0.146414 -66.32  0.001142372    1.741    0.426
       301 -11.0650      4.2575    226.6268   1.1422869070e+02   2.5624658672e+01    0.2700061    0.1576143  78.08  0.001749765    1.422    0.297
       302  -9.2262    190.3494    226.3007   7.5821318436e+01   1.1311592988e+00     0.125682     0.082142   3.87 0.0007038092    1.691    0.409
       303 -10.8969    120.8469    225.8442   8.9705243158e+01   1.1379202412e+01     0.189268    0.1641005  16.18 0.0008159509    1.222    0.182
       304  -9.7194     98.0007    242.4491   9.6311804428e+01   1.1640774603e+01    0.1930163   0.09968439  35.62 0.0006196946    1.610    0.379
       305  -9.3972    105.3232    223.3219   9.2717936698e+01   1.4112957301e+01    0.1217789   0.09748425  -4.97 0.0004848631    1.678    0.404
       306 -10.2714    194.9805     16.8892   2.8491625135e+01   3.4476205023e+01    0.1898299    0.1617076 -74.62  0.000334077    1.017    0.017
       307 -10.6753    165.1310     17.1787   3.1783438520e+01   4.1597349226e+01    0.1924525    0.1700387  62.02 0.0003283714    1.190    0.159
       308  -9.8032    184.1245     15.8675   2.9287668845e+01   3.7143090924e+01    0.2153606    0.1570714 -67.21  0.001044891    1.254    0.202
       309 -10.1480    173.6334     20.2996   3.1659831023e+01   3.9173287236e+01    0.1464219   0.08838272 -67.47  0.000703297    1.731    0.422
       310  -9.9002    123.6731    221.6696   8.8575203120e+01   1.1721255719e+01    0.1264099   0.09668145  -2.86 0.0005847373    1.708    0.415
       311 -11.5249     10.3834    217.1014   1.1259090264e+02   2.6984605398e+01    0.3101497    0.2116507  33.73  0.002026494    1.517    0.341
       312  -9.4059    191.6647    217.3297   7.4176111575e+01   2.2822284018e+00    0.1128842   0.09725054  63.32 0.0007052072    1.728    0.421
       313  -9.8974     38.2523    217.4017   1.0674293010e+02   2.4050854771e+01    0.1729403   0.08858384  44.98 0.0009401501    1.593    0.372
       314  -9.8074     83.9876     13.7250   4.5839846569e+01   6.1546671729e+01    0.1778095    0.1549817  51.26 0.0003202707    1.086    0.079
       315 -11.4455     29.3331    215.8295   1.0854952690e+02   2.5352435930e+01    0.3089215    0.2337812  31.62  0.001384638    1.446    0.308
       316 -11.5707    235.9468    214.3266   6.5885759344e+01  -3.3040391527e+00    0.2651252    0.1761279 -11.68 0.0007359139    1.357    0.263
       317 -11.8251    238.2109    210.3138   6.4848470539e+01  -3.0604882357e+00    0.2736065    0.2554496  14.07  0.001887686    1.456    0.313
       318  -9.9126    169.6595     12.6804   2.9948139815e+01   4.0969818612e+01    0.1332953   0.09425192  42.38 0.0007049785    1.715    0.417
       319  -9.5030     30.7084     12.2914   6.6680647387e+01   7.1579740996e+01    0.1017139   0.09853659 -85.38 0.0002791452    1.549    0.354
       320 -10.3576     20.7106    212.1585   1.1017030871e+02   2.7014462311e+01    0.2206087    0.1250156  50.45  0.001304997    1.433    0.302
       321 -10.9966      1.5487    210.8000   1.1413171235e+02   2.9095274188e+01    0.2739517    0.1352778 -79.33  0.001264131    1.847    0.459
       322 -11.9990      5.5128    208.4503   1.1320203944e+02   2.9240088062e+01    0.4371111    0.2329787 -85.12  0.002503294    1.671    0.402
       323  -9.3431    208.5187    211.5183   7.0130470834e+01   7.4845375788e-01    0.1238322   0.09958042   2.11 0.0008092797    1.064    0.060
       324 -10.2731     11.1257    208.0632   1.1199445639e+02   2.8810223398e+01     0.164332    0.1441915 -84.67 0.0005231869    1.283    0.221
       325 -10.3532    246.3295    202.6375   6.2249452226e+01  -3.0699422388e+00    0.2190249    0.1698964 -59.74  0.001345703    2.452    0.592
       326 -11.0733     19.8909    200.6208   1.0966348159e+02   2.9581956676e+01    0.5473564    0.1396208 -74.84  0.002150653    3.511    0.715
       327 -10.5439    175.3430    202.3791   7.4904414563e+01   7.1457459740e+00    0.2242687    0.2018891  28.46 0.0004835205    1.121    0.108
       328  -9.4920    107.5543     10.5345   3.8722771437e+01   5.6446493405e+01    0.1314457    0.1202385  62.49 0.0002188771    1.021    0.020
       329  -9.7830    117.0485    201.5154   8.7300628453e+01   1.6624670221e+01    0.2100955    0.1206613  38.01  0.000827329    1.564    0.361
       330  -9.1057    188.2366    204.9738   7.2808796429e+01   4.7221108788e+00    0.1531282    0.1023533 -38.47 0.0005373896    1.548    0.354
       331  -9.4898    136.4977    215.5384   8.5009746028e+01   1.0897826558e+01    0.1298718    0.1137233  24.86 0.0001544015    1.072    0.067
       332 -11.5242     16.0464    193.0511   1.1006538193e+02   3.1632208084e+01    0.4571243    0.2262244  30.37  0.002426251    2.046    0.511
       333  -9.5533    222.3000    192.3793   6.4404216770e+01   1.6203753130e+00    0.1312698   0.08377609  -6.09  0.000116494    1.765    0.434
       334 -10.1292    244.8417    188.2763   5.9969954473e+01  -9.1975133971e-01    0.1975255    0.1397459 -32.88 0.0004711794    1.317    0.240
       335  -9.4625    212.0055    187.9947   6.5416172804e+01   3.8134770766e+00    0.1550266    0.1329574   3.68  0.000540163    1.048    0.046
       336  -9.3699      2.3044    187.3524   1.1288494555e+02   3.4125147752e+01    0.1144467   0.08172779 -54.77 0.0006649181    1.707    0.414
       337  -9.4945     62.0000    184.9735   9.8323684872e+01   2.8325781509e+01     0.212113   0.07291313 -67.85 0.0007987271    2.917    0.657
       338 -11.3466     15.8811    182.1757   1.0940298114e+02   3.4124871835e+01    0.4545489    0.2206225  71.51  0.002204702    1.976    0.494
       339 -10.4430    167.9691    183.2891   7.3091602354e+01   1.1754160158e+01    0.1979647    0.1738443  26.20  0.001168907    1.078    0.073
       340  -9.6832     58.7221    181.9558   9.8803026793e+01   2.9453706302e+01    0.1904723    0.1650285  85.94 0.0007372408    1.073    0.068
       341  -9.0573      1.6977    180.3139   1.1265847505e+02   3.5771101110e+01    0.1298855   0.06906808  62.83 0.0003461521    1.614    0.381
       342  -9.8647    244.4805    178.4544   5.8245299523e+01   5.2269236333e-01    0.2212724    0.0965526 -26.93  0.001027863    2.334    0.572
       343 -10.6796     46.5347    177.5181   1.0140762491e+02   3.2005197454e+01    0.2804046    0.2351639  73.66  0.001084705    1.036    0.034
       344 -10.1065     34.1035    173.9561   1.0423005979e+02   3.4252745643e+01    0.1899589    0.1607401  78.51 0.0002913761    1.010    0.010
