#   1 NUMBER                 Running object number                                     
#   2 MAG_AUTO               Kron-like elliptical aperture magnitude                    [mag]
#   3 X_IMAGE                Object position along x                                    [pixel]
#   4 Y_IMAGE                Object position along y                                    [pixel]
#   5 X_WORLD                Barycenter position along world x axis                     [deg]
#   6 Y_WORLD                Barycenter position along world y axis                     [deg]
#   7 A_WORLD                Profile RMS along major axis (world units)                 [deg]
#   8 B_WORLD                Profile RMS along minor axis (world units)                 [deg]
#   9 THETA_WORLD            Position angle (CCW/world-x)                               [deg]
#  10 FWHM_WORLD             FWHM assuming a gaussian core                              [deg]
#  11 ELONGATION             A_IMAGE/B_IMAGE                                           
#  12 ELLIPTICITY            1 - B_IMAGE/A_IMAGE                                       
         1 -13.1843    203.2941     35.1707   6.0206235628e+01   3.0776343765e+01     1.095114    0.7353605  66.59  0.006480356    1.388    0.280
         2 -13.8161    221.5510     15.8022   5.4403956779e+01   2.9221745014e+01     1.000741    0.8084284  47.37  0.003198766    1.772    0.436
         3 -13.4034      2.6954     15.2021   1.0665230763e+02   7.0327350420e+01     1.042444    0.5189133 -47.12  0.006305458    2.410    0.585
         4 -13.0031      3.2813      4.6126   1.0189661193e+02   7.1601075253e+01     1.123226     0.588895  26.29  0.007686121    1.833    0.454
         5 -11.7421    135.5944    241.2347   1.1779897404e+02   3.7662437061e+00    0.5187578    0.2854606 -33.95  0.002245656    2.630    0.620
         6 -11.1398    176.1982    249.8369   1.1058608688e+02  -4.3977061966e+00    0.4441459    0.1894536  28.55  0.001833864    2.551    0.608
         7 -11.0723    161.6634    250.1901   1.1363792390e+02  -2.1657331654e+00    0.3698729    0.2147622  34.16  0.001882615    1.558    0.358
         8 -11.2081    143.3852    249.3168   1.1732633459e+02   9.3447701107e-01    0.4332545    0.2231075  56.81  0.001813963    2.677    0.626
         9 -11.3397    100.3586    248.0934   1.2620435157e+02   8.0482192000e+00    0.6307687    0.3595153  47.46  0.003224504    1.555    0.357
        10 -11.9930    118.3599    237.5498   1.2098841104e+02   7.3484036561e+00    0.8012851    0.5167071 -21.18   0.00342411    2.857    0.650
        11 -10.6508     97.1228    239.3573   1.2580540685e+02   1.0366376597e+01    0.3068116    0.2360674  64.82 0.0008567634    1.237    0.192
        12 -11.9091    111.9776    231.5564   1.2153962370e+02   9.6577282058e+00    0.5293957     0.437619  41.28  0.002475377    1.154    0.133
        13 -11.1108    115.7878    249.8703   1.2320162310e+02   5.2676879707e+00    0.5694039    0.4514835  30.90  0.003362681    1.285    0.222
        14 -13.4335    124.4665    245.0851   1.2072701321e+02   4.8227145370e+00     1.309045    0.9752331  56.13  0.007367226    1.319    0.242
        15 -12.4156    102.8139    238.2692   1.2444581280e+02   9.7023930073e+00    0.6598272    0.5579458 -72.78  0.002086099    1.232    0.189
        16 -12.1210    103.3706    230.4527   1.2328211687e+02   1.1292213749e+01    0.7750778    0.4838723  18.65  0.002494079    2.370    0.578
        17 -10.8617     84.3472    230.1325   1.2740691009e+02   1.4335075117e+01    0.3379708    0.2229568 -52.73  0.001106095    1.678    0.404
        18 -10.4210     81.4192    247.9737   1.3010561512e+02   1.0938175718e+01      0.31874     0.209645 -75.52  0.001115867    1.586    0.369
        19 -11.5683     87.5420    248.3850   1.2889511157e+02   9.9434421957e+00    0.5739607    0.3172454  46.57  0.001626195    1.582    0.368
        20 -11.6187     83.3655    240.3897   1.2884634733e+02   1.2247207904e+01    0.7802634    0.3125107  56.81  0.002963054    3.068    0.674
        21 -12.1764     88.6695    238.2424   1.2747025085e+02   1.1907206403e+01    0.7942837    0.4418856  73.29  0.003419882    2.447    0.591
        22 -11.3179     68.3224    245.5929   1.3251823483e+02   1.3323996128e+01    0.3191728    0.2351971  79.65  0.001002828    1.261    0.207
        23  -9.5992     56.6792    250.4553   1.3530424247e+02   1.3905193548e+01    0.2083648    0.1675375  42.11 0.0008635627    1.335    0.251
        24 -11.2355     59.5103    245.7157   1.3430015941e+02   1.4517077812e+01    0.4492117    0.3075787  73.07   0.00265236    1.335    0.251
        25 -12.8821      3.0195    189.8531   1.4091635040e+02   3.3634290741e+01     2.089869    0.4094194 -75.14  0.006666486    4.539    0.780
        26 -11.4573     45.1123    200.8612   1.3264688157e+02   2.6621988640e+01    0.8044692    0.5683732 -45.42  0.003765794    1.719    0.418
        27 -12.1994     48.8585    216.7230   1.3357265969e+02   2.2385576435e+01     1.752667    0.7768887  64.24  0.006067223    2.872    0.652
        28 -13.7308      8.1823    211.8279   1.4162958657e+02   2.8072628185e+01     1.862209     1.210876 -62.83   0.01145857    1.528    0.345
        29 -14.0117     26.3298    247.4515   1.4082299479e+02   1.8328989145e+01     2.282951     1.289021  25.22   0.01225884    2.596    0.615
        30 -13.1691     22.9454    225.0052   1.3973298913e+02   2.3571810686e+01    0.4619221    0.4188174 -38.17 0.0008332699    1.602    0.376
        31 -14.2624     28.5705    218.5237   1.3804003069e+02   2.4411913931e+01     1.361894     1.012454 -87.34  0.007895783    1.118    0.106
        32 -14.1010      6.7334    244.5001   1.4416765153e+02   2.1090542772e+01     1.593268     1.179577 -79.65   0.01131216    1.284    0.221
        33 -11.0164     73.9837    244.3973   1.3124026775e+02   1.2770656882e+01    0.3770221    0.2733773 -63.00  0.002223654    1.468    0.319
        34 -10.7743    198.0906    245.8191   1.0550544269e+02  -7.0663994680e+00    0.2401624    0.1636954  23.32  0.001006393    1.370    0.270
        35  -9.5330     60.9044    239.0000   1.3335511296e+02   1.5766155885e+01    0.2011643   0.06718995  36.23  0.000795907    2.897    0.655
        36  -9.0902     73.6355    237.1917   1.3052561209e+02   1.4367509974e+01    0.1710708    0.1141322 -59.91 0.0002576072    1.582    0.368
        37  -8.8228     48.5151    237.4568   1.3571594062e+02   1.7750169428e+01    0.2562758    0.1080153  39.44   0.00120465    2.206    0.547
        38 -11.0875    110.0235    247.6656   1.2412668920e+02   6.6210884896e+00    0.4238985    0.3827339  19.29  0.002653633    1.286    0.222
        39  -9.3968     54.8114    235.3660   1.3423740226e+02   1.7382756798e+01    0.2135413    0.1359403  57.51  0.001189294    1.405    0.288
        40 -11.4507    179.6163    243.9264   1.0893449842e+02  -3.9022209688e+00    0.3506396    0.2085745  24.18  0.001431319    1.732    0.423
        41  -8.5787     45.6433    231.2811   1.3571548929e+02   1.9478661720e+01    0.1368381     0.078754  65.21 0.0007015182    1.663    0.399
        42  -9.3750     56.5531    228.4616   1.3317163332e+02   1.8686486515e+01    0.2784442    0.1202363 -74.61  0.001201096    2.414    0.586
        43  -9.7513     77.1855    220.8587   1.2782530421e+02   1.7505963990e+01    0.3401059    0.2708398 -54.25  0.001935324    1.389    0.280
        44 -10.1210     80.6897    226.6824   1.2777788525e+02   1.5657709163e+01    0.3222335    0.2488031 -16.53  0.001367127    2.087    0.521
        45 -10.0529     78.9657    224.5411   1.2789107565e+02   1.6399624427e+01    0.4526733    0.3033173   7.97  0.002042663    2.715    0.632
        46 -10.1010     92.7273    226.0443   1.2504144476e+02   1.3956078227e+01    0.2378894    0.1913856  46.28 0.0008288272    1.182    0.154
        47 -10.6709    136.2303    224.2404   1.1504842874e+02   7.1438349829e+00    0.3504565    0.2153283 -42.84 0.0009359134    1.805    0.446
        48  -9.3834     65.0849    224.4108   1.3090723591e+02   1.8435492023e+01    0.2526347    0.1583703 -46.52  0.001263692    2.018    0.504
        49  -8.9101     45.8023    225.2570   1.3509901990e+02   2.0812375288e+01    0.1595211    0.1349515 -68.11 0.0004481264    1.283    0.221
        50  -9.7738    117.0389    224.4650   1.1938308025e+02   1.0357297061e+01    0.2136305    0.1317884  37.83 0.0004804346    1.552    0.356
        51 -10.9101     98.6488    222.7726   1.2327369844e+02   1.3752458053e+01    0.3199454    0.2798191  63.19  0.001014485    1.048    0.046
        52  -9.3902     87.9129    223.7312   1.2580616923e+02   1.5225951194e+01    0.2035824    0.1660975  57.74  0.001095505    1.124    0.111
        53 -10.3457     71.0127    219.3953   1.2901596089e+02   1.8746257795e+01    0.4926794      0.30814  88.57  0.002422641    1.768    0.434
        54 -10.3619    141.6440    219.2971   1.1302765706e+02   7.2578247469e+00    0.3600725    0.2527693 -48.11  0.001743824    1.491    0.329
        55 -10.0048    246.0000    219.5311   9.1780629312e+01  -9.5804833796e+00    0.2799066   0.06243157 -41.58 0.0009436601    4.007    0.750
        56 -10.1444     90.7517    219.7177   1.2463261816e+02   1.5698880128e+01    0.3051813    0.1800421  61.85 0.0008532737    1.889    0.471
        57 -10.0031    116.6879    216.0108   1.1816910799e+02   1.2294829065e+01    0.3672187    0.2485143  11.78  0.001260343    2.244    0.554
        58  -9.9328     86.9519    212.2523   1.2447004760e+02   1.8025096345e+01    0.4408991    0.2360556  71.13  0.001689401    2.834    0.647
        59 -10.2987     62.8536    209.1306   1.2958927566e+02   2.2313091200e+01    0.3364149    0.3158644   9.22  0.002014425    1.386    0.279
        60  -9.8171     63.5972    205.0260   1.2890352044e+02   2.3193819009e+01    0.3400345    0.1921787 -72.41 0.0003037467    1.708    0.414
        61  -9.5137     58.5251    212.5150   1.3097359481e+02   2.2101548496e+01    0.2062878    0.1277752  38.29 9.001457e-05    1.657    0.396
        62 -10.4434     55.8246    208.4206   1.3109750235e+02   2.3435172344e+01    0.5219864     0.209549 -70.06  0.002129433    2.422    0.587
        63  -9.6564     99.5005    210.0190   1.2123108609e+02   1.6546226412e+01    0.3174078    0.1570792  65.67  0.001058298    3.535    0.717
        64  -8.7401     74.4235    208.4815   1.2685018747e+02   2.0816185282e+01    0.1402477    0.1229954  83.55 0.0001932349    1.018    0.017
        65 -11.8109    134.2225    233.1736   1.1688909401e+02   5.6206000175e+00    0.4013482    0.2731934 -57.17  0.001617668    1.601    0.376
        66  -9.3898     90.9059    205.0786   1.2251182962e+02   1.9103641100e+01    0.3130697     0.177954  32.22  0.001387974    1.925    0.480
        67 -10.1354    106.9755    203.3506   1.1842815961e+02   1.6872882584e+01    0.2887343    0.2077602 -55.81 0.0004056251    1.397    0.284
        68 -10.2798     74.6297    200.1398   1.2565964703e+02   2.2797245827e+01    0.2330875    0.2131827 -76.83 0.0005242937    1.093    0.085
        69  -9.0314     96.8392    199.1916   1.2019119015e+02   1.9558919163e+01    0.1856571    0.1714725 -25.60 0.0002451834    1.291    0.225
        70  -9.4301     53.0044    198.1732   1.3050301025e+02   2.6277726737e+01    0.2604035     0.207316   7.93  0.001432966    1.790    0.441
        71 -11.7585     53.0573    193.1169   1.2985211060e+02   2.7509678945e+01    0.3856895    0.3497222   6.39  0.000674939    1.447    0.309
        72 -10.2988     30.7825    193.2161   1.3506540817e+02   3.0138467781e+01    0.2164094    0.2004357 -57.28 0.0006650571    1.294    0.227
        73  -9.8294     25.9561    192.7602   1.3611485346e+02   3.0765515656e+01    0.2285119    0.1811523  86.87 0.0009550412    1.068    0.064
        74  -9.9183     21.6433    192.6501   1.3707551176e+02   3.1236556525e+01    0.4007957    0.1968623  73.74  0.001023566    2.394    0.582
        75  -9.2867    191.5999    191.5353   9.6913363758e+01   4.1571879763e+00    0.2511412     0.210228 -31.58 0.0006947666    1.144    0.126
        76 -10.5457    250.3071    187.9283   8.5123644236e+01  -4.8188027772e+00    0.3356437    0.1345739 -36.65  0.001437151    2.230    0.552
        77  -9.3298     76.3661    186.8405   1.2327673891e+02   2.5819194891e+01    0.3524301    0.1803346 -78.61  0.001339565    2.546    0.607
        78 -10.2006      9.7102    187.2071   1.3921398716e+02   3.3677215018e+01    0.3397143    0.1644862  89.36  0.001626597    2.040    0.510
        79 -10.6730     71.0009    187.0862   1.2464787908e+02   2.6548331222e+01     0.285111    0.1978662  39.03 0.0003352127    1.506    0.336
        80 -11.7420     59.8071    185.4420   1.2718018297e+02   2.8523509944e+01    0.2954916    0.2400515 -59.16 0.0004034026    1.211    0.174
        81  -8.8721    107.2085    185.5911   1.1535760597e+02   2.1119610118e+01    0.1922164    0.1471607  25.06   0.00037513    1.512    0.339
        82 -10.5153     37.0766    180.2735   1.3207459746e+02   3.2616505227e+01    0.3384718    0.1827156 -60.15 0.0004398237    1.630    0.386
        83  -8.9500     30.0637    183.5282   1.3415104330e+02   3.2579049441e+01    0.1754803    0.1285634  37.79 0.0005857939    1.530    0.346
        84  -9.3134     27.0825    179.5947   1.3440789739e+02   3.3856281332e+01    0.2349118    0.1556274 -72.05 0.0003414011    1.264    0.209
        85  -8.9807     47.5353    179.6918   1.2942479656e+02   3.1536659303e+01    0.2198111    0.1267191  32.19  0.001046789    1.944    0.486
        86  -8.4445     12.3245    178.3264   1.3775375199e+02   3.5575948841e+01     0.128202    0.0828162 -48.83  0.000704909    1.692    0.409
        87  -9.5509    105.4001    176.0178   1.1406695777e+02   2.3799988487e+01    0.2937137    0.1926112  39.15  0.001153876    1.564    0.361
        88 -11.8962    248.6120    172.3536   8.2392397940e+01  -1.7736541251e+00    0.6760911     0.338184 -43.62  0.003242294    1.706    0.414
        89 -11.4703    245.0424    162.6389   8.1063480707e+01   5.7880763821e-01    0.4100538    0.1972309 -42.79  0.001887181    1.761    0.432
        90 -12.0128    247.0385    158.1180   7.9842391727e+01   1.0908912730e+00    0.7644066    0.5234334 -79.00  0.003635107    2.529    0.605
        91 -10.2485     12.5008    172.9231   1.3714987546e+02   3.6869019717e+01    0.3120689    0.1650365 -57.14  0.001626418    1.694    0.410
        92  -9.8259     56.0434    172.9108   1.2630334690e+02   3.2169473275e+01    0.2204698    0.2036224  61.60 0.0006005996    1.148    0.129
        93  -9.7787     51.7476    171.0757   1.2713774499e+02   3.3180195242e+01    0.2533655    0.1947605  46.84 0.0006561273    1.381    0.276
        94 -11.2335      2.4193    171.9892   1.3942636581e+02   3.7926235715e+01    0.5676201     0.242007 -87.54   0.00252315    2.401    0.583
        95 -11.7727     10.0643    157.6851   1.3605181474e+02   4.0776998999e+01    0.5601562    0.2581078  79.52  0.002263016    3.134    0.681
        96 -10.4529      4.9879    166.7519   1.3829659481e+02   3.8983171838e+01    0.3061466    0.2398655  17.76  0.001211439    1.688    0.407
        97 -11.1934     13.1257    167.0892   1.3636365019e+02   3.8233928432e+01    0.3809514    0.2644899  10.77  0.001679715    2.010    0.503
        98 -11.1670      9.2851    164.7031   1.3703852875e+02   3.9135251980e+01    0.4277505    0.2074658 -49.48  0.002109726    2.079    0.519
        99 -10.1539     27.2397    171.6786   1.3342806329e+02   3.5792218331e+01    0.3152623     0.199416 -43.11  0.000406721    1.826    0.452
       100  -9.6737     17.9945    172.0573   1.3573651700e+02   3.6588310621e+01    0.2039806    0.1681406 -84.88   0.00129097    1.039    0.037
       101 -10.3525     38.8544    167.7288   1.2998164194e+02   3.5546295581e+01    0.2315845    0.2013892 -86.75 0.0003779961    1.059    0.056
       102 -10.3399     44.4427    165.5076   1.2821651364e+02   3.5467008730e+01    0.3588298    0.2040582 -37.30  0.001595923    2.299    0.565
       103 -11.8133     79.2797    165.3540   1.1894410687e+02   3.0794121933e+01    0.5439491    0.5062138   6.67  0.003032967    1.259    0.206
       104  -8.6610     64.7570    166.9783   1.2309110232e+02   3.2502798163e+01    0.1733122    0.1594176 -80.36 0.0004779062    1.031    0.031
       105  -9.9815     68.1230    166.1119   1.2205253896e+02   3.2250667802e+01    0.2188834    0.1934871 -78.65 0.0004534822    1.044    0.042
       106 -10.7489     71.3397    173.3598   1.2241197797e+02   2.9951297885e+01     0.259989    0.2384596 -63.33 0.0003846046    1.089    0.081
       107 -10.3502     29.7100    165.0130   1.3196087347e+02   3.7196123109e+01      0.18908    0.1513925 -72.56 0.0004179134    1.048    0.046
       108  -9.4099     67.0029    161.3588   1.2154001009e+02   3.3615209386e+01    0.2395781    0.1814739 -51.46 0.0003201632    1.268    0.211
       109  -8.8084     37.3129    162.7079   1.2967841097e+02   3.6973451891e+01    0.1373407   0.09517071  73.06 0.0002896466    1.592    0.372
       110 -10.1369     23.9942    162.0024   1.3303373814e+02   3.8502961746e+01     0.196591     0.164466 -73.37 0.0003498193    1.028    0.027
       111  -8.7338     66.6463    157.2379   1.2091386239e+02   3.4710353179e+01    0.1443005    0.1051911  65.81 0.0002047923    1.577    0.366
       112 -11.5933     23.9306    155.6047   1.3221129675e+02   4.0090763814e+01    0.4764721    0.3192194  11.71  0.002342716    2.018    0.504
       113 -10.2567     81.5413    156.5925   1.1670716720e+02   3.2662497116e+01    0.3563309    0.1302935  40.27  0.001245272    2.800    0.643
       114 -10.6779     31.8439    154.4351   1.2994371700e+02   3.9613470071e+01    0.3756515     0.144435 -48.42  0.001357061    2.564    0.610
       115  -8.6499    228.3621    155.2285   8.2373769325e+01   4.8333439337e+00    0.2007473    0.1170495 -50.14 0.0004943312    1.617    0.381
       116 -10.2130     12.3112    153.9509   1.3503118569e+02   4.1505498723e+01    0.1959469    0.1375795 -67.33  0.001157303    1.150    0.130
       117 -10.9990    249.6612    150.9021   7.7996300893e+01   1.9929780450e+00    0.4662202    0.2421382 -43.52  0.002219492    1.607    0.378
       118 -12.0571    247.9497    142.1908   7.6524788466e+01   3.8887611183e+00    0.6167169    0.5388277  40.13  0.003849905    1.379    0.275
       119 -13.0811    248.2424    134.3377   7.4909781530e+01   5.2873363516e+00     1.347809    0.6226115 -39.83  0.006066766    1.910    0.477
       120  -9.7083     54.2664    151.7285   1.2337107174e+02   3.7751599530e+01    0.2859445    0.1985853 -36.93  0.001423324    1.625    0.385
       121 -10.6741     93.4780    150.1010   1.1212390791e+02   3.2347316503e+01     0.336953    0.3157594 -20.54  0.001015272    1.169    0.144
       122 -11.1413     23.0178    149.5010   1.3161851505e+02   4.1680620357e+01    0.3634678     0.179865  40.74  0.001751536    2.263    0.558
       123  -9.4578     81.2727    148.6777   1.1522873021e+02   3.4699293462e+01    0.3174981    0.1746733  47.18  0.001322851    2.008    0.502
       124 -11.8643     68.1519    144.1514   1.1805088371e+02   3.7797811923e+01    0.7216333    0.4970231  84.56  0.002824884    1.933    0.483
       125 -12.5173      9.1021    143.4208   1.3455208961e+02   4.4309574290e+01    0.5139279    0.2790665 -65.91  0.002020254    1.445    0.308
       126 -12.0171      3.3321    143.9784   1.3616111737e+02   4.4588368978e+01    0.4599593    0.3315094  84.63   0.00281668    1.384    0.278
       127  -9.8453    235.8524    145.9229   7.9193298153e+01   5.2928276057e+00    0.2059921    0.1724155 -28.05 0.0005065811    1.216    0.178
       128  -8.8746     87.1260    151.1555   1.1409672151e+02   3.3140361993e+01    0.2018793    0.1703649  85.26            0    1.297    0.229
       129  -9.1774     40.5111    147.4862   1.2650109326e+02   4.0434790997e+01    0.1391283    0.1198664 -67.99 0.0003110842    1.009    0.009
       130 -10.0342    133.1790    141.0217   9.9493136797e+01   2.7079777237e+01    0.3448302    0.2463727 -59.35  0.000899718    1.456    0.313
       131 -11.7024     16.7466    139.9105   1.3198271451e+02   4.4565367445e+01    0.3535292    0.2382732  62.84  0.001604598    1.765    0.433
       132 -10.3330     37.0101    140.0083   1.2625945820e+02   4.2665804271e+01    0.2101241    0.1783853 -61.50 0.0003890583    1.017    0.016
       133  -9.8295    107.0836    135.7463   1.0519310240e+02   3.3453942196e+01    0.4376732    0.2789954 -18.61  0.001553498    2.624    0.619
       134 -13.8728      9.0226    109.5720   1.2952170694e+02   5.2305065950e+01     1.458636    0.2700127 -63.86  0.004848981    3.930    0.746
       135 -13.3105      2.8004    124.8554   1.3379714345e+02   4.9163187049e+01     1.439817    0.2448903 -67.57  0.004574257    4.302    0.768
       136  -9.2415     93.9145    133.0631   1.0827642441e+02   3.6471760686e+01    0.2251641    0.1768221 -20.33 0.0003517022    1.525    0.344
       137 -10.1335     44.3242    130.0085   1.2232072769e+02   4.4330787086e+01    0.1995861    0.1578029 -60.99 0.0004745241    1.114    0.102
       138 -10.0568     58.9536    146.9147   1.2119811864e+02   3.8360785452e+01    0.4198566    0.2504499 -22.21  0.001691694    2.756    0.637
       139  -8.5791     41.3220    123.2947   1.2193949696e+02   4.6284210527e+01    0.1409352   0.09309654 -33.51  0.000701796    1.615    0.381
       140 -12.6613     17.1171    121.3126   1.2900322925e+02   4.8995759274e+01    0.5799431    0.3434761  60.96  0.002872069    2.399    0.583
       141 -10.9843    239.1845    120.7741   7.3505460904e+01   9.4191332003e+00    0.4419567    0.2109366 -28.89  0.001611907    3.379    0.704
       142 -10.3368     32.5290    126.5148   1.2523405926e+02   4.6410365073e+01    0.2464728    0.1218304 -74.71  0.001036648    2.334    0.571
       143 -10.9372     30.6211    118.2500   1.2429060456e+02   4.8563479941e+01    0.3678169    0.1433383 -40.07  0.001440821    2.801    0.643
       144 -13.1097    248.2441    101.6748   6.8385224415e+01   1.1159969576e+01     1.037634    0.6020307 -36.14  0.005248854    1.788    0.441
       145  -9.6712    167.9251    113.0765   8.4515514567e+01   2.5793447873e+01    0.3555224     0.244999 -80.73  0.001493814    2.057    0.514
       146 -10.8600    231.8310    116.4799   7.3719444018e+01   1.1608623649e+01    0.2602817    0.1771255 -46.49 0.0005910986    1.278    0.218
       147  -9.3726     29.3019    109.3300   1.2296057344e+02   5.0764928856e+01     0.139968   0.08328389 -36.48 0.0002717569    1.649    0.393
       148 -11.0868     19.3972    106.0711   1.2554314209e+02   5.2352394963e+01    0.2219534    0.1890962  25.20  0.001075805    1.397    0.284
       149  -8.5873     71.7338    100.3318   1.0696466634e+02   4.7649402838e+01    0.1342173    0.1122933 -86.58 0.0002663271    1.580    0.367
       150 -12.2505     15.0311    100.7518   1.2594855424e+02   5.3880590084e+01    0.4467026    0.2403634 -40.40  0.001348089    1.655    0.396
       151 -10.3745    249.7138    117.9164   7.1418356984e+01   8.0166309939e+00    0.2643746    0.2119666 -55.54 0.0007480172    1.057    0.054
       152 -12.0449    247.7749    112.7451   7.0653650870e+01   9.2937539439e+00     0.533993    0.3824039  45.37  0.003024017    1.760    0.432
       153  -8.8850    161.0000     79.0050   7.7341535548e+01   3.3855996704e+01    0.2291002   0.08166121 -39.38  0.000645738    2.868    0.651
       154 -11.2638      2.2223     76.6276   1.2544466070e+02   5.9857965702e+01    0.4307413   0.05034995 -58.91    0.0013985    4.684    0.787
       155 -11.3157      2.1148     60.2369   1.2158147030e+02   6.3077627438e+01    0.4310462   0.07683531 -59.81  0.001269952    6.541    0.847
       156 -11.7705    170.0262    247.0163   1.1141069853e+02  -2.9307411636e+00    0.5859467    0.3442206 -34.11  0.002932345    1.955    0.489
       157 -11.6355    150.0801    247.0090   1.1557772506e+02   2.8148665696e-01    0.3717981    0.3233825  -8.97    0.0015511    1.281    0.220
       158 -10.4591    245.8071    240.7899   9.5596164401e+01  -1.2871227993e+01    0.2149366    0.1121728  -5.96 0.0009620488    2.883    0.653
