#   1 NUMBER                 Running object number                                     
#   2 MAG_AUTO               Kron-like elliptical aperture magnitude                    [mag]
#   3 X_IMAGE                Object position along x                                    [pixel]
#   4 Y_IMAGE                Object position along y                                    [pixel]
#   5 X_WORLD                Barycenter position along world x axis                     [deg]
#   6 Y_WORLD                Barycenter position along world y axis                     [deg]
#   7 A_WORLD                Profile RMS along major axis (world units)                 [deg]
#   8 B_WORLD                Profile RMS along minor axis (world units)                 [deg]
#   9 THETA_WORLD            Position angle (CCW/world-x)                               [deg]
#  10 FWHM_WORLD             FWHM assuming a gaussian core                              [deg]
#  11 ELONGATION             A_IMAGE/B_IMAGE                                           
#  12 ELLIPTICITY            1 - B_IMAGE/A_IMAGE                                       
         1 -14.4927    162.6228     54.6891   7.4163701834e+01   3.7543180016e+01     2.083768     1.567083  11.50   0.00629482    1.590    0.371
         2 -14.0944    175.6395     39.3424   6.6631382396e+01   3.6442484562e+01      1.01455    0.9834746   3.54  0.002995363    1.014    0.014
         3 -13.5965    180.1631     31.8916   6.3396485098e+01   3.6224560290e+01    0.9094024    0.5492923  52.96  0.001445265    1.602    0.376
         4 -14.6212    193.9845      7.7666   5.3541909802e+01   3.5212296968e+01     1.429189     1.105512  46.62  0.004842496    1.299    0.230
         5 -12.7142    224.7807      2.7146   4.8811470894e+01   2.7628459472e+01      1.40053     0.383265  78.66  0.004078394    4.731    0.789
         6  -9.4935      6.0738    208.0000   1.3451178889e+02   3.2520589007e+01    0.1160365   0.04340495  37.62  0.000734543    2.492    0.599
         7 -12.8451    249.0044    248.4170   9.9574794027e+01  -5.1885832584e+00    0.4509982     0.299412  37.97  0.003554925    1.294    0.227
         8 -18.2830     64.8269    236.8401   1.2678943144e+02   2.1962279731e+01     7.038693     4.903316  85.77   0.05030157    1.368    0.269
         9 -12.1106    152.9107    193.0477   1.0747760111e+02   1.5905562890e+01     0.309551    0.2271742  71.53  0.001577112    1.626    0.385
        10 -12.3318    193.7204    195.6603   1.0064690630e+02   8.5712057636e+00     1.087155    0.5914047 -58.26  0.004952698    3.877    0.742
        11 -11.9793    152.5105    185.0834   1.0640872893e+02   1.7174290111e+01    0.3439552    0.2469027 -87.20  0.001061964    2.035    0.509
        12  -9.8035    176.0410    186.0964   1.0225674639e+02   1.2923100908e+01    0.1815558     0.141679  73.08 0.0006117808    1.670    0.401
        13 -11.1288     33.1221    184.3645   1.2877071610e+02   3.4014063389e+01    0.1535291    0.1110137  85.73 0.0002355906    1.144    0.126
        14 -12.4610    204.4295    199.7413   9.9468448537e+01   6.2517823293e+00    0.4635458    0.2492237  26.03  0.002454448    2.046    0.511
        15 -10.0518    169.1566    182.1679   1.0288829091e+02   1.4704560196e+01    0.1728762    0.1316879  57.71   0.00105979    1.327    0.247
        16 -11.2497    204.3842    175.5931   9.5463329705e+01   9.2573788702e+00    0.5773533    0.3270888 -58.05  0.002474223    3.775    0.735
        17 -10.8620    201.4998    169.0047   9.4785356480e+01   1.0664302010e+01    0.3494221    0.2483661 -71.50   0.00173731    2.735    0.634
        18 -12.0261    204.4312    165.3287   9.3586631224e+01   1.0613972463e+01    0.4320881    0.3339177 -40.82  0.001389733    1.535    0.349
        19  -9.7024    198.9060    178.1857   9.6876301714e+01   9.9112638002e+00    0.1805473     0.158781  54.67 0.0005735699    1.290    0.225
        20 -11.0870    167.7272    175.8928   1.0214382883e+02   1.5894791426e+01    0.3041063    0.2140246 -72.53  0.001190783    2.192    0.544
        21 -10.4726      3.5441    176.1866   1.3362353987e+02   3.8191401424e+01   0.08605203   0.06370406  56.09 6.508883e-05    1.292    0.226
        22 -11.9057    230.2029    166.9645   8.9487822837e+01   5.6422658876e+00    0.3374223    0.1733984 -37.18  0.001710007    2.233    0.552
        23 -12.1234    194.0091    166.9040   9.5743090368e+01   1.2356109494e+01    0.3174685    0.3034396 -46.48  0.000766549    1.278    0.217
        24 -11.3163    190.0921    160.8165   9.5330953689e+01   1.3974259518e+01     0.314765     0.296995  46.08  0.001052844    1.152    0.132
        25 -11.7624    189.6775    155.4464   9.4384203059e+01   1.4848099980e+01    0.4368791    0.3484416  38.89  0.001429219    1.112    0.101
        26  -9.9802      1.7320    166.7846   1.3351299894e+02   4.0052065346e+01   0.07861888   0.06619482 -80.50 0.0001789136    1.401    0.286
        27  -9.7710     25.0118    165.5084   1.2903776345e+02   3.8289064990e+01    0.1373348   0.09521779  41.80  0.000608489    1.548    0.354
        28 -10.2533    162.8801    202.2779   1.0697591586e+02   1.2922096880e+01    0.2978823    0.1846767  65.73 0.0006946021    2.147    0.534
        29 -10.2435    140.1807    162.9483   1.0536305416e+02   2.2943499700e+01    0.1905224     0.159864  71.75 0.0004023892    1.222    0.181
        30 -10.2581    131.6500    158.9334   1.0644238290e+02   2.5152594890e+01    0.1739689    0.1586223 -84.85 0.0005529893    1.144    0.126
        31 -11.1162    165.8657    153.8881   9.8651841467e+01   1.9716261512e+01    0.3745568    0.2423281  73.10  0.001274309    2.446    0.591
        32 -12.5006    133.9034    145.6029   1.0368786947e+02   2.7183108022e+01     1.149081    0.3083678 -55.75   0.00324277    5.944    0.832
        33 -10.7652    151.5909    150.9098   1.0096309489e+02   2.2943850454e+01    0.3627455    0.2347922 -78.20  0.001633892    2.639    0.621
        34 -12.2110    144.7239    146.2119   1.0151336963e+02   2.5069048060e+01    0.5002277    0.3347687  67.51  0.002504186    1.825    0.452
        35 -11.8236    153.2359    201.5662   1.0857988454e+02   1.4613693756e+01    0.2056978    0.1934127  -9.17  0.001539443    1.336    0.252
        36 -10.7490    174.3152    148.6494   9.5989324008e+01   1.8923151188e+01    0.2986484    0.2451031 -80.44  0.001206284    1.629    0.386
        37 -12.6129    102.5484    137.4892   1.0919147755e+02   3.4154288081e+01    0.2714735    0.2530446  84.04  0.000109895    1.069    0.065
        38 -11.5858    157.2483    199.2238   1.0755248032e+02   1.4284430769e+01    0.2422184    0.1872663  46.81  0.001637576    1.050    0.048
        39 -11.7111    135.6406    127.2814   9.9765155597e+01   3.0321310998e+01     0.533016    0.1545239 -50.03  0.001742846    3.763    0.734
        40 -11.2006    134.7435    121.1377   9.8668945695e+01   3.1681185459e+01    0.3954771    0.2288817 -44.98  0.001840462    1.794    0.443
        41 -12.2864    106.0028    130.7384   1.0722054078e+02   3.4955401367e+01    0.3923425    0.3215813 -85.92  0.001238783    1.233    0.189
        42 -11.5360    106.7037    124.6092   1.0591934937e+02   3.6089273979e+01    0.2609128    0.2307167 -42.64 0.0005713565    1.276    0.216
        43 -11.1547    161.2438    128.2566   9.4420931618e+01   2.5028062868e+01    0.4810461    0.3429242  86.01  0.002220075    2.172    0.540
        44 -11.6768    118.1276    128.9145   1.0407169518e+02   3.3240255183e+01    0.3045657     0.259295 -10.84 0.0006736194    1.588    0.370
        45 -11.1842    121.7015    123.5004   1.0217028366e+02   3.3677185533e+01     0.263909     0.210282 -19.95 0.0009758836    1.698    0.411
        46 -10.5253    112.9618    118.2262   1.0315765907e+02   3.6316091142e+01    0.2149141    0.1913249 -66.26 0.0004057515    1.101    0.092
        47 -11.2805    168.3443    113.2367   8.9493925398e+01   2.6179920732e+01    0.3779675      0.29991 -75.22  0.001149905    1.651    0.394
        48 -10.9571    134.6823    106.0226   9.5235339678e+01   3.4646316800e+01    0.5731276    0.1315383 -47.38  0.001594659    4.586    0.782
        49 -10.8264    205.1623    110.2475   8.1585312237e+01   1.8495457973e+01     0.370292    0.2242657  39.53  0.001077877    1.635    0.388
        50 -10.6789    130.3494    109.6708   9.7122468356e+01   3.4791607175e+01    0.2808533     0.216289 -28.94  0.001444228    1.524    0.344
        51 -10.9629    160.4442    197.9426   1.0680738568e+02   1.3932799322e+01    0.2288965    0.1633697 -78.50  0.001174562    2.148    0.534
        52 -10.6598     76.8597     99.8381   1.0862718300e+02   4.6008797421e+01    0.1898594    0.1750602 -53.29 0.0008413414    1.150    0.131
        53 -11.3632     11.3038    206.2481   1.3361615475e+02   3.2341637775e+01    0.2164727    0.1356012  47.76  0.001775678    1.441    0.306
        54  -9.6517    124.5238     92.0176   9.4191508163e+01   3.9466979383e+01    0.2103819    0.1389218 -46.68 0.0003843556    1.487    0.328
        55 -10.1817    149.1557     80.8113   8.5160869616e+01   3.6327276435e+01    0.2225246    0.2062731 -74.69 0.0006387787    1.178    0.151
        56 -10.4016     86.0434     77.4512   1.0079074942e+02   4.9444573091e+01    0.2107862    0.1697195 -52.71 0.0004990944    1.135    0.119
        57  -9.7783    105.7356     73.3997   9.4012884669e+01   4.6859754515e+01    0.1918107    0.1359912  32.86 0.0009434434    1.607    0.378
        58 -19.1124     43.9746    102.0252   1.1802354343e+02   4.9550919354e+01     14.76036    0.7508716 -65.49   0.02520732   16.464    0.939
        59 -11.7128    167.4728    231.7952   1.0993218344e+02   8.4297667923e+00     0.255996    0.1986703  13.14  0.000686863    1.622    0.383
        60 -10.1355    228.0191    232.0117   1.0044376653e+02  -8.3721260291e-01    0.1623576    0.1196591  28.48 0.0004254694    1.037    0.036
        61 -10.4999     13.4473     59.7300   1.2030039870e+02   6.1361001852e+01    0.1807445     0.151768 -77.82 0.0004013167    1.126    0.112
        62  -9.7302    120.0133     24.4938   7.2870281342e+01   5.2389259808e+01     0.207396    0.1425387  55.70 0.0005124601    1.511    0.338
        63 -10.8809      9.3861    211.5957   1.3413001441e+02   3.1644679052e+01    0.1527169   0.05716622  79.77 0.0009361221    2.352    0.575
        64 -11.0549    174.2225    210.9842   1.0620298193e+02   9.9040347268e+00    0.2200025    0.1395873  43.17  0.001399851    1.234    0.190
