#   1 NUMBER                 Running object number                                     
#   2 MAG_AUTO               Kron-like elliptical aperture magnitude                    [mag]
#   3 X_IMAGE                Object position along x                                    [pixel]
#   4 Y_IMAGE                Object position along y                                    [pixel]
#   5 X_WORLD                Barycenter position along world x axis                     [deg]
#   6 Y_WORLD                Barycenter position along world y axis                     [deg]
#   7 A_WORLD                Profile RMS along major axis (world units)                 [deg]
#   8 B_WORLD                Profile RMS along minor axis (world units)                 [deg]
#   9 THETA_WORLD            Position angle (CCW/world-x)                               [deg]
#  10 FWHM_WORLD             FWHM assuming a gaussian core                              [deg]
#  11 ELONGATION             A_IMAGE/B_IMAGE                                           
#  12 ELLIPTICITY            1 - B_IMAGE/A_IMAGE                                       
         1 -13.4299     54.8927    146.5397   1.0844757280e+02   3.8442773465e+01     2.924657     1.120478 -48.34   0.01127895    2.725    0.633
         2 -15.1960     68.4740    143.9576   1.0425710330e+02   3.7357515046e+01     5.316408     2.720103  68.45  0.003730014    3.737    0.732
         3 -14.2262    197.4695     39.9593   4.5108536050e+01   3.0925983620e+01     1.435364     1.179713 -29.95  0.003809225    1.300    0.230
         4 -14.8199    207.3087     29.9199   4.1303563298e+01   2.9842476122e+01     1.973199     1.437388  22.55  0.001584757    2.001    0.500
         5 -13.0716    234.6187      4.9089   3.2977359908e+01   2.6470251731e+01    0.5969837    0.5319594  57.35  0.003558858    1.394    0.283
         6 -12.8170    228.2724      4.2031   3.3298495024e+01   2.7920089088e+01    0.5063044    0.3787353 -53.60  0.002813114    1.199    0.166
         7 -10.5986     61.8432      7.9045   6.4040566724e+01   6.5671217770e+01     0.197444    0.1420302  15.10 0.0005063841    1.197    0.165
         8 -10.1997     43.3098      7.3480   7.1361406527e+01   6.8747636636e+01    0.1292956   0.07694232   5.61 0.0007044866    1.710    0.415
         9 -10.9160    113.2043    206.0240   1.0279487205e+02   1.6267043297e+01    0.2455294    0.1836301  41.33 0.0008526025    1.216    0.178
        10 -12.5181    139.0550    249.7156   1.0318045382e+02   4.2202179680e+00    0.6311857    0.4249979  51.12  0.003805117    1.436    0.304
        11 -16.8620     47.6221    200.6044   1.1671005639e+02   2.6633605529e+01     12.69513     5.159817  61.09   0.03530967    2.929    0.659
        12 -12.5652    109.3936    200.8893   1.0291843390e+02   1.7946994120e+01    0.7052941    0.5274945 -17.20  0.002411403    1.962    0.490
        13 -14.1446     56.9424    188.1204   1.1335693899e+02   2.8295822967e+01     1.405216    0.9997915  66.59  0.008139813    1.337    0.252
        14  -9.5601    120.1083    194.1449   9.9428384981e+01   1.7612102553e+01     0.198491    0.1856371   0.01 0.0003968758    1.195    0.163
        15  -9.9772    127.2134    192.8116   9.7563543790e+01   1.6683894209e+01    0.2412573    0.1482595  73.05 0.0009517085    2.828    0.646
        16  -9.3484    156.5968    190.1912   9.0379713164e+01   1.2002200718e+01    0.1870602    0.1327564 -31.63  0.000412029    1.560    0.359
        17 -16.9685      6.0944    211.4970   1.2588139763e+02   2.8566802261e+01     11.95412     1.252264 -75.60    0.0206874    6.808    0.853
        18  -9.6152    120.3085    186.2898   9.8100399968e+01   1.9264170534e+01    0.1380498    0.1120498  -6.68 0.0002047603    1.578    0.366
        19  -9.6194     92.0951    184.1872   1.0453265970e+02   2.4326383341e+01    0.1953954    0.1878459  16.73 0.0005192519    1.191    0.160
        20 -10.7218     99.4237    180.7843   1.0223717066e+02   2.3954345350e+01    0.2514187    0.2328976  47.44 0.0005511895    1.073    0.068
        21 -10.6515    149.8922    177.6470   8.9548438583e+01   1.5786948497e+01    0.3605706    0.2154178 -61.47    0.0012556    2.209    0.547
        22 -11.2338    144.0424    178.3713   9.1057474329e+01   1.6723561261e+01    0.3546814    0.2792367 -48.14  0.001159521    1.332    0.249
        23  -9.8007    188.6697    178.0798   8.0996348315e+01   8.4124601759e+00    0.2546644    0.1904299  43.76  0.001306889    1.395    0.283
        24 -17.1839      6.5643    247.2294   1.2750810618e+02   2.1657241622e+01     2.058053     1.647564  19.49   0.01605785    1.962    0.490
        25 -12.3516     70.9630    173.7247   1.0820526066e+02   2.9814744105e+01     0.395256    0.2837404 -29.89  0.002012073    1.942    0.485
        26 -12.2666     75.0039    169.0119   1.0651628537e+02   3.0373176622e+01    0.5471603    0.3921493 -14.69 0.0007166536    2.189    0.543
        27 -11.2159     47.6661    172.1866   1.1373985832e+02   3.3089561431e+01    0.4240129     0.245966 -47.45   0.00212984    1.989    0.497
        28 -10.3083    187.4781    173.0162   8.0204466303e+01   9.5854026661e+00    0.4290199    0.2612146 -67.08  0.001528449    3.642    0.725
        29 -10.6222     33.2715    205.0839   1.2011732160e+02   2.7265144114e+01     0.280957    0.1538173  49.67  0.001199076    1.618    0.382
        30 -10.6142    230.4841    167.4438   7.0534150188e+01   2.7423939997e+00     0.255384     0.116816 -45.82  0.001038754    2.510    0.602
        31  -9.3313    110.8062    168.1762   9.7277840924e+01   2.4962069126e+01    0.1983304    0.1743455 -17.18 0.0004230288    1.328    0.247
        32 -10.5895     42.4962    167.5049   1.1446322649e+02   3.4771111570e+01    0.2100333    0.1204532  36.57 0.0005246016    1.813    0.448
        33 -13.0980     83.3062    160.5529   1.0304504706e+02   3.1197958998e+01     1.226891    0.6383465  63.52  0.001503556    2.949    0.661
        34 -10.9420     32.1364    165.2218   1.1674912042e+02   3.6379904370e+01     0.290815    0.1690081 -58.80  0.000690205    1.617    0.381
        35 -13.8958     71.8818    155.1628   1.0519172948e+02   3.4145482438e+01    0.6473643    0.5439097 -50.08   0.00187813    1.221    0.181
        36 -10.0271    169.0287    236.1233   9.5349657078e+01   1.7253324232e+00    0.1889023    0.1732545  -5.79 0.0004395097    1.187    0.157
        37 -12.3637     90.2359    153.3110   9.9940267268e+01   3.1883397273e+01     0.683938    0.4774354 -26.76     0.003158    1.930    0.482
        38 -10.4647    187.2989    151.9176   7.5656012405e+01   1.3692292870e+01    0.2190935    0.1926719 -25.08  0.001159601    1.091    0.083
        39 -11.5164    133.6720    144.6943   8.6646450286e+01   2.6147969421e+01     1.208729    0.3192732 -54.08  0.002865851    5.545    0.820
        40  -9.2715    112.5613    150.7221   9.3463688342e+01   2.8735378494e+01    0.1989231    0.1454708 -66.28 0.0003560002    1.493    0.330
        41 -10.9197    138.3542    169.7953   9.0757444679e+01   1.9627134371e+01    0.4378093    0.3078948  51.88   0.00159888    1.507    0.336
        42 -10.7232    174.2881    148.6858   7.7769214218e+01   1.6995858392e+01    0.3529119    0.2883161 -69.65  0.001241494    1.578    0.366
        43 -11.2835     40.6292    146.5985   1.1234486860e+02   4.0010105358e+01    0.2809697    0.2349247 -44.36  0.001040982    1.313    0.238
        44 -10.6481    143.8750    145.7715   8.4308654687e+01   2.3865023288e+01    0.3123963    0.2140118 -74.06  0.001262011    2.211    0.548
        45 -11.0768    103.4498    139.1435   9.3512266283e+01   3.3109958701e+01    0.5431534    0.3455014 -23.42  0.002169024    2.363    0.577
        46 -12.4157     90.9664    138.8050   9.6940940658e+01   3.5292305361e+01     0.296244    0.2683198 -36.80 0.0004382631    1.143    0.125
        47 -11.2832     43.9755    138.4805   1.1027085871e+02   4.1652317087e+01    0.2792118    0.2099043 -60.87  0.001279079    1.181    0.153
        48 -12.8874     43.7754    129.1137   1.0887310575e+02   4.3981196639e+01      0.70502    0.4091218  87.52  0.003169175    2.243    0.554
        49 -10.8211    105.8340    130.7526   9.0986973267e+01   3.4696038062e+01     0.378726    0.3243374 -68.37   0.00117181    1.230    0.187
        50 -11.2829    135.7514    127.5535   8.2059061371e+01   2.9611811273e+01    0.6609093    0.2075408 -48.19  0.001963457    3.249    0.692
        51 -10.9760    135.1084    118.7767   8.0004110651e+01   3.1707255987e+01    0.7288315    0.1276412 -43.96  0.001618217    5.693    0.824
        52 -11.3836     33.6957    130.9296   1.1209261109e+02   4.4525299027e+01    0.2584836    0.2255405  36.90  0.001146033    1.319    0.242
        53 -10.6170    112.3669    129.6293   8.8890772285e+01   3.3762189838e+01    0.3418793    0.2717846   3.10 0.0007178811    1.560    0.359
        54 -10.3470    160.6239    128.1754   7.6016039269e+01   2.4172520810e+01    0.3665912    0.2530479 -53.89  0.001603893    1.599    0.374
        55 -11.5757    119.1468    123.5499   8.5537098735e+01   3.3882537030e+01    0.7219213    0.4579725 -17.69  0.002712005    2.518    0.603
        56 -11.1710     99.5316    125.6722   9.1622377118e+01   3.7029723624e+01    0.3012418    0.2478472  -5.10 0.0005951257    1.455    0.313
        57 -10.0851    108.2977    118.8585   8.7442072821e+01   3.7055881529e+01     0.228254    0.2073006  52.00 0.0002536827    1.170    0.146
        58 -11.1895     48.2147    116.3661   1.0528783534e+02   4.6643756659e+01    0.2737502    0.2002607  16.28 0.0009014964    1.632    0.387
        59 -13.3331     43.2360    110.2146   1.0570289299e+02   4.8671851307e+01     0.846821    0.4798326 -58.61  0.002713553    1.492    0.330
        60  -9.5291    168.4045    113.1285   7.0354826392e+01   2.5560185412e+01    0.2986314    0.2118879 -86.10  0.001180345    2.354    0.575
        61 -11.5026    117.2204    109.2952   8.2403300104e+01   3.7520926218e+01    0.6863127    0.4984291  66.53  0.003005705    1.845    0.458
        62 -11.4967     23.8972    111.7163   1.1214031924e+02   5.0038979088e+01    0.3142345    0.1323125 -56.20  0.001012456    1.870    0.465
        63 -10.3255    205.2246    110.1780   6.2057860960e+01   1.7868167215e+01    0.3535096     0.233405  40.40  0.001068971    1.648    0.393
        64 -11.6139     19.0664    110.5371   1.1347328431e+02   5.0681553437e+01    0.2707099    0.2225769 -69.20  0.000839998    1.039    0.037
        65 -10.4228    134.8066    104.6208   7.6285453547e+01   3.4857736033e+01    0.5683993    0.1982226 -38.96  0.001743948    3.032    0.670
        66 -10.4675    241.5060    101.5255   5.4038252143e+01   1.1768953920e+01     0.138207     0.121544 -35.73 -1.839287e-05    1.015    0.014
        67 -11.1797     33.7204    100.4513   1.0695777004e+02   5.1936752771e+01    0.2571894    0.2363336  77.83 0.0006730004    1.245    0.197
        68 -11.6341     52.7042     93.1174   9.8799622472e+01   5.1722018034e+01    0.5169567    0.3563367 -69.93  0.002013975    1.610    0.379
        69 -10.8213     42.2741     89.1975   1.0156069749e+02   5.3779666291e+01    0.3679497    0.1632826  38.13  0.001597706    2.628    0.619
        70 -10.5506    157.8194     82.6480   6.4303646165e+01   3.3944271311e+01    0.3921504     0.225356 -31.53  0.001475042    1.835    0.455
        71  -9.3924    184.5306     76.9866   5.7215491534e+01   2.8513938197e+01    0.2260102     0.145712 -33.52 0.0004824628    1.549    0.355
        72  -9.8387     58.5810     67.3004   8.9425881967e+01   5.6701881566e+01    0.3119866    0.1743229  41.58  0.001456242    2.127    0.530
        73 -14.0803    187.1257     47.9282   4.8751601845e+01   3.2366178864e+01     1.477634     1.012645  35.85  0.001127236    1.776    0.437
        74 -10.2081     92.6702    249.9346   1.1224105291e+02   1.0983811408e+01    0.2831594    0.1811937  17.11  0.001519362    2.413    0.586
        75 -12.2559    193.2964    195.3412   8.3437021004e+01   4.4728215613e+00     1.007007    0.6788524 -68.61  0.004309433    3.068    0.674
        76  -9.0957     73.5043     54.5147   7.9429569498e+01   5.6945014002e+01    0.1388099    0.1247656 -10.05 -7.966972e-05    1.059    0.056
        77 -11.9568    146.0997     50.4839   5.7039825415e+01   4.2134670408e+01    0.5599586    0.3636984 -85.17  0.002015805    2.537    0.606
        78 -10.0183     32.2057     36.2465   8.9673395706e+01   6.5826782625e+01    0.1528164    0.1454591  -5.97  0.001064789    1.376    0.273
        79 -11.4409     26.0372     35.1103   9.2159410525e+01   6.6640365010e+01     0.294064    0.2168679  38.47  0.001044688    1.856    0.461
        80 -10.8379    198.0474     23.8318   4.0836118759e+01   3.2760004380e+01    0.2869206    0.1991942 -16.26  0.001163297    1.797    0.443
        81 -16.4617     28.1549    249.5625   1.2399379941e+02   1.9050191352e+01     6.955822     2.212401  25.27   0.01576517   16.725    0.940
        82  -9.8906    189.6339     14.9000   3.9488632139e+01   3.5761500648e+01    0.2173217    0.1670931  63.42 0.0006119649    1.235    0.190
        83 -10.9030     59.6601    220.2697   1.1599498729e+02   2.1021022364e+01    0.3332677    0.2064683  31.21  0.001660054    1.764    0.433
        84 -10.0585    133.9527    196.0226   9.6543619603e+01   1.4853132691e+01    0.2126805    0.1965304  50.11 0.0004714925    1.061    0.057
        85  -9.6859    174.3287    210.3210   9.0112991647e+01   5.1361963939e+00    0.1408596    0.0990476   3.41 0.0007048352    1.690    0.408
