#   1 NUMBER                 Running object number                                     
#   2 MAG_AUTO               Kron-like elliptical aperture magnitude                    [mag]
#   3 X_IMAGE                Object position along x                                    [pixel]
#   4 Y_IMAGE                Object position along y                                    [pixel]
#   5 X_WORLD                Barycenter position along world x axis                     [deg]
#   6 Y_WORLD                Barycenter position along world y axis                     [deg]
#   7 A_WORLD                Profile RMS along major axis (world units)                 [deg]
#   8 B_WORLD                Profile RMS along minor axis (world units)                 [deg]
#   9 THETA_WORLD            Position angle (CCW/world-x)                               [deg]
#  10 FWHM_WORLD             FWHM assuming a gaussian core                              [deg]
#  11 ELONGATION             A_IMAGE/B_IMAGE                                           
#  12 ELLIPTICITY            1 - B_IMAGE/A_IMAGE                                       
         1 -14.1269    205.7032     23.1169   5.6100763265e+01   3.0588188310e+01      2.51489     1.381798  27.25  0.009924559    2.921    0.658
         2 -10.8085      2.2595      4.8034   1.0983393989e+02   7.3266030813e+01    0.3846615   0.09865903 -51.26  0.001783652    2.820    0.645
         3 -14.3565      9.9465    206.5653   1.3712049518e+02   3.1155100943e+01     1.872943    0.8318936  86.72  0.005815352    1.932    0.482
         4 -12.4047    161.6188    249.3449   1.1382924237e+02   4.0714122276e+00    0.6462207    0.2354783  36.20   0.00306678    2.417    0.586
         5 -13.4585    139.1529    248.5254   1.1764176477e+02   7.6135729519e+00     1.062234    0.4011331  43.66  0.005471175    1.980    0.495
         6 -13.2133    124.5903    247.4810   1.2006695859e+02   9.9424750199e+00    0.7532241    0.4680296  40.98  0.004958157    1.301    0.231
         7 -13.4327     97.8752    247.3637   1.2466707342e+02   1.3800375983e+01     1.004759    0.3377044  44.33  0.005155006    2.187    0.543
         8 -12.7688    104.8058    240.9483   1.2289306907e+02   1.3807072405e+01    0.4097003    0.3178386  46.60  0.001806532    1.155    0.134
         9 -12.0977     81.6224    247.4910   1.2743377226e+02   1.5981319324e+01    0.3768956    0.2111074 -58.15  0.002476055    2.296    0.565
        10  -9.9585     62.9951    250.5322   1.3072621273e+02   1.7877414617e+01    0.1551181    0.0780967  44.92 0.0004012238    1.545    0.353
        11 -13.2506     21.8785    194.5426   1.3431785007e+02   3.2289787944e+01     1.535543    0.8084841  16.84 0.0009487863    3.978    0.749
        12 -14.7399     34.6604    246.7963   1.3503901683e+02   2.1746079831e+01     9.977186     3.108346  30.62   0.03561234    7.645    0.869
        13 -14.1987      8.2120    244.1705   1.3898669132e+02   2.4858213298e+01     1.697775     1.064319 -82.04   0.01404846    1.557    0.358
        14 -14.4027     94.9858    231.4296   1.2375382201e+02   1.6724306533e+01     1.965585    0.8876607  47.38  0.002980163    1.721    0.419
        15 -11.3738    180.5825    245.3515   1.1004350089e+02   1.6384539877e+00    0.2426049    0.1155126  38.74  0.001356511    1.606    0.377
        16 -11.0798    224.3120    198.1284   9.5013856037e+01   5.0945964148e-01    0.2912577    0.2302706 -51.10  0.001237925    1.869    0.465
        17 -10.2228    193.3656    195.6118   1.0024373130e+02   6.2617010111e+00    0.5774048    0.3219686 -65.54  0.001784884    6.947    0.856
        18 -11.7634     62.1031    191.0506   1.2620925015e+02   2.8501834713e+01    0.3327964    0.2526625 -43.34  0.001401675    1.910    0.476
        19 -11.7302     67.8717    184.0160   1.2431137126e+02   2.9166851768e+01    0.2464101    0.2176171 -62.01 0.0005062769    1.364    0.267
        20  -9.4590     39.5766    177.6800   1.2960115086e+02   3.3830997510e+01    0.1959702    0.1045295  57.64 0.0006767536    1.686    0.407
        21 -11.0700     77.6431    172.6338   1.2089659740e+02   3.0184897148e+01    0.2216653    0.2000011 -81.81 0.0005276583    1.157    0.136
        22 -13.3188     64.7302    169.7027   1.2340334743e+02   3.2528889655e+01    0.4563034    0.2618503 -47.57  0.001810437    2.235    0.553
        23 -12.1837     84.7518    164.2870   1.1819409418e+02   3.0926120807e+01    0.7766489    0.4815001  59.26   0.00338867    1.614    0.381
        24 -13.4507     65.5957    141.7828   1.1956420803e+02   3.8500632019e+01      2.23215     1.044077  86.82   0.00573662    4.826    0.793
        25  -9.9250     98.0958    148.9471   1.1267363152e+02   3.2174516560e+01    0.2710342    0.2334361 -51.15  0.000829313    1.253    0.202
        26  -9.2713    101.0069    145.0024   1.1127765915e+02   3.2557927080e+01    0.2926053    0.1736616 -35.61  0.001110383    2.409    0.585
        27 -11.9222     86.6650    147.8512   1.1527973014e+02   3.4199662243e+01    0.2563997    0.2270235 -55.53 0.0005680283    1.216    0.178
        28 -12.8690     35.3226    222.7792   1.3362441969e+02   2.5703538173e+01     0.320496    0.2834897  81.59 0.0007794485    1.360    0.265
        29  -9.6233    109.6608    135.1560   1.0727200417e+02   3.3230612113e+01    0.2679302    0.2105062 -18.59 0.0009364784    1.743    0.426
        30 -10.5338     96.9054    131.9528   1.0989869109e+02   3.6113949442e+01    0.2622663    0.2245646 -32.05 0.0005450305    1.375    0.273
        31  -9.4557    106.9423    122.3649   1.0531963351e+02   3.6525107717e+01    0.1912223    0.1727878  44.92 0.0003632225    1.129    0.115
        32 -14.8752     42.7433    213.0344   1.3170097456e+02   2.6628279171e+01      1.71664     1.347125  48.17   0.00748178    1.327    0.247
        33 -10.5088    167.9446    113.0043   8.8125264979e+01   2.5867775558e+01    0.3865752    0.2996284 -82.33  0.001155394    1.788    0.441
        34 -11.4668     55.8496    240.4798   1.3125314622e+02   2.0349137237e+01    0.2681145    0.1874268  79.29  0.002059222    1.245    0.197
        35  -9.6074    204.4916    111.1308   8.0180215550e+01   1.7847605464e+01    0.3262666     0.182378  35.37  0.001334005    2.040    0.510
        36 -15.4709      8.6630    149.2113   1.3391093677e+02   4.2643911894e+01      4.57689     1.546749 -86.70   0.02058375    2.928    0.658
        37 -11.0802     28.7112    234.8437   1.3538540958e+02   2.4339430813e+01    0.1935348   0.09954146  74.04  0.001069196    1.615    0.381
        38 -10.1443    246.0104    250.0000   9.9749580930e+01  -8.5546058846e+00    0.1801989   0.04743045  39.80 0.0008079294    2.981    0.665
        39 -10.2818    189.9257     15.4760   5.5881469853e+01   3.5487460439e+01    0.2123003    0.1947685 -33.66  0.001040313    1.153    0.133
