#   1 NUMBER                 Running object number                                     
#   2 MAG_AUTO               Kron-like elliptical aperture magnitude                    [mag]
#   3 X_IMAGE                Object position along x                                    [pixel]
#   4 Y_IMAGE                Object position along y                                    [pixel]
#   5 X_WORLD                Barycenter position along world x axis                     [deg]
#   6 Y_WORLD                Barycenter position along world y axis                     [deg]
#   7 A_WORLD                Profile RMS along major axis (world units)                 [deg]
#   8 B_WORLD                Profile RMS along minor axis (world units)                 [deg]
#   9 THETA_WORLD            Position angle (CCW/world-x)                               [deg]
#  10 FWHM_WORLD             FWHM assuming a gaussian core                              [deg]
#  11 ELONGATION             A_IMAGE/B_IMAGE                                           
#  12 ELLIPTICITY            1 - B_IMAGE/A_IMAGE                                       
         1 -13.8557    227.8539     54.2858   1.7779026941e+01   2.4209839658e+01     7.062316     2.571205 -24.21   0.02033221    4.744    0.789
         2 -12.8613    249.8346     52.3481   1.5789820463e+01   2.0801411473e+01     2.678993    0.2140786 -34.31  0.006973884    6.115    0.836
         3 -12.2791    239.2098     44.4544   1.4869750757e+01   2.3488429134e+01     1.076971    0.7014444 -25.09  0.003900483    1.652    0.395
         4  -8.9618    217.5266     11.2310   8.8454142973e+00   3.1181076697e+01    0.2618875    0.1016888 -27.50  0.001266913    2.493    0.599
         5  -8.0794    207.0000      7.9951   8.5778736279e+00   3.3579700883e+01    0.1875352     0.056053 -29.25 0.0006505235    2.906    0.656
         6  -8.5099    156.9827      7.8338   1.1497146362e+01   4.4631500724e+01    0.1708531    0.1452828  -1.16  0.001040861    1.602    0.376
         7  -7.6105    215.4557      2.4931   6.9493658963e+00   3.2467861463e+01    0.1201812   0.08249897 -54.68 0.0002219319    1.045    0.043
         8  -8.6201    209.9899    197.9881   4.8092069453e+01   5.8049784213e+00    0.2618088    0.1373192 -55.34  0.001152942    4.315    0.768
         9 -10.2110    244.7261    190.3724   4.1759610818e+01   3.1976648628e+00    0.4444872    0.1694792 -39.91  0.002480954    2.293    0.564
        10  -8.9732    249.4377    185.3832   4.0342844386e+01   3.3614600304e+00    0.2938971    0.1449318 -25.36  0.001869271    1.655    0.396
        11  -9.8090    241.4860    179.9664   4.0523012749e+01   4.8617165045e+00    0.2966956     0.161578 -25.28  0.001570843    1.491    0.329
        12  -7.9960    199.0535    191.7287   4.8887192188e+01   7.9584495158e+00      0.18578    0.1466102 -38.32 0.0009993592    1.367    0.269
        13  -8.6493    232.6699    185.8608   4.2705626986e+01   5.0124697390e+00    0.2234473   0.07562199 -32.70  0.001093226    2.520    0.603
        14  -7.7377    228.4695    186.4218   4.3401022425e+01   5.3858394546e+00    0.1089447   0.08344044 -18.10 5.970695e-05    1.036    0.035
        15  -7.3525    223.6773    183.7025   4.3659000773e+01   6.2826262180e+00    0.1136803   0.07056048 -10.11 0.0007022692    1.623    0.384
        16  -7.9888    211.4849    181.9536   4.5234243010e+01   7.9304948114e+00     0.179528   0.09524551 -37.31  0.001040946    1.619    0.382
        17  -7.6676      6.4826    182.4209   9.5343122918e+01   3.3900378806e+01    0.1364175    0.1124656  53.44 0.0002168166    1.013    0.013
        18  -8.5377    231.8121    175.4096   4.1099452654e+01   6.5174528610e+00    0.2940053    0.1217523 -40.28  0.001259889    2.069    0.517
        19  -8.5330    250.2641    173.8438   3.8368707880e+01   4.7415397414e+00    0.2059667    0.1058278 -28.30 0.0006435816    1.500    0.333
        20  -7.7556    236.5321    168.7657   3.9322808264e+01   6.8952832251e+00    0.2564085    0.1465227 -50.87  0.001273057    2.431    0.589
        21  -9.0902    230.9955    164.5191   3.9350777170e+01   8.1209503879e+00      0.27077    0.2228129  -9.69   0.00184593    1.146    0.128
        22  -9.3867    234.5032    163.5195   3.8696152810e+01   7.8490461252e+00    0.3039374    0.1989208  13.29  0.002009823    1.800    0.444
        23  -9.1925    191.9542    167.8288   4.5998917416e+01   1.2594151687e+01    0.2206077     0.164986 -41.25 0.0003190057    1.304    0.233
        24  -8.6883    223.0858    162.0292   4.0031312085e+01   9.4315992627e+00    0.1909968    0.1592097 -15.06 -0.001320134    1.101    0.091
        25  -7.8685    226.6024    160.7130   3.9296533133e+01   9.1890773554e+00    0.1629518   0.09095854 -25.42 0.0005348735    1.609    0.378
        26  -8.0996    243.5496    160.7208   3.7019423491e+01   7.1922077254e+00    0.2125953   0.08232959 -33.69 0.0008843053    2.017    0.504
        27  -7.5559     38.2275    160.9855   8.4111533340e+01   3.6527314756e+01    0.1838686    0.1176224 -78.53 0.0003296849    1.577    0.366
        28 -11.6938    210.0759     99.8271   2.9567493372e+01   2.0812812357e+01     1.072126    0.4400738 -47.80 0.0007372305    2.238    0.553
        29 -12.3283    225.1760    111.7407   3.0178999271e+01   1.6591978247e+01     1.162789     0.854139 -63.84  0.003962299    1.658    0.397
        30  -7.7437      1.7011    233.4028   9.7984820527e+01   2.2793661615e+01    0.1866258   0.09981433  89.92 0.0008162247    1.996    0.499
        31 -13.2765    240.4617    127.6144   3.1441425714e+01   1.2137537527e+01     2.271327    0.5915878 -41.02 0.0005266978    2.958    0.662
        32  -7.3637    214.6529    207.3012   4.8798654219e+01   4.0310259074e+00   0.08924988   0.08717132  -8.91 0.0003163589    1.687    0.407
        33 -12.5459    242.2165     79.3022   2.1809262967e+01   1.8553533201e+01    0.5573881     0.456942  55.53   0.00107717    1.639    0.390
        34 -12.0112    237.1067     62.4497   1.8780216940e+01   2.1584478418e+01    0.7513763     0.418668 -19.40 0.0008644359    2.464    0.594
        35 -12.8866    245.6049     69.0530   1.9455740747e+01   1.9372452671e+01    0.8080091    0.6406928  -1.49  0.005632803    1.838    0.456
        36 -12.0240    244.7340     60.3181   1.7754506774e+01   2.0622776122e+01    0.4294659    0.2954483 -41.08  0.000617851    1.086    0.079
        37  -8.4242    237.5116    158.0227   3.7335288847e+01   8.2575002410e+00    0.1735909    0.1638033  74.59  0.001371231    1.694    0.410
        38  -7.8290    233.3033    154.6363   3.7295396258e+01   9.2352787797e+00    0.2170531    0.1314569 -51.30  0.001282606    2.072    0.517
        39  -8.5951    231.3384    150.8982   3.6887509725e+01   1.0009202305e+01    0.1659846    0.1540196 -51.83 0.0002920284    1.445    0.308
        40 -12.0320    233.4257    126.3743   3.2050776690e+01   1.3262361484e+01    0.7817069    0.2858369 -30.94  0.001342459    2.642    0.621
        41  -8.1521    225.4539    149.4715   3.7429055712e+01   1.0964957054e+01    0.1730529   0.08960182 -42.86   0.00012948    1.705    0.413
        42 -11.4909    249.5553     85.1739   2.2328421620e+01   1.6674645622e+01    0.6314673    0.2164694 -37.46  0.001198513    2.054    0.513
        43  -7.4907    192.4986    147.5026   4.2085774785e+01   1.5882265104e+01    0.1275636    0.1080278 -26.15 0.0002436562    1.012    0.012
        44  -8.1693    186.1764    146.3986   4.2951299391e+01   1.7032693730e+01    0.2047007     0.149637 -29.96 0.0003937911    1.232    0.188
        45  -9.3424    229.9880    145.2571   3.6038770800e+01   1.0991916961e+01    0.2145125     0.131143 -26.93 0.0006902582    1.396    0.283
        46  -8.1016    225.0276    139.2334   3.5579732395e+01   1.2530165357e+01    0.1820762    0.1360998 -17.29  0.001214676    1.282    0.220
        47  -7.3431    174.7031    139.6590   4.3652854964e+01   2.0062041426e+01    0.1361993   0.09835465 -12.49  0.000703291    1.663    0.399
        48  -7.9861    200.2258    133.6093   3.8069760431e+01   1.7009553018e+01    0.2476923    0.1310951 -46.62  0.001241339    1.769    0.435
        49  -9.3308    222.4749    130.5257   3.4251874586e+01   1.4184127082e+01     0.321864    0.1856177 -46.17  0.001184365    1.594    0.373
        50  -8.0631    192.0605    129.1673   3.8452547461e+01   1.9049630279e+01    0.2428159    0.1568731 -36.49  0.001334303    1.339    0.253
        51  -8.5799    199.1955    128.5193   3.7189511818e+01   1.8008361178e+01    0.2284148    0.1697306 -29.42 0.0003092519    1.205    0.170
        52  -8.6065    213.6589    122.1280   3.3774409089e+01   1.6771077334e+01    0.3458422    0.1957267 -59.37  0.001382078    2.559    0.609
        53  -9.8310    204.4323    115.8544   3.3764953448e+01   1.9225533612e+01    0.2422524    0.1860016 -34.51 0.0002367633    1.104    0.094
        54  -8.3810    210.4920    114.0233   3.2535951062e+01   1.8533608034e+01    0.2908202    0.1061751 -33.47  0.001200204    2.597    0.615
        55 -12.9452    230.7836     99.4542   2.7036444676e+01   1.7526739887e+01    0.7589042     0.524732 -42.47  0.001461137    1.130    0.115
        56  -8.3733    164.4576     94.1630   3.5111409720e+01   3.0330450409e+01    0.2359379     0.211901  -1.67 0.0006464757    1.364    0.267
        57  -9.7251    215.5271     92.2883   2.7266574137e+01   2.1035802135e+01    0.3466537     0.232188 -28.49  0.001552383    1.438    0.304
        58  -8.1060    237.6663    206.6661   4.5256593968e+01   1.8432774449e+00    0.1103755    0.0612343 -10.78 0.0007052229    1.734    0.423
        59 -13.2200    242.1510    109.8326   2.7861019860e+01   1.4393069680e+01      0.88435    0.4901538 -46.36  0.001789315    1.545    0.353
        60 -10.9074    219.8555     84.4007   2.5071245360e+01   2.1462889546e+01    0.7193847    0.3480096 -37.86  0.002784332    1.620    0.383
        61  -9.8506    220.9758     75.3092   2.2979040146e+01   2.2569757752e+01    0.3262621    0.1528772 -41.21 0.0004190438    1.620    0.383
        62  -9.1181    209.4759     91.2494   2.7765364772e+01   2.2231621121e+01     0.318332    0.1849112 -40.05 0.0009937304    1.381    0.276
        63  -8.0383    204.2228     85.0155   2.7010742756e+01   2.4118549911e+01    0.1755923    0.1525319 -32.39  0.001141483    1.181    0.153
        64  -9.8159    208.2129     80.0991   2.5419722141e+01   2.4135323717e+01    0.3685023     0.255883 -11.68   0.00117081    2.062    0.515
        65  -8.1033    185.9657     78.7081   2.7881912463e+01   2.8588299758e+01    0.1832076    0.1632224 -59.86 0.0005227741    1.074    0.069
        66 -11.6837    248.8787     99.7977   2.5234180064e+01   1.4822788225e+01    0.8820863    0.2540931 -40.04  0.003779952    2.434    0.589
        67  -7.9426    157.7775     74.5974   3.1117818586e+01   3.5226071895e+01    0.2608451    0.1744974 -28.30  0.001056397    1.698    0.411
        68  -7.6907    200.8233     73.4595   2.4742645997e+01   2.6497103654e+01    0.1632862    0.1262489  72.44 0.0008784853    1.496    0.332
        69  -7.5238    128.4037     73.2176   3.6479254379e+01   4.2212242908e+01    0.2026838    0.1326673 -53.24 0.0003138438    1.488    0.328
        70  -7.9834    170.0421     71.3669   2.8283282826e+01   3.3081699132e+01    0.2260401    0.1584368 -44.04  0.000595037    1.253    0.202
        71  -7.4711    204.4203     70.4437   2.3627903357e+01   2.6259942958e+01     0.128286    0.1029048 -47.84 0.0001178736    1.016    0.016
        72  -7.8040    195.6022     67.7018   2.3976244952e+01   2.8365480590e+01    0.2201809     0.143373 -74.96  0.001176413    1.766    0.434
        73  -8.7822    204.2703     65.6747   2.2527642080e+01   2.6978104370e+01    0.2219972    0.1673317 -38.13 0.0003705318    1.182    0.154
        74  -9.4905    201.4581     64.4636   2.2542644996e+01   2.7692876715e+01    0.2968592    0.1845473 -41.86 0.0005240737    1.301    0.231
        75 -11.4404    242.5512     99.8337   2.5869818605e+01   1.5718877048e+01    0.5458387    0.2343068 -47.00   0.00112215    2.008    0.502
        76 -13.5906    238.1112     89.5050   2.4255074705e+01   1.7801262657e+01    0.7003906    0.5066168 -69.62 0.0008955683    1.644    0.392
        77  -9.5267      2.2389     60.9559   8.7933878821e+01   6.7502894674e+01    0.4495215    0.1114343 -65.91  0.001520684    3.073    0.675
        78  -8.7832    210.1507     59.0183   2.0381183755e+01   2.6796486818e+01    0.2655172    0.1406914 -37.80 0.0007192559    1.522    0.343
        79  -7.5534    132.3731     58.7878   3.1102057607e+01   4.3859750515e+01    0.1996422    0.1393431 -30.69 0.0005897618    1.599    0.375
        80  -8.7628    213.0816     52.7155   1.8657929408e+01   2.7095510253e+01    0.2117264    0.1450688 -41.21 0.0004379075    1.180    0.152
        81  -9.5741    200.9458     40.6610   1.6849322159e+01   3.1036567045e+01    0.2167314    0.1582269 -42.57 0.0002810738    1.163    0.141
        82 -11.5021    248.5729    130.9888   3.1129440868e+01   1.0627446819e+01     0.513446    0.3210092 -38.52  0.003488394    1.233    0.189
        83  -8.7950    215.0845     28.6317   1.2954558335e+01   2.9722469857e+01    0.2928622    0.1072245 -45.30  0.001446161    1.934    0.483
        84  -8.5709    213.5920     20.6748   1.1207562344e+01   3.0919515615e+01      0.25853    0.1285962 -27.16  0.001370554    2.028    0.507
        85  -8.0895    217.7312     20.4213   1.0920723621e+01   3.0151037431e+01    0.2296607   0.09655262 -42.07 0.0008876583    1.685    0.407
        86  -9.3067    249.9405    201.2014   4.2739371800e+01   1.3717937437e+00    0.3611145    0.1266244 -30.33  0.001764003    2.323    0.570
        87  -8.2439    197.7586    203.7281   5.1017260000e+01   6.3459217438e+00     0.217093    0.1427131 -42.72  0.001146617    1.644    0.392
        88  -8.2652    243.6637    201.1348   4.3578017260e+01   1.9608337547e+00    0.1560737    0.1069829 -34.59   0.00103626    1.439    0.305
