#   1 NUMBER                 Running object number                                     
#   2 MAG_AUTO               Kron-like elliptical aperture magnitude                    [mag]
#   3 X_IMAGE                Object position along x                                    [pixel]
#   4 Y_IMAGE                Object position along y                                    [pixel]
#   5 X_WORLD                Barycenter position along world x axis                     [deg]
#   6 Y_WORLD                Barycenter position along world y axis                     [deg]
#   7 A_WORLD                Profile RMS along major axis (world units)                 [deg]
#   8 B_WORLD                Profile RMS along minor axis (world units)                 [deg]
#   9 THETA_WORLD            Position angle (CCW/world-x)                               [deg]
#  10 FWHM_WORLD             FWHM assuming a gaussian core                              [deg]
#  11 ELONGATION             A_IMAGE/B_IMAGE                                           
#  12 ELLIPTICITY            1 - B_IMAGE/A_IMAGE                                       
         1 -10.9398     37.6479     10.6144   8.1388701570e+01   6.9458117234e+01     1.113004    0.4836714 -45.20  0.005132618    3.013    0.668
         2 -11.0297     23.7707     32.1952   9.7591784917e+01   6.7445713433e+01     1.487803    0.4084991 -40.03  0.003600099    3.090    0.676
         3 -10.3576     10.4985     18.7452   9.8936395729e+01   7.0890238161e+01      1.33749    0.4413408 -24.38  0.004004239    7.341    0.864
         4 -10.2753      4.4952     42.2168   1.0975223935e+02   6.6822548712e+01    0.8101931    0.3086168 -63.63  0.003606738    2.302    0.566
         5 -10.3148     25.8295     11.2879   8.7541519202e+01   7.0744801990e+01    0.6933932    0.4094079  25.36  0.003976769    1.761    0.432
         6 -10.3310     18.5914      5.5424   8.8467119234e+01   7.2326406769e+01    0.5926226    0.4445215 -44.73  0.003277245    1.671    0.402
         7  -9.7355      2.2266     14.1863   1.0154659441e+02   7.2215768165e+01    0.6559743    0.2139343 -57.50  0.002917125    3.335    0.700
         8 -10.1454      6.3348      5.3344   9.5274350646e+01   7.3403630666e+01    0.3520983    0.2442026 -18.45  0.001308473    1.135    0.119
         9  -9.7896      2.5006      3.1045   9.6450989208e+01   7.4023770193e+01    0.2992249     0.146739 -32.97  0.001425508    1.545    0.353
        10 -10.3244    138.5497     19.5732   5.3715270866e+01   4.8272744150e+01     0.798466    0.4611937  -7.36  0.003520164    2.221    0.550
        11  -8.4168     72.0885      8.4878   6.6323337231e+01   6.4261335535e+01    0.2387434    0.1647843  -8.78 0.0006645714    1.383    0.277
        12 -10.2176     73.6510     17.7053   7.0122419633e+01   6.2900100027e+01     1.187654    0.3584502 -25.32  0.003691346    3.942    0.746
        13  -9.6256     77.8548      4.0424   6.2298272454e+01   6.3609161454e+01    0.5207205    0.3256414  -1.87  0.002012312    1.648    0.393
        14 -10.2417     69.7770     40.5427   8.1390686431e+01   6.0202019830e+01      1.00456    0.4206366 -37.72  0.003507064    2.230    0.552
        15  -9.9751     79.1559     24.1519   7.1116737174e+01   6.1044622475e+01    0.6864833    0.3293082  22.97  0.002027724    3.197    0.687
        16 -10.2261     62.5820      3.4405   6.7195354046e+01   6.6513873466e+01    0.5692223    0.4157168   8.19  0.002212848    1.198    0.165
        17  -9.7748     60.7887     31.9586   8.1300337617e+01   6.3034583136e+01     0.906462    0.3472194 -31.85  0.002901145    2.671    0.626
        18  -9.7123     63.2635     21.4692   7.5686673809e+01   6.4209374325e+01    0.4486413    0.3135165 -49.93 0.0008792685    2.039    0.509
        19 -10.2009     64.4193     13.2352   7.1368214734e+01   6.5089860769e+01    0.5062746    0.3285087  -3.05  0.002079573    1.561    0.359
        20 -10.0993     51.5025     14.2825   7.7031088055e+01   6.7034184413e+01    0.9903828    0.5010478   1.14  0.003941469    3.598    0.722
        21 -10.2825     46.2683     29.6982   8.6354658614e+01   6.5452629585e+01    0.6401091    0.3236926 -51.53  0.002549359    2.587    0.613
        22  -9.7757    103.1276     20.2070   6.2114970974e+01   5.6620358539e+01    0.7959278    0.3414505 -19.17  0.002621991    2.738    0.635
        23  -9.7447     91.6528     24.7045   6.7310511730e+01   5.8516810666e+01    0.8306359    0.3044255 -30.73   0.00267918    2.700    0.630
        24  -8.5969    120.0408     16.2157   5.6339343832e+01   5.3167457858e+01    0.3239257    0.2026076  15.37  0.001519805    1.944    0.486
        25  -8.4730    120.7960      6.3729   5.2366329598e+01   5.3939211867e+01    0.2051348    0.1031724  51.70 0.0004446704    1.690    0.408
        26  -8.8544    125.1777     12.9521   5.3978196113e+01   5.2263956648e+01     0.305111    0.2465436 -62.56 0.0009262643    1.515    0.340
        27  -8.9102    126.7448      9.0247   5.2178161697e+01   5.2258686099e+01    0.2900239    0.1575048  47.69 0.0006414487    1.632    0.387
        28  -9.1904    125.6117      5.0504   5.0903220150e+01   5.2890452018e+01    0.3429706    0.2443027  20.48  0.001333293    1.513    0.339
        29  -8.2582     97.5416      5.9813   5.7567494978e+01   5.9328784444e+01    0.2853043    0.1647047  -9.11  0.001008476    1.899    0.473
        30  -8.3997     95.8536      2.8312   5.6627242548e+01   5.9978878018e+01     0.221268    0.1912546  28.82 0.0006670025    1.024    0.024
        31  -8.6623     95.8443     16.5803   6.2605302235e+01   5.8616842287e+01    0.2959741    0.1745176 -26.85  0.001250774    1.730    0.422
        32  -8.7138     97.2297     12.0029   6.0253934654e+01   5.8810376252e+01    0.3798461    0.1947598  27.29  0.001667472    2.255    0.557
        33  -9.5236     85.3107     13.0713   6.4171655787e+01   6.1195753021e+01    0.4007687    0.2613612 -53.48  0.001467194    2.449    0.592
        34  -7.8876     80.6577     12.7002   6.5464791757e+01   6.2162549174e+01     0.259383    0.1714162 -42.79  0.001095371    1.922    0.480
        35  -8.9999    134.2993      4.6634   4.9156336988e+01   5.0786089483e+01    0.2233748    0.1304743  69.16 0.0006967375    1.623    0.384
        36  -9.5912    133.3683     11.2890   5.1730244394e+01   5.0414583924e+01    0.5464645    0.1955982 -34.16  0.002114229    2.869    0.651
        37  -9.1478    113.8798     10.0328   5.5298175809e+01   5.5243259873e+01    0.3213268    0.2074742  36.74 0.0004270114    1.458    0.314
        38  -9.1993    110.5986      5.7741   5.4322803288e+01   5.6399890128e+01    0.4226114    0.2278069  -2.89  0.001934074    2.279    0.561
        39  -9.2362    105.6152      1.9682   5.3887825597e+01   5.7872330237e+01    0.5644795    0.1693542  52.72  0.002210569    2.560    0.609
        40  -8.3764    141.4248     11.6593   5.0385343379e+01   4.8362234239e+01    0.2595828    0.1766835 -17.36 0.0007774535    1.640    0.390
        41  -8.8315    102.0890      8.0907   5.7312803990e+01   5.8126181541e+01    0.2761919    0.1999615 -36.43 0.0007912568    1.586    0.370
        42  -8.2388    155.7148      7.9693   4.6808290280e+01   4.5071659674e+01     0.186334    0.1826784 -25.97  0.001154529    1.135    0.119
        43  -9.0926     85.8104      5.7809   6.0703745521e+01   6.1842083126e+01    0.3470566    0.2144333  25.86  0.001846689    1.569    0.363
        44  -7.2706    143.2297      4.9596   4.7746849213e+01   4.8522618233e+01    0.1618366    0.1147509 -21.06 0.0007503727    1.567    0.362
        45  -9.1329    115.4047      4.2649   5.2663923024e+01   5.5406420017e+01    0.2627063    0.2202848 -42.92 0.0005865647    1.401    0.286
        46  -8.2095    136.7692      1.5695   4.7623554141e+01   5.0430239021e+01    0.1891084    0.1224166  80.46 0.0007924901    1.630    0.386
        47 -10.3661    117.3318    123.4564   9.1862971849e+01   3.4172661611e+01     1.098005    0.6192071 -51.91  0.002368616    1.746    0.427
        48 -10.0482    200.2529    249.4076   9.6971046631e+01  -4.6457991835e+00    0.3701895    0.1538316  43.35  0.001853946    2.082    0.520
        49  -9.5589    191.5049    249.4934   9.8553788635e+01  -3.3050358552e+00    0.2100003    0.1690868  19.93  0.001026526    1.123    0.109
        50  -9.4978    194.1830    246.5907   9.7656901247e+01  -3.3517724325e+00    0.2147695    0.1661212   6.45  0.001448365    1.334    0.250
        51 -11.0413    162.5843    248.3670   1.0367444318e+02   1.4154526985e+00    0.6416041    0.2604671  32.73  0.002897305    2.500    0.600
        52 -10.8036    123.7068     90.9136   8.1432515841e+01   4.0119672336e+01     1.486015    0.6654166 -34.23  0.003408956    2.652    0.623
        53  -9.7026    127.5014     75.4491   7.5646682635e+01   4.2413792172e+01    0.6875474    0.4567284 -87.21  0.002498821    2.975    0.664
        54  -9.1194    130.2380     66.2275   7.1924140710e+01   4.3511156329e+01    0.7547016    0.3855823 -26.18  0.002587483    2.409    0.585
        55  -9.8062    127.7327    102.4798   8.3644979726e+01   3.6759080791e+01     0.523801    0.3669025 -42.63  0.001551438    1.404    0.288
        56  -9.6676    139.2724    104.3356   8.1133750667e+01   3.3808027703e+01    0.5591812    0.3301685 -50.83  0.001398994    1.770    0.435
        57 -11.3919    121.3626    109.8433   8.7357486519e+01   3.6471500729e+01     1.233413     1.009467 -72.19  0.004084073    1.383    0.277
        58 -10.5721    131.7395    119.9406   8.7194901420e+01   3.2025650514e+01     1.045706     0.661752  79.38  0.003002114    3.005    0.667
        59 -11.2884    133.3564    109.4676   8.4057866960e+01   3.4005891911e+01     1.813584    0.7581897 -42.04  0.005904922    2.411    0.585
        60 -10.2423    108.6893    114.6155   9.2081146201e+01   3.7898845817e+01    0.9188837    0.4283511 -59.43  0.002377296    2.563    0.610
        61 -10.6668    108.7058     99.6171   8.8157278873e+01   4.1324455944e+01      1.05654    0.7383737  78.38  0.004410591    2.223    0.550
        62  -9.8065     27.4364    123.1022   1.1714178398e+02   4.7083109649e+01    0.5497973    0.2766235  69.59  0.002310727    2.666    0.625
        63  -7.4689    158.5077    122.4993   8.1217264099e+01   2.5568593238e+01    0.1577911     0.152797 -83.93 0.0008095583    1.074    0.069
        64  -8.9136    150.5934    119.0755   8.2235830702e+01   2.8086601006e+01    0.3575209      0.28034 -72.22 0.0009155106    1.557    0.358
        65  -8.1982    237.4869    118.0114   6.4453907392e+01   8.7249126759e+00    0.2240899    0.1301169 -34.27 0.0005264115    1.564    0.361
        66  -8.5416      1.6571    116.6446   1.2344371350e+02   5.0471909516e+01    0.3720501    0.1270322 -81.99  0.001591926    2.721    0.633
        67 -10.8919     45.0065    102.5830   1.0852824288e+02   5.0293401842e+01    0.8933985     0.467468  70.95   0.00316159    3.856    0.741
        68  -8.0089     23.3224     69.0695   1.0879651851e+02   5.9965386178e+01    0.2081358    0.1349555 -67.07 0.0002629516    1.426    0.299
        69 -10.9780     21.1696    101.5069   1.1580867134e+02   5.2702901069e+01     1.546429    0.7542342 -89.82  0.004410414    2.700    0.630
        70 -10.1385     19.7609     86.0530   1.1361847394e+02   5.6396631725e+01     1.010239    0.1800027 -60.25  0.003632947    3.323    0.699
        71 -10.4817     25.9238     78.1006   1.0987624559e+02   5.7748214456e+01    0.7564871    0.4532684  87.10  0.001762809    2.499    0.600
        72 -10.0097     34.5506     90.5203   1.0950302646e+02   5.4164544484e+01    0.5931619    0.2779368 -78.95  0.001913595    3.014    0.668
        73 -10.1755     36.7505     81.2243   1.0672444862e+02   5.6101107738e+01    0.8441877    0.4049904 -19.10  0.003066437    4.371    0.771
        74  -9.5584    206.7580    115.6008   6.9233242476e+01   1.5824396329e+01    0.2668079    0.2504393 -17.04 0.0003611705    1.037    0.036
        75  -8.3651    153.0252    115.3279   8.0674914013e+01   2.8335882293e+01    0.2196851    0.2090545  48.17 0.0006144176    1.057    0.054
        76 -10.2150     91.8797    113.0077   9.6497728843e+01   4.1312727148e+01     0.586961    0.4027497  88.78  0.001710521    2.126    0.530
        77  -9.0526     93.9224    103.2957   9.3490152298e+01   4.3234561114e+01    0.7506534    0.4259958  16.71  0.002667547    3.269    0.694
        78 -10.2879     78.0980    112.5825   1.0046543724e+02   4.3632513946e+01    0.6810476    0.3349393 -67.91  0.001679572    2.490    0.598
        79  -9.7677     81.5275     99.4254   9.6278918737e+01   4.6207870898e+01    0.8202269    0.3103753 -52.18  0.002139937    2.403    0.584
        80  -7.9600    167.3510    114.1523   7.7017176864e+01   2.5266967391e+01    0.2286172     0.142256 -50.78 0.0003606412    1.717    0.418
        81  -8.8830     55.2646    112.3347   1.0727539790e+02   4.6797059979e+01    0.5181698    0.2972429 -84.02  0.002269659    2.289    0.563
        82  -9.2834     64.6067     84.5827   9.7893907805e+01   5.2121491289e+01     0.662731    0.4839485 -44.69  0.003575224    1.223    0.183
        83  -9.2518     59.1308    109.6072   1.0555615756e+02   4.6976961177e+01    0.5593109    0.2566726 -63.58  0.001909704    2.033    0.508
        84 -10.5758     65.8749    109.1323   1.0339577099e+02   4.6211521859e+01     1.089769    0.5527939 -64.13  0.002838986    1.926    0.481
        85 -10.3796     62.9513     95.6920   1.0126197816e+02   4.9786679694e+01    0.6441836    0.4055391 -87.41  0.001510852    2.514    0.602
        86  -8.6733    158.9848    112.2174   7.8435965676e+01   2.7616879908e+01     0.306733    0.2277095 -52.78 0.0005225336    1.415    0.293
        87  -8.7941      7.5261     96.4796   1.1928365588e+02   5.4783179304e+01    0.5806317    0.1112692 -46.53  0.001872563    5.288    0.811
        88 -10.1349      4.5370     86.4678   1.1876863721e+02   5.7240494237e+01     1.250936    0.3003825 -69.27  0.004174644    3.085    0.676
        89  -9.7153      6.0597    103.7696   1.2070724544e+02   5.3186128884e+01     0.513954    0.3010251  55.30  0.001895015    2.017    0.504
        90  -9.7181     14.3893    111.5206   1.1928142019e+02   5.0845090648e+01    0.5678194    0.2580191  87.04  0.002314305    2.784    0.641
        91  -8.4294     14.1890    104.8686   1.1843647677e+02   5.2415360004e+01    0.2090055    0.1639553 -46.23 0.0009511056    1.316    0.240
        92  -8.1968    211.9120    111.9498   6.7364896299e+01   1.5316996162e+01     0.233597    0.1965172   7.80 0.0003428983    1.339    0.253
        93  -9.0679     35.8467    111.0860   1.1289756361e+02   4.9184892958e+01    0.2794805     0.210925  46.74  0.001678946    1.506    0.336
        94  -8.1599    149.7243    110.0379   8.0072804034e+01   3.0214176497e+01    0.2255984    0.1983417 -37.36 0.0003670685    1.137    0.121
        95  -8.8084     39.9692    106.4109   1.1082751619e+02   4.9899943349e+01    0.3301331    0.1706045 -72.42 0.0009405455    1.867    0.464
        96  -8.6366    165.9728    104.0430   7.4618156119e+01   2.7641915388e+01    0.3564866    0.2194886 -48.11 0.0007028257    1.677    0.404
        97  -8.4021    248.6129    104.1993   5.9487376304e+01   8.6962036481e+00    0.2079577      0.12336 -24.58 0.0009543041    1.730    0.422
        98  -7.9932     73.9071    103.1309   9.9560153388e+01   4.6506044092e+01    0.2178393    0.1823836 -89.79 0.0006089614    1.348    0.258
        99  -8.5170    159.0235    101.1803   7.5424395766e+01   2.9877305079e+01    0.2639322    0.2260264 -46.78 0.0004457981    1.167    0.143
       100  -7.2462    234.4908    100.3994   6.0701090819e+01   1.2290394587e+01    0.1419651    0.1321974 -32.21 0.0001051739    1.024    0.023
       101  -9.5466     94.4811     97.2883   9.1735197986e+01   4.4515517765e+01    0.3683898    0.2841599 -73.89 0.0006082614    1.546    0.353
       102  -8.9744     95.7846     91.1386   8.9632572305e+01   4.5665466039e+01    0.5449731      0.33564  -9.04  0.001903931    3.386    0.705
       103  -8.5434    239.3709     96.8246   5.9091933563e+01   1.1823188900e+01    0.1954712    0.1270792 -24.19 0.0009185389    1.591    0.371
       104 -10.7051    140.9982    117.0182   8.4081051979e+01   3.0671648537e+01      1.23889    0.5524193 -43.53  0.001709286    2.235    0.553
       105  -7.4691    171.4162     95.5382   7.1055087132e+01   2.8003460452e+01    0.1568563    0.1523106 -11.66 2.901188e-05    1.047    0.045
       106  -8.5879    164.5488     94.3194   7.2228610385e+01   2.9913892195e+01    0.3563277    0.2508424 -57.36 0.0007996959    1.622    0.383
       107  -9.6731    138.7142     92.6108   7.7945624148e+01   3.6402973068e+01    0.5064058     0.385811  51.08 0.0007318907    1.341    0.254
       108  -8.3524    139.5289     87.9571   7.6362520555e+01   3.7163767792e+01    0.4476045    0.2698423  21.11  0.001253722    2.808    0.644
       109  -9.0358    140.6524     83.4064   7.4706211652e+01   3.7807749398e+01    0.3616261    0.2658398 -65.42 0.0006233028    1.708    0.415
       110  -9.4765    150.6746     89.2098   7.3976782839e+01   3.4275786602e+01    0.3478804    0.2925653 -74.06 0.0007332715    1.390    0.280
       111  -8.5004    157.6962     90.8680   7.2803230108e+01   3.2254871819e+01    0.4167015     0.192023 -32.09  0.001426256    2.468    0.595
       112  -7.0959     42.2862     92.6758   1.0737275485e+02   5.2913638102e+01    0.1283623   0.09663367  83.85 0.0006566073    1.603    0.376
       113  -9.6154    111.1076     89.7332   8.4646736576e+01   4.3020710237e+01    0.7001863    0.3884138  28.04  0.002644897    2.461    0.594
       114  -9.9945     62.1177     60.7797   9.1667836812e+01   5.7586374559e+01    0.6218642    0.3629543  27.47  0.001218331    1.922    0.480
       115 -10.4273     47.9424     84.4426   1.0357389750e+02   5.4216861499e+01    0.6766003    0.4006311 -75.23  0.001591588    2.127    0.530
       116  -9.0332     48.7903     77.1882   1.0143807633e+02   5.5762257718e+01    0.4095261     0.241195  10.78  0.001963572    2.334    0.572
       117 -10.5748     55.0160     70.8961   9.7438886477e+01   5.6405127186e+01     0.568836    0.4502039  70.90  0.001246422    1.800    0.444
       118 -10.3313     85.2488     86.4764   9.1605124986e+01   4.8547350409e+01    0.5410508    0.4009558  67.25 0.0008878921    1.844    0.458
       119  -9.5913     87.5372     78.6677   8.8554209647e+01   4.9857261284e+01    0.5589629    0.3652929   7.55  0.001842951    2.352    0.575
       120  -8.0280    174.4579     88.5475   6.8431187561e+01   2.8584698067e+01    0.1566999    0.1522081 -65.88 0.0004575281    1.038    0.037
       121  -8.5128    163.5009     87.4430   7.0487097499e+01   3.1499279446e+01    0.3074014    0.1544031 -38.72  0.000607213    1.966    0.491
       122 -10.3106    103.9132     82.5983   8.4635386963e+01   4.5981997154e+01    0.5088739    0.3010348 -52.86 0.0008977434    1.798    0.444
       123  -9.6627    105.2045     71.6732   8.0782140127e+01   4.7964976823e+01    0.7287343     0.512696  -9.35  0.003254398    1.880    0.468
       124  -8.7413    157.7333     83.2204   7.0547549315e+01   3.3721390832e+01    0.4243551    0.2160939 -37.54  0.001307806    1.956    0.489
       125  -9.1772    140.2249     76.4417   7.2663115482e+01   3.9255981641e+01    0.6537437    0.2518414 -46.81  0.001470253    2.896    0.655
       126  -7.0618    170.3047     83.6311   6.7895655029e+01   3.0529953547e+01    0.1672196    0.1218209 -69.30 0.0007034322    1.750    0.429
       127  -8.4627    149.8331     80.1872   7.1476904519e+01   3.6229698177e+01    0.4768012    0.2141195 -37.83  0.001215004    2.220    0.549
       128  -8.7811    118.9837     80.4487   7.9570735503e+01   4.3313327352e+01    0.3367688       0.2506 -57.95 0.0006015911    1.527    0.345
       129  -8.3118    120.0017     75.9962   7.7877859685e+01   4.3983163566e+01    0.3020045     0.240799  -2.72 0.0008244075    1.492    0.330
       130  -9.1040     74.1599     79.3816   9.3197893728e+01   5.1894645382e+01    0.5879063    0.2507924 -52.75  0.001269072    2.249    0.555
       131  -8.5021     68.8530     79.3999   9.5008037628e+01   5.2681510960e+01     0.377426    0.1477813 -40.67  0.001395066    2.635    0.620
       132  -8.1174    166.5076     78.9275   6.7326090050e+01   3.2340984041e+01    0.2357336    0.1524576 -39.50 0.0007414318    1.530    0.346
       133  -7.9464    184.1874     78.0736   6.3486796297e+01   2.8049984329e+01    0.2349907    0.2093857  15.65 0.0005302847    1.263    0.208
       134  -7.1143    174.2786     78.6580   6.5618439361e+01   3.0439243452e+01    0.1615175    0.1198252 -66.63 0.0002951524    1.626    0.385
       135  -8.2212    156.9324     76.6597   6.8754881126e+01   3.5143073094e+01    0.2634453    0.2122977 -26.12 0.0004004075    1.302    0.232
       136  -9.3202     54.6994     63.6398   9.5364131463e+01   5.7987342887e+01    0.3843876    0.2592758 -21.57     0.001541    1.638    0.389
       137  -8.7341     18.3411     76.9197   1.1234371568e+02   5.8573149132e+01    0.1812615    0.1278668 -57.97 0.0005226237    1.111    0.100
       138 -10.0016     81.5975     72.4067   8.8561904449e+01   5.2195185069e+01    0.5019447    0.3350513 -58.96  0.001071014    1.727    0.421
       139  -8.9728     83.5947     64.5388   8.5310711836e+01   5.3456863227e+01    0.5512225     0.343136  -1.17  0.002007251    2.711    0.631
       140 -10.4017     33.3598     63.7361   1.0358647955e+02   6.0290581297e+01      1.11034    0.4740561 -31.92  0.004313129    2.987    0.665
       141 -10.0591    213.0250    249.3099   9.4689764641e+01  -6.5692315394e+00    0.3948235    0.1312494  43.02  0.001774223    2.691    0.628
       142  -9.3345    148.7624    248.3333   1.0621654820e+02   3.6228102799e+00    0.2233695    0.1674476  63.28 0.0008024875    1.462    0.316
       143  -9.9397     15.9703     70.5131   1.1187642459e+02   6.0162285191e+01    0.5820919    0.2319359 -47.62  0.001216263    1.990    0.497
       144  -9.6786     17.1523     62.0661   1.0951145982e+02   6.1932291808e+01    0.6463464    0.2194036 -56.38  0.002987486    2.114    0.527
       145  -7.8621    141.5009    249.9911   1.0775042648e+02   4.5258821839e+00    0.1472062    0.1202184 -54.65  0.001020833    1.558    0.358
       146 -10.2423    116.0545    246.3133   1.1201841277e+02   9.0597520544e+00    0.1989678    0.1694576  56.68 0.0001943258    1.104    0.095
       147 -10.8501     21.8985     53.4776   1.0535531840e+02   6.3416333177e+01    0.7209718    0.4580738  87.58  0.002942141    2.977    0.664
       148 -10.2191     12.8302     45.5522   1.0698661537e+02   6.5672590089e+01    0.7224892    0.3584851  -9.70  0.003315832    2.671    0.626
       149  -9.8505    183.2727    245.3999   9.9473869275e+01  -1.4752693384e+00    0.2475409   0.09389848  37.28  0.001145799    2.154    0.536
       150  -7.8226     80.0389    250.5009   1.1887986464e+02   1.3615829585e+01    0.1672424    0.0895517  43.87   0.00055001    1.521    0.342
       151  -7.1993    233.0000    238.9781   8.9594683090e+01  -8.3188783370e+00    0.1646159   0.06279614 -33.58 0.0007951225    2.892    0.654
       152  -9.5444      6.9096     32.5138   1.0575845478e+02   6.8602053230e+01    0.2550671    0.1763722 -10.78 0.0008289681    1.488    0.328
       153 -10.1580      7.4320     28.3962   1.0413246208e+02   6.9350909980e+01    0.3241948    0.2780508  46.64  0.001090511    1.731    0.422
       154  -8.5763    194.1621    241.0846   9.6857399412e+01  -2.6325996061e+00    0.1904062    0.1384887  18.82 0.0006083852    1.280    0.219
       155  -9.8696    188.5357    233.9736   9.6834809708e+01  -7.5982197584e-01    0.2985342    0.2425535  60.90  0.001750406    1.596    0.374
       156  -9.0858    115.1138     72.7350   7.8210518542e+01   4.5685494704e+01     0.375304     0.306188 -52.73 0.0007435823    1.313    0.239
       157  -8.0424    116.6182     68.6933   7.6450750696e+01   4.6138089524e+01    0.2687026    0.2171527  31.13 0.0007368773    1.278    0.218
       158  -8.1430    162.6798     73.0689   6.6392351458e+01   3.4355085938e+01    0.2518062    0.2143704  83.22  0.000513886    1.312    0.238
       159  -7.8228    175.0393     72.4944   6.3656499808e+01   3.1330992470e+01    0.2354542    0.1523048  55.97 0.0008114857    1.543    0.352
       160  -8.3391    169.2959     70.5638   6.4242459922e+01   3.3121970167e+01    0.5180046    0.1554375 -34.98  0.001541601    3.309    0.698
       161  -8.2470    170.8040     65.0726   6.2282058746e+01   3.3669021699e+01     0.264009    0.2214722 -32.45 0.0004408731    1.211    0.174
       162  -9.2571    146.9365     69.1892   6.8742170359e+01   3.8966660793e+01    0.4111702    0.2744796 -59.21 0.0008659634    1.878    0.468
       163  -8.1431     95.3719     53.7778   7.7639130140e+01   5.3297243307e+01    0.2851173    0.2001805 -34.52  0.001424423    1.373    0.272
       164  -9.8128     94.8294     68.4302   8.2930768271e+01   5.0643428218e+01     0.462617    0.2518097 -47.46 0.0007960072    1.851    0.460
       165  -9.1579     97.5284     58.3282   7.8595455962e+01   5.2051363474e+01    0.7065549    0.4089306 -12.42  0.002639346    2.894    0.654
       166  -8.2567     75.4818     68.1829   8.9295767962e+01   5.4071304481e+01    0.4605156    0.1230672 -45.18  0.001472498    3.383    0.704
       167  -9.0950    207.2994     67.6005   5.6537816010e+01   2.4019482830e+01    0.3699443    0.2612233 -23.29  0.001013822    1.555    0.357
       168  -9.2935    137.8856     65.9044   6.9873526922e+01   4.1754211699e+01    0.5149623    0.3494518 -21.55  0.001400748    1.687    0.407
       169  -9.1146    121.1416     65.9655   7.4274460975e+01   4.5645782402e+01    0.3839825    0.2772266 -53.80 0.0006504257    1.585    0.369
       170  -8.4547    121.8150     61.4094   7.2547098375e+01   4.6318127436e+01    0.3127348    0.2225365  31.28 0.0008605724    1.519    0.342
       171  -9.3629    109.7825     64.0182   7.6849137287e+01   4.8488243786e+01    0.4029711    0.2665755 -52.99 0.0006885974    1.764    0.433
       172  -8.7663    110.7992     57.9626   7.4448229408e+01   4.9370863390e+01    0.3539523    0.2750803  11.98  0.001022805    1.460    0.315
       173  -8.3905    157.8416     63.4345   6.4459630278e+01   3.7242629842e+01    0.3233934    0.1980646 -41.68 0.0009259523    1.650    0.394
       174  -9.2084     49.3930     61.2546   9.6636765365e+01   5.9134434267e+01    0.3812234    0.1170208 -53.65  0.001386176    3.042    0.671
       175  -8.2135      9.8092     60.4845   1.1203731464e+02   6.2726464412e+01    0.2869725    0.1491375 -82.65  0.001378033    2.656    0.624
       176  -8.2227    164.6928     60.2460   6.2030320361e+01   3.6026153256e+01    0.2885629    0.2156642 -36.52 0.0007793967    1.348    0.258
       177  -8.7046    168.0213     55.6074   5.9932320690e+01   3.5910672720e+01    0.5250986    0.2534859  35.27  0.001751562    3.095    0.677
       178 -10.4289     90.2007     38.0243   7.3268915401e+01   5.6925375769e+01     1.023534    0.4207843  33.04  0.003652727    3.189    0.686
       179  -9.4375     87.8885     56.7125   8.1140427095e+01   5.4190196165e+01    0.8922002    0.4139225 -32.41  0.003273599    2.308    0.567
       180 -10.1832     85.0799     48.0183   7.8872485576e+01   5.6265830069e+01    0.3997837    0.3212427 -77.47 0.0009401982    1.973    0.493
       181  -8.7020     79.9494     46.8321   8.0184101880e+01   5.7396175821e+01    0.4580056    0.2106746 -36.70  0.001176476    2.070    0.517
       182  -7.7962    152.5025     60.0585   6.4551022670e+01   3.9153421702e+01    0.2326971    0.1511064 -35.14  0.001019386    1.555    0.357
       183  -8.6082    146.3596     59.0043   6.5590952675e+01   4.0865380536e+01    0.3007027    0.2524795 -46.60 0.0007748278    1.239    0.193
       184  -8.7491    147.5767     54.6446   6.3882953784e+01   4.1271342468e+01    0.3724849    0.2487495 -14.53  0.001614186    1.845    0.458
       185  -9.1655    138.9198     56.7810   6.6598109164e+01   4.3068385313e+01     0.379732    0.2060657 -40.98 0.0005397355    1.884    0.469
       186  -7.9373    139.3117     52.3263   6.5001866593e+01   4.3693527858e+01    0.3027195     0.162318  41.16 0.0006191883    1.968    0.492
       187  -8.7456    142.1231     48.6552   6.3107010102e+01   4.3569136058e+01    0.3362882    0.2250613 -24.82 0.0009329738    1.602    0.376
       188  -8.3817    129.9889     57.9348   6.9200797483e+01   4.5024643813e+01    0.3006566    0.2009083 -46.95 0.0004708926    1.620    0.383
       189  -8.1910    130.3285     54.3249   6.7875244564e+01   4.5546915458e+01    0.2863133    0.2123272  24.04 0.0009527463    1.532    0.347
       190  -9.1685    118.1355     55.4165   7.1474049069e+01   4.8193836027e+01    0.3916005    0.3078291 -65.13  0.001145928    1.647    0.393
       191  -9.0978    120.9812     47.4580   6.7864089481e+01   4.8845835865e+01     0.515336    0.3062055 -16.14   0.00152149    2.119    0.528
       192  -8.4118     53.7909     39.1239   8.7063100744e+01   6.2844399280e+01    0.1864212    0.1655684 -39.49 0.0008361628    1.274    0.215
       193 -10.0251     49.9945     54.5448   9.4229228206e+01   6.0430095887e+01    0.3802497    0.3101066 -74.01  0.001253742    1.675    0.403
       194  -9.3516     44.2079     53.9178   9.6326646435e+01   6.1234300671e+01    0.3023636    0.1902169 -27.19 0.0007017769    1.596    0.374
       195  -9.8829     55.9643     43.6966   8.7962938008e+01   6.1728212597e+01    0.9846234    0.5055897  -6.66  0.003126815    5.270    0.810
       196  -8.7196    162.7119     53.0271   6.0168007981e+01   3.7677194670e+01    0.4442843    0.2283397 -34.05  0.001397171    1.959    0.490
       197  -9.1742    105.6435     51.7276   7.3725222658e+01   5.1553842473e+01    0.6297947    0.3269353 -27.66  0.002101866    2.115    0.527
       198  -7.4229    152.6897     53.7304   6.2463808533e+01   4.0127354974e+01    0.1532932    0.1144667  27.53            0    1.544    0.353
       199  -9.1036     39.7220     52.2399   9.7597885717e+01   6.2060483736e+01    0.3520751    0.1683801 -39.68  0.001711122    1.824    0.452
       200 -10.1623     73.5820     56.9101   8.6154491954e+01   5.6623820458e+01     1.159604    0.3784177 -37.75  0.002848711    3.196    0.687
       201  -8.2632    118.2842    231.6960   1.0998198205e+02   1.1158812332e+01    0.2341587    0.1630326  67.33  0.000610365    1.471    0.320
       202  -9.5844    130.5381     46.3999   6.5055305535e+01   4.6751485066e+01     0.885837    0.3891949 -19.63  0.001785004    3.495    0.714
       203  -8.7438    133.0890     35.9018   6.0714443136e+01   4.7639982346e+01    0.3915595    0.2442354 -51.02 0.0004674173    1.960    0.490
       204 -10.8236    134.1075     30.8376   5.8668756647e+01   4.8052796861e+01    0.3598482    0.2756837   2.49  0.001833961    1.488    0.328
       205  -9.1471    156.9347     47.4536   5.9540980625e+01   4.0002188189e+01    0.4839591    0.2485896 -45.05  0.001925825    2.101    0.524
       206  -8.5443    112.2223     47.3597   7.0216105383e+01   5.0846918079e+01    0.3277566    0.2332738 -59.25     0.001522    1.903    0.474
       207  -9.0995    149.7914     47.7172   6.1107321781e+01   4.1784326882e+01    0.5012453    0.1883889 -40.50  0.001724743    2.721    0.633
       208  -9.5819    153.1146     41.0836   5.8221157129e+01   4.1896761493e+01    0.4530551    0.3434481  25.53   0.00198787    1.515    0.340
       209  -8.4945    228.0393    222.1721   8.7677575995e+01  -5.5220983376e+00    0.1797835     0.142893  16.81 0.0003098857    1.020    0.020
       210  -9.5856      7.4905    208.3441   1.2891033063e+02   2.9998463029e+01    0.2316854    0.1422823  49.78  0.001269502    1.461    0.316
       211  -9.6909     11.8657    206.9019   1.2804736301e+02   2.9870764770e+01    0.2558798    0.2018621  72.68  0.001324951    1.152    0.132
       212  -8.9826    226.6547    204.7666   8.4837789659e+01  -2.9645232253e+00    0.2492759     0.233314 -68.26 0.0009491806    1.648    0.393
       213  -9.9939     76.2298     32.1767   7.5596580837e+01   6.0437122936e+01    0.5879115    0.3745734  59.10  0.001179189    2.338    0.572
       214  -8.8415    214.6364    199.3338   8.6056766098e+01  -1.4084808700e-01    0.2621617    0.1905514  38.99  0.000657273    1.318    0.241
       215  -9.0194     84.7244     21.9412   6.8299635932e+01   6.0262526830e+01    0.2874332    0.2165867 -11.03 0.0007236081    1.279    0.218
       216  -8.9387     39.8965     35.1425   9.1376578161e+01   6.5291463222e+01    0.4022369    0.3272577  19.83  0.002148161    1.344    0.256
       217 -10.0061     37.7676     42.1565   9.4955954776e+01   6.4236755144e+01    0.3774633    0.3144802  75.60  0.001669294    2.004    0.501
       218 -10.1316     35.8948     37.9861   9.4236460125e+01   6.5214779049e+01    0.3377998    0.2016094 -43.03  0.000365019    1.408    0.290
       219  -9.3269    104.9383     41.2345   7.0000114297e+01   5.3395984058e+01    0.4312674    0.2672235 -49.07  0.001150934    1.992    0.498
       220  -8.3635    106.0182     36.4796   6.7849387210e+01   5.3867107100e+01    0.3213252    0.2214062  29.65 0.0009176063    1.489    0.328
       221  -8.2345    122.5105     41.4446   6.5279447247e+01   4.9402280146e+01    0.3340464    0.2007622  19.58  0.001337384    2.371    0.578
       222  -8.0775    113.7490     41.9485   6.7781161802e+01   5.1345307739e+01    0.3475474    0.1919786  23.00  0.001310103    2.717    0.632
       223  -8.5347    115.5077     37.9824   6.5814823424e+01   5.1528143348e+01    0.3084956    0.2098141  15.26  0.001430744    1.789    0.441
       224  -8.8640    118.9359     34.5654   6.3633401250e+01   5.1213430224e+01    0.3737425     0.237668 -12.55 0.0006716084    1.841    0.457
       225  -8.7443    139.4942     40.4137   6.0865532858e+01   4.5433520487e+01    0.3210712    0.2485109 -51.68 0.0007263159    1.452    0.311
       226  -7.6991    162.3058     46.5865   5.8204156883e+01   3.8747642885e+01    0.1645604     0.109861 -63.71  0.000455649    1.883    0.469
       227  -8.8555    144.1918     36.4676   5.8488691771e+01   4.4797983878e+01    0.2666818    0.2168834 -51.86 0.0005838291    1.355    0.262
       228  -8.8895    152.8725     34.6241   5.6123045464e+01   4.2831111482e+01    0.2892991    0.2199159  30.08  0.001141655    1.451    0.311
       229  -9.2458    110.3381     33.1338   6.5344232994e+01   5.3379079711e+01    0.4089502    0.2247686 -42.37 0.0008861568    2.053    0.513
       230  -8.5106    109.8378     26.6919   6.2946532705e+01   5.4336402667e+01    0.3373484    0.2603585  15.07  0.001813925    1.334    0.250
       231  -9.0737    192.4919    195.1709   8.9571933753e+01   4.4774857519e+00    0.7306198    0.3494606 -59.31   0.00220279    5.937    0.832
       232 -10.4919    246.0656    197.2252   7.9980702324e+01  -5.0709510483e+00    0.2296178     0.193304   7.83 0.0002346478    1.088    0.081
       233  -8.9618    215.7222    194.6463   8.4971276643e+01   3.7743321028e-01    0.2333924    0.2011127   3.83   0.00042583    1.051    0.049
       234  -7.3578    225.9719    190.0445   8.2179283888e+01  -7.1880421245e-01     0.159437    0.1352472  10.76 0.0003412091    1.015    0.015
       235  -8.4864    216.1490    189.8662   8.3974078469e+01   1.0358382074e+00    0.2253614    0.1725397  20.77 0.0003023292    1.199    0.166
       236 -10.2764    183.9685    185.8055   8.9538088371e+01   7.6726753645e+00    0.2523439    0.2371441  19.91  0.000376213    1.054    0.052
       237  -8.6193     42.0042     28.2834   8.7622969783e+01   6.6223346063e+01    0.2327639    0.1584171 -30.97 0.0004028057    1.240    0.193
       238  -9.2918    101.0154     31.6131   6.7364068410e+01   5.5634296132e+01    0.4773435    0.1994343 -37.55  0.001873348    2.474    0.596
       239  -8.2497    136.1043    186.0179   9.9835676652e+01   1.6713454024e+01     0.198299    0.1838145  56.94 0.0002660053    1.022    0.021
       240  -8.2854    242.6186    185.1883   7.8243264188e+01  -2.8390268974e+00    0.1968285    0.1686478  28.06 0.0005622347    1.238    0.192
       241  -9.9586    154.1440     27.6144   5.3552355355e+01   4.3383105355e+01    0.5491934     0.336092  47.38  0.002551333    1.578    0.366
       242  -9.1088    144.2051     25.9065   5.4838367020e+01   4.6127169203e+01    0.2811744    0.1827427 -29.93  0.001353978    1.620    0.383
       243  -8.7444    128.4856     25.9869   5.8144222163e+01   5.0031354141e+01    0.2982084    0.2366605 -43.93   0.00107695    1.404    0.288
       244  -7.9650    129.6536     21.6930   5.6301404251e+01   5.0245662337e+01    0.2508495     0.130988  28.99 0.0009936363    2.482    0.597
       245  -9.1856    118.7629     21.4217   5.8648679660e+01   5.2900616147e+01    0.2761135    0.2595587  45.94 0.0005822933    1.081    0.075
       246  -9.0932     69.0544    182.0249   1.1432163496e+02   2.8536833852e+01    0.1866158    0.1609818  81.02  0.001184106    1.046    0.044
       247  -8.3295    111.5466     21.3630   6.0385966740e+01   5.4589382145e+01    0.3259356    0.1385735 -22.54  0.001298199    2.582    0.613
       248  -8.5110    155.4480     18.0017   5.0142677940e+01   4.4138455686e+01    0.2020186    0.1385178 -28.63 0.0004277619    1.562    0.360
       249  -8.2135    230.4440    168.5313   7.7011492248e+01   1.7964559668e+00    0.3480635    0.1551651 -41.79  0.001458577    2.366    0.577
       250  -8.8673    132.8428     17.1603   5.3974198749e+01   4.9953878128e+01    0.2433523    0.1887943 -55.64 0.0005410862    1.525    0.344
       251  -8.2986    128.8944     16.1094   5.4391479397e+01   5.1036805206e+01    0.2947826    0.2043245  74.72 0.0006138398    1.582    0.368
       252  -7.6547    190.3084    167.6387   8.4598271069e+01   9.6981828035e+00    0.2069036    0.1724552  87.31 0.0006302124    1.689    0.408
       253  -8.6313     69.6987    166.2818   1.1216623563e+02   3.2014524522e+01    0.2142786    0.1944034 -87.11 0.0003010506    1.106    0.096
       254  -8.9085    204.6925    169.8039   8.2149214926e+01   6.4641553810e+00    0.2373748    0.2019719  33.25 0.0003162366    1.132    0.117
       255  -8.5532    133.6449    146.4347   9.2871167812e+01   2.5670626057e+01    0.5860732    0.1774054 -54.05  0.001670437    3.962    0.748
       256  -8.4350    236.2642    145.9998   7.1096764648e+01   4.3345210532e+00    0.2536015    0.1378976  15.56 0.0005934591    3.470    0.712
       257  -9.1607     67.0429    144.1950   1.0957804790e+02   3.7590486567e+01    0.5199993    0.2600859  57.27  0.002208664    2.407    0.585
       258  -7.0064    223.6724    145.7093   7.3269138917e+01   6.8539060903e+00    0.1470279    0.1065794   8.00 0.0004574609    1.619    0.382
       259  -8.1123    167.4467     16.4833   4.7783021872e+01   4.1197275448e+01    0.1404337    0.1285117  82.88 -4.155228e-05    1.035    0.034
       260  -8.5522    112.4667     15.6582   5.7879700087e+01   5.5007640084e+01    0.2326288    0.2058315 -39.61 0.0006460908    1.296    0.229
       261  -7.5067    189.5849     15.2347   4.4454088147e+01   3.5611882369e+01    0.1853601    0.1360872  -3.55 0.0009500287    1.768    0.434
       262  -6.9409    171.4902    145.4910   8.3782668014e+01   1.7910127364e+01    0.1512529    0.1481308  26.79 -1.69614e-05    1.019    0.018
       263  -7.0227    162.2485    142.2740   8.5130278454e+01   2.0572075541e+01    0.1447465    0.1198255  -1.31 0.0006809039    1.449    0.310
       264  -8.5082    112.3400    133.8345   9.5568046069e+01   3.2718113650e+01    0.3433718    0.2415257  84.92  0.001050458    1.957    0.489
       265  -7.1232     95.0267    136.0000   1.0064343904e+02   3.5298905461e+01    0.2309016   0.08331948  38.17 0.0007942912    2.886    0.654
       266 -10.7454     70.0819    126.4682   1.0566314986e+02   4.1452028451e+01    0.8867499    0.6572033 -36.00  0.002768309    1.588    0.370
       267 -10.1072     58.1790    124.4249   1.0866996639e+02   4.3519495132e+01    0.6681149     0.366603  82.92  0.002122023    2.949    0.661
       268  -8.9996    135.7973    132.6030   8.9232477266e+01   2.8328230435e+01    0.5995453    0.2189476 -47.05  0.001977099    2.736    0.634
       269  -8.9363    131.7721    131.1643   8.9912907771e+01   2.9489040817e+01     0.417628     0.279872  81.67   0.00162317    2.420    0.587
       270  -8.6778     83.3683    131.8445   1.0299050761e+02   3.8188812364e+01    0.5221555    0.2920173  74.25  0.001878662    3.262    0.693
       271  -9.8537     98.6451    128.7384   9.8146326359e+01   3.6407955933e+01    0.6657929    0.3999561  74.02  0.002378364    2.830    0.647
       272  -8.1702    126.0218    129.4996   9.0999862091e+01   3.1044977777e+01     0.230021    0.1512578  45.23 0.0006569811    1.531    0.347
       273  -9.8873     41.8628    122.8493   1.1305214955e+02   4.5764165262e+01    0.7090153    0.3347516 -87.34  0.002759843    3.068    0.674
       274 -10.0501    149.3235    103.3802   7.8354292872e+01   3.1708262895e+01    0.5318458    0.4340584 -52.81 0.0009380284    1.261    0.207
