#   1 NUMBER                 Running object number                                     
#   2 MAG_AUTO               Kron-like elliptical aperture magnitude                    [mag]
#   3 X_IMAGE                Object position along x                                    [pixel]
#   4 Y_IMAGE                Object position along y                                    [pixel]
#   5 X_WORLD                Barycenter position along world x axis                     [deg]
#   6 Y_WORLD                Barycenter position along world y axis                     [deg]
#   7 A_WORLD                Profile RMS along major axis (world units)                 [deg]
#   8 B_WORLD                Profile RMS along minor axis (world units)                 [deg]
#   9 THETA_WORLD            Position angle (CCW/world-x)                               [deg]
#  10 FWHM_WORLD             FWHM assuming a gaussian core                              [deg]
#  11 ELONGATION             A_IMAGE/B_IMAGE                                           
#  12 ELLIPTICITY            1 - B_IMAGE/A_IMAGE                                       
         1 -14.0958    188.6113     32.3731   6.2467263175e+01   3.3980689364e+01     1.115547    0.9696878 -48.66  0.002966297    1.194    0.163
         2 -14.9628    196.7537     21.2248   5.8628526448e+01   3.3300227196e+01     2.029834     1.507523  25.10  0.001633261    2.010    0.502
         3  -9.3180     82.2916      5.7160   7.3661200691e+01   6.2594055640e+01    0.1117265   0.09857778 -78.82 0.0001999459    1.535    0.349
         4  -9.8177    114.5036      3.9297   6.5284794924e+01   5.5442028090e+01    0.1673874    0.1308753 -14.83 0.0003421405    1.484    0.326
         5 -11.5175     57.0117      3.1664   8.0826423012e+01   6.7791234176e+01    0.2153971    0.1636319  -5.40   0.00101611    1.272    0.214
         6 -11.0758    181.5506    233.3520   1.0981298064e+02  -2.0132393686e-01    0.2471455    0.1808083  36.13  0.001128266    1.198    0.166
         7 -15.8535    119.0170    236.3962   1.2320161975e+02   9.4848400677e+00     5.978987     3.324602  39.80   0.03109087    1.494    0.331
         8 -13.9912     59.1255    209.3242   1.3318237036e+02   2.3945323647e+01     1.679643    0.7218472  41.86  0.007902112    2.002    0.500
         9 -11.9338    116.1031    211.8281   1.2059958821e+02   1.4734228245e+01    0.3854051    0.2608368  76.65 0.0009700723    1.907    0.476
        10 -10.0082     39.5516    212.7628   1.3774276565e+02   2.5649480815e+01    0.2296417    0.1081498  51.90 0.0007559013    1.805    0.446
        11 -14.2379     52.6202    230.7173   1.3645811820e+02   2.0288151496e+01     1.605737     0.884925 -81.43  0.008990665    1.839    0.456
        12 -10.4670     44.3376    210.2362   1.3650970410e+02   2.5624628148e+01    0.2608043    0.1415148  56.38 0.0007589425    1.608    0.378
        13 -10.7548     37.3985    206.7284   1.3772121443e+02   2.7213288145e+01    0.1990003    0.1336367  51.74 0.0004947732    1.296    0.228
        14 -12.8881    195.2471    194.8104   1.0035593747e+02   3.8840478158e+00    0.8618566    0.7111406 -87.66  0.004447482    1.936    0.484
        15 -13.3115     67.6614    195.3306   1.2972465948e+02   2.5913851262e+01    0.7619854    0.6294856 -66.46  0.002939327    1.282    0.220
        16 -11.2676     37.0218    200.0830   1.3725382864e+02   2.8730438309e+01    0.1792391    0.1471203  76.54 0.0002939049    1.032    0.031
        17 -11.4231     57.4998    249.2786   1.3692002351e+02   1.6050125463e+01    0.2210189    0.1534605  61.64 0.0006305762    1.127    0.113
        18 -10.1749     81.8051    195.0536   1.2632041711e+02   2.3911612903e+01    0.3042513    0.1943924  32.06  0.001516157    1.656    0.396
        19 -12.1889    105.5341    200.7244   1.2145852870e+02   1.8854601503e+01    0.4293581    0.3354316  55.61  0.002365303    1.172    0.147
        20 -11.7025     37.4566    226.0132   1.3916694612e+02   2.3106726839e+01    0.2513927     0.151952  55.28  0.001388098    1.334    0.250
        21 -11.3934    207.6885    183.5756   9.5685022582e+01   3.6258579610e+00    0.3283413    0.2762794 -39.31 0.0009851782    1.271    0.213
        22 -11.5784    211.0280    180.9905   9.4519056617e+01   3.4779695314e+00    0.3914268    0.2722012 -16.09  0.001270318    1.560    0.359
        23 -11.3342     81.7922    170.0799   1.2277947130e+02   2.9790093327e+01    0.3401456     0.259903  72.20 0.0004856355    1.337    0.252
        24 -12.0937     78.8682    180.1629   1.2502774676e+02   2.7820131602e+01    0.4423092    0.2809101 -40.87  0.002058988    2.072    0.517
        25 -12.0603     82.3679    175.0129   1.2338335878e+02   2.8512093071e+01    0.3283666    0.2936425 -36.36 0.0007667522    1.354    0.261
        26 -10.6396     99.4825    180.5247   1.1987541533e+02   2.4428151062e+01    0.2495594    0.2268182  56.59 0.0006173709    1.041    0.039
        27  -9.8908     60.2102    245.9417   1.3614551104e+02   1.6323663933e+01     0.177551    0.1202177  67.86 0.0004967649    1.259    0.206
        28 -11.7882    197.5852    174.5302   9.5876274538e+01   7.1022458305e+00    0.5933565    0.3334816 -47.29   0.00231651    1.938    0.484
        29 -11.1511    145.6086    168.3061   1.0616884993e+02   1.8622822974e+01     0.280646    0.2631233   7.62 0.0005917353    1.127    0.113
        30  -9.8683    203.5794    167.7567   9.3266493346e+01   7.2086001002e+00    0.1964181    0.1323385 -49.06 0.0006201752    1.641    0.391
        31 -19.3720     10.8199    131.0069   1.3722555732e+02   4.7590255659e+01     18.95383     1.903211 -73.86   0.03825962   10.675    0.906
        32 -11.3254    120.9179    200.0937   1.1775462378e+02   1.6357349412e+01    0.3716407    0.2483201 -27.98  0.001693973    2.244    0.554
        33 -10.5486    140.8174    157.4187   1.0508898227e+02   2.2007229758e+01     0.264324    0.2259081  87.04 0.0005765797    1.355    0.262
        34 -10.0693    165.0070    153.5064   9.8436112102e+01   1.7823418081e+01    0.2116166    0.1340669  66.95 0.0007941205    2.365    0.577
        35 -10.3311    134.2372    148.2535   1.0476882582e+02   2.5442932932e+01     0.466095    0.2340831 -61.82  0.001383247    2.700    0.630
        36 -11.2208    134.0000    143.5251   1.0377308288e+02   2.6579821422e+01     0.818384    0.2938253 -57.71  0.002230452    4.204    0.762
        37 -10.6859    174.5390    149.0204   9.5273708663e+01   1.6740532295e+01    0.2801764    0.2632332  60.49 0.0007939578    1.127    0.112
        38  -9.5806     70.4903    228.4199   1.3256777361e+02   1.8366983981e+01    0.1290465    0.1007531  60.55 6.491782e-05    1.037    0.036
        39 -12.5127     95.1770    142.3652   1.1413311655e+02   3.4378494672e+01    0.2918681    0.2829566 -30.47 0.0004699274    1.126    0.112
        40 -12.3214     68.2936    247.0235   1.3465432716e+02   1.5040424522e+01    0.2793079    0.2033616  79.73 0.0005254038    1.306    0.235
        41 -11.5235    107.2808    141.6559   1.1056277578e+02   3.2348523392e+01        0.623    0.3556177 -31.64  0.002288209    2.623    0.619
        42 -12.6842     71.2463    244.3711   1.3384936431e+02   1.5136422183e+01       0.3685     0.240583  84.04  0.001040428    1.586    0.369
        43 -10.9256    114.6906    131.6252   1.0623299205e+02   3.3319608209e+01    0.3401405    0.2898155  23.73 0.0006593227    1.297    0.229
        44 -10.5918    105.9567    130.9730   1.0856203872e+02   3.5181403161e+01    0.3818252    0.3224488  84.73   0.00126476    1.329    0.247
        45 -11.0910    102.4065    127.9028   1.0888186639e+02   3.6594734969e+01    0.3211949    0.2551292 -32.92 0.0007349714    1.409    0.290
        46 -11.6156    119.1246    127.1185   1.0391903749e+02   3.3485700342e+01    0.5882604    0.3151297 -47.56  0.002310619    1.869    0.465
        47 -10.5952    160.3820    127.5302   9.3417367337e+01   2.4375474816e+01    0.3400946    0.2724527 -73.65  0.001173909    1.503    0.335
        48  -9.6482    125.6699    127.3602   1.0217706094e+02   3.2066474347e+01    0.1676576     0.125891  86.09  0.000704131    1.797    0.443
        49 -10.6160    135.7280    122.6287   9.8309717100e+01   3.0977157181e+01    0.3726961    0.2222188 -59.58  0.001445333    2.011    0.503
        50 -10.2332    110.0265    120.0308   1.0476144985e+02   3.6994967977e+01    0.2263263     0.223957 -62.64 0.0003214614    1.015    0.014
        51 -11.9103     63.3950    113.6414   1.1780299046e+02   4.6504702208e+01     0.274814    0.2453938 -32.62 0.0008156453    1.168    0.144
        52 -10.1531    167.8587    112.7092   8.7946761188e+01   2.5740629724e+01    0.3112722     0.234621 -82.72  0.001096787    1.764    0.433
        53  -9.6394    135.0000    111.9925   9.5735755449e+01   3.3502799102e+01    0.2667767   0.09074817 -44.78  0.000804942    2.960    0.662
        54 -10.1243    205.3968    110.1114   7.9800401176e+01   1.7586945112e+01    0.2447014    0.2043834  39.69  0.000661845    1.307    0.235
        55 -12.1785     57.9869    103.0183   1.1723534963e+02   4.9810474883e+01    0.4111383     0.273527 -63.69  0.002029843    1.476    0.322
        56  -9.5772    134.4714    102.9543   9.3413104278e+01   3.5577562015e+01    0.2447452    0.1564489 -43.71  0.001027547    1.579    0.367
        57 -11.3790     67.5965    103.7701   1.1411053612e+02   4.8292609240e+01    0.4277258     0.266477   5.18  0.001773395    2.505    0.601
        58  -9.4287     69.8092     71.9175   1.0434967883e+02   5.5078406526e+01    0.1792389     0.166655  63.49  0.000617118    1.301    0.231
        59 -10.3176    168.8781     68.5586   7.5644433840e+01   3.3726147005e+01    0.3987486    0.2269702 -78.96  0.001335106    3.348    0.701
        60  -9.5493     66.5261    232.8994   1.3380172395e+02   1.8012684666e+01    0.1513879    0.1136541 -78.34 0.0002903741    1.388    0.279
        61  -8.9197    105.5217     61.4863   8.8730560745e+01   5.0239883933e+01    0.1454115     0.140278  30.89 0.0001744783    1.045    0.043
        62 -13.8035    178.2935     41.2365   6.6307871197e+01   3.5429511728e+01     0.956561    0.8118308 -30.98  0.001958929    1.318    0.241
        63 -10.8428     62.4723    249.5065   1.3598283230e+02   1.5356584638e+01       0.3236    0.1517087  49.41 0.0009286907    1.649    0.394
        64  -9.2172    196.0071    246.0163   1.0893357772e+02  -4.3208242890e+00    0.1453548    0.1209327  11.55 0.0004778385    1.082    0.076
        65  -9.3808    166.5237     33.5317   6.5920373698e+01   3.9414192110e+01    0.1434068    0.1256024 -89.88 0.0001603116    1.064    0.060
        66 -12.4035     35.4080    229.6622   1.3982642825e+02   2.2601579445e+01    0.3000846    0.1966036  78.53 0.0006678501    1.302    0.232
        67 -10.8856     85.9533    237.6893   1.3025089278e+02   1.4322824274e+01    0.2132516     0.170978 -84.13  0.000481604    1.330    0.248
        68 -15.9238     73.2358    151.0925   1.2202301149e+02   3.5765483344e+01     5.814245     3.091619  79.51    0.0126057    3.512    0.715
