#   1 NUMBER                 Running object number                                     
#   2 MAG_AUTO               Kron-like elliptical aperture magnitude                    [mag]
#   3 X_IMAGE                Object position along x                                    [pixel]
#   4 Y_IMAGE                Object position along y                                    [pixel]
#   5 X_WORLD                Barycenter position along world x axis                     [deg]
#   6 Y_WORLD                Barycenter position along world y axis                     [deg]
#   7 A_WORLD                Profile RMS along major axis (world units)                 [deg]
#   8 B_WORLD                Profile RMS along minor axis (world units)                 [deg]
#   9 THETA_WORLD            Position angle (CCW/world-x)                               [deg]
#  10 FWHM_WORLD             FWHM assuming a gaussian core                              [deg]
#  11 ELONGATION             A_IMAGE/B_IMAGE                                           
#  12 ELLIPTICITY            1 - B_IMAGE/A_IMAGE                                       
         1 -13.5371    215.2250     13.7699   5.5154516764e+01   2.9439645179e+01     1.222685    0.9181744  38.49  0.006722401    1.579    0.367
         2 -13.0786    198.9546     32.4647   6.2216471310e+01   3.1342405879e+01     1.460321    0.9737381  50.28  0.007211495    1.474    0.321
         3 -11.9610      2.2364      4.5089   1.0803994452e+02   7.0800263618e+01    0.5604896    0.2484832 -39.03  0.003643141    1.617    0.382
         4 -10.8041     14.7582     12.8852   1.0576190837e+02   6.8694595173e+01    0.1629484    0.1379466  47.72 0.0008852868    2.075    0.518
         5 -12.0984    138.9240    248.8382   1.2056134315e+02   6.4125317607e+00    0.5261437    0.2949647 -65.80  0.003017059    2.379    0.580
         6 -12.3105    126.8862    245.4781   1.2223532477e+02   8.8921220434e+00    0.4783539    0.3678748   8.56  0.002861512    2.493    0.599
         7 -10.3257     93.1963    250.3875   1.2832056886e+02   1.3318569091e+01    0.1704999    0.1145496  58.40 0.0007804291    1.122    0.109
         8 -14.6788    107.5712    229.6421   1.2384027558e+02   1.4578891049e+01     7.752841    0.2794235  47.93   0.01416621   15.052    0.934
         9  -9.4309     80.6647    249.6983   1.3026508329e+02   1.5222589095e+01   0.09160491   0.08371911  41.17  0.000363474    1.660    0.398
        10 -10.9718     46.0478    248.3567   1.3549890895e+02   1.9961353249e+01    0.3080539    0.1468085  70.19   0.00195398    1.804    0.446
        11 -11.1851    108.9926    246.4126   1.2535271654e+02   1.1578722069e+01    0.3490403     0.132112 -64.99   0.00168358    3.327    0.699
        12 -10.9668     54.1013    239.5375   1.3365897253e+02   2.0450149043e+01    0.1958983    0.1326171  50.13 0.0007521458    1.418    0.295
        13  -8.6926    152.7037    213.0234   1.1339963720e+02   9.7308549798e+00    0.1671003    0.1508276  62.88  0.000374374    1.086    0.079
        14 -11.5007     57.7846    195.1155   1.2922244570e+02   2.8187656714e+01    0.2821056    0.2174283 -55.50 0.0006121612    1.630    0.386
        15  -9.5087    192.0082    193.0504   1.0250615024e+02   5.5908693682e+00    0.3340392    0.1770429 -63.84  0.001150335    4.424    0.774
        16 -13.7306      9.2234    207.7345   1.3861086433e+02   3.1090229479e+01     1.641623     1.351028 -31.27   0.01267387    2.443    0.591
        17  -8.8086    112.9979    193.4953   1.1831901151e+02   2.0343131364e+01    0.1742148    0.1151667  21.47 0.0008106402    2.617    0.618
        18 -11.7031     64.1261    187.3550   1.2720068695e+02   2.8926422083e+01    0.2420398    0.2199805 -71.19 0.0005049391    1.343    0.255
        19  -8.6002    120.3798    188.2704   1.1606687507e+02   2.0100937183e+01    0.1249709    0.1050919  14.38 0.0006994579    1.693    0.409
        20 -10.7710     74.7823    175.1318   1.2360381235e+02   3.0004384974e+01    0.2253735    0.1858483 -81.98 0.0003489766    1.091    0.083
        21 -13.1425     61.4123    172.6379   1.2604178844e+02   3.2311806355e+01    0.4669724    0.2522524 -48.67  0.002202765    2.307    0.566
        22 -11.6590     82.6297    166.0578   1.2070576027e+02   3.0799309246e+01    0.5533231    0.4349338 -58.73  0.003383575    1.313    0.238
        23 -12.6473     29.6428    227.8731   1.3666681991e+02   2.5364460069e+01    0.2491521    0.2004536 -83.18 0.0007415594    1.388    0.280
        24  -9.9753     96.0880    150.5607   1.1524669464e+02   3.2078436967e+01    0.2747404    0.2387285  58.76 0.0007639313    1.146    0.128
        25 -11.9046     84.4544    149.7055   1.1778043041e+02   3.4062952084e+01    0.2769814     0.221782 -53.38 0.0005536028    1.293    0.226
        26 -14.1566     35.4465    220.4072   1.3524395806e+02   2.6053634609e+01     0.816396    0.6523865 -82.97  0.003725522    1.329    0.248
        27  -8.6454    134.2706    148.6290   1.0610190807e+02   2.5658811636e+01    0.1486933    0.1106815 -88.89 0.0006997678    1.673    0.402
        28 -12.2011     67.3731    143.7383   1.2077712112e+02   3.7754490966e+01    0.6619159    0.4007208  65.01  0.003174386    1.925    0.481
        29  -9.3797    108.5937    136.2544   1.0962474106e+02   3.3103587487e+01    0.2971827    0.2122077  -5.58  0.001310072    2.552    0.608
        30 -10.3901     95.4940    133.4490   1.1224995850e+02   3.5923347019e+01    0.2425965    0.2169671 -34.95 0.0007479559    1.282    0.220
        31 -10.3587     50.3162    130.0137   1.2269129755e+02   4.2821344862e+01    0.2179162    0.1658979  58.56 0.0007678822    1.415    0.293
        32  -9.0630    105.9804    123.2528   1.0755275607e+02   3.6397804612e+01    0.1807336    0.1738873  63.30 0.0002267337    1.078    0.072
        33  -8.8210     99.1690    146.8290   1.1387420418e+02   3.2391956627e+01    0.1755359    0.1577779 -38.28 0.0003459355    1.307    0.235
        34 -10.1183    167.3964    112.4532   9.0228743361e+01   2.5982907202e+01    0.3076773    0.2619958 -85.24 0.0007412428    1.377    0.274
        35  -8.8300    203.4992    111.5291   8.2477642459e+01   1.7625632723e+01    0.1520504    0.1470444  19.43  4.85541e-05    1.040    0.038
        36 -15.2185      6.6827    145.0959   1.3434467830e+02   4.3613595478e+01     5.664926     1.392769 -77.71   0.02134756    4.254    0.765
        37 -11.1151     61.9386    244.8875   1.3283063457e+02   1.8544531086e+01    0.2826589    0.1702563  76.04  0.001004217    1.388    0.279
        38  -9.0309    159.3063     78.3126   8.2805791531e+01   3.4338339652e+01    0.1555686    0.1191484  15.46 0.0003945502    1.620    0.383
        39 -11.3878    101.7399    248.2337   1.2673130248e+02   1.2394657687e+01    0.2558007    0.1866453  84.42  0.001814086    1.320    0.243
        40 -11.0929    248.7595    248.3304   1.0171981257e+02  -1.1735980001e+01    0.2591125    0.1936655  37.45  0.001714878    1.277    0.217
        41 -11.2018    236.6572    249.3006   1.0388515976e+02  -9.9589877982e+00    0.3007105    0.1269009  33.53    0.0015417    2.020    0.505
        42 -14.4512     13.3940    241.3474   1.3985378390e+02   2.4772410579e+01     3.679289     2.977466 -59.09   0.03123418    2.053    0.513
