#   1 NUMBER                 Running object number                                     
#   2 MAG_AUTO               Kron-like elliptical aperture magnitude                    [mag]
#   3 X_IMAGE                Object position along x                                    [pixel]
#   4 Y_IMAGE                Object position along y                                    [pixel]
#   5 X_WORLD                Barycenter position along world x axis                     [deg]
#   6 Y_WORLD                Barycenter position along world y axis                     [deg]
#   7 A_WORLD                Profile RMS along major axis (world units)                 [deg]
#   8 B_WORLD                Profile RMS along minor axis (world units)                 [deg]
#   9 THETA_WORLD            Position angle (CCW/world-x)                               [deg]
#  10 FWHM_WORLD             FWHM assuming a gaussian core                              [deg]
#  11 ELONGATION             A_IMAGE/B_IMAGE                                           
#  12 ELLIPTICITY            1 - B_IMAGE/A_IMAGE                                       
         1 -10.8539    194.5246     38.8291   6.7831028041e+01   3.2168218123e+01    0.7282321     0.292337 -51.07  0.002861297    2.771    0.639
         2 -12.0950    217.4661     29.0107   6.2672237831e+01   2.8055281774e+01     0.746305    0.5287105 -80.90  0.003049886    1.295    0.228
         3 -11.1743     66.8273     20.9014   9.0149226223e+01   6.2143799396e+01    0.9028397    0.5662227 -33.60  0.005257644    1.724    0.420
         4 -12.1749     76.5255     31.5333   9.1075506371e+01   5.9228748011e+01     1.067015    0.6256582  20.42  0.005510379    1.913    0.477
         5 -11.5144     50.3710     10.2593   9.1534948835e+01   6.5857330368e+01    0.3273408    0.2752957  11.12  0.001613882    1.172    0.147
         6 -10.5448     25.8116     14.3666   1.0321787767e+02   6.8493127165e+01    0.2052733    0.1572949  24.80 0.0009226233    1.471    0.320
         7 -12.0969     23.4045      3.9976   9.9707023076e+01   6.9995121850e+01    0.9018875    0.3662038  32.50  0.004693815    2.352    0.575
         8 -12.0987     29.5385     24.9255   1.0593978053e+02   6.6682640026e+01    0.9853617    0.2586136 -36.76  0.004144612    3.421    0.708
         9 -11.4948      8.7794     19.5682   1.1302914292e+02   6.9346989041e+01    0.6699063    0.2733776  21.99  0.003851335    2.530    0.605
        10 -11.3636     40.8388     21.6101   9.9965067291e+01   6.5820628209e+01     0.497659    0.1568256 -35.80  0.001567625    2.969    0.663
        11 -12.0868     43.3942     15.7255   9.6513074050e+01   6.6218536379e+01     1.032453     0.558848  47.42  0.005663815    2.599    0.615
        12 -11.7178     13.4539      8.5317   1.0629948047e+02   7.0456439703e+01    0.3802489    0.2650004   3.84  0.002025217    1.200    0.167
        13 -10.6144     11.8224     25.8286   1.1400814847e+02   6.8180945309e+01    0.6323857    0.2578481 -20.43  0.002905727    3.318    0.699
        14 -13.2483      4.3062     10.3769   1.1146074527e+02   7.0977839265e+01    0.7852432     0.359878 -41.09  0.003797729    1.886    0.470
        15 -12.2598    132.4125     22.8788   7.3723018701e+01   4.8845625648e+01     1.364825     1.021169 -76.09   0.00591675    1.729    0.422
        16 -12.6655    133.0005      4.0126   6.7764547645e+01   5.0484983306e+01    0.8370185    0.3415309  58.50  0.003307801    1.934    0.483
        17 -11.7468    117.2015     15.4454   7.4468104502e+01   5.2982301748e+01    0.2752616    0.2590728  89.51 0.0002348983    1.240    0.194
        18 -11.3277    122.9046      2.7476   6.9171881065e+01   5.2840318610e+01    0.5932462    0.2114876  46.74   0.00262236    2.388    0.581
        19 -11.9149    112.7305      7.9315   7.2899639529e+01   5.4626709240e+01    0.9003267     0.307452  62.92   0.00363688    2.885    0.653
        20 -12.4824    112.4824     22.3715   7.7855803197e+01   5.3302042592e+01    0.6341513    0.5144299  72.88  0.001937725    1.416    0.294
        21 -11.8059    111.9959     16.8700   7.6096322892e+01   5.3965636081e+01    0.5098137      0.25455 -21.13  0.002119889    2.307    0.567
        22 -13.7474    100.4576      6.4644   7.5119277906e+01   5.7319422616e+01     0.664534    0.5067961 -36.70  0.002135215    1.591    0.372
        23 -12.3622     93.2078      8.2922   7.7545874697e+01   5.8620222123e+01    0.4989176    0.3315872  43.01  0.002724664    1.252    0.201
        24 -11.3199    147.7998     25.8853   7.1724805958e+01   4.4954669514e+01    0.6824258    0.4348639  20.20  0.003124121    2.241    0.554
        25 -11.3575    153.0784     27.8782   7.1369244578e+01   4.3482509484e+01    0.4362066    0.2528321 -20.71  0.002113038    2.154    0.536
        26 -10.8968    240.5865     13.4507   5.7178434456e+01   2.4821818462e+01    0.4918821     0.170346  69.28  0.001646428    2.569    0.611
        27 -11.1885    210.8525     13.7314   5.9979773252e+01   3.1393716393e+01    0.4382464    0.3088847 -87.28  0.002642027    1.237    0.192
        28 -11.1543    201.2774     19.2507   6.2268979720e+01   3.2988111571e+01    0.6011255    0.3553963  73.41  0.002362815    1.491    0.329
        29 -10.6878    208.8953     17.6830   6.1066984008e+01   3.1396790070e+01    0.4497586    0.2183744 -80.72  0.001951752    2.595    0.615
        30 -11.7003    220.8451     12.2473   5.8679357948e+01   2.9292753707e+01    0.7701246    0.2838939  73.87   0.00340312    2.477    0.596
        31 -12.0715    231.7638      9.5955   5.7152444771e+01   2.7173870916e+01    0.5760611    0.3724396 -88.68  0.002293999    1.322    0.243
        32  -9.7733    224.2632      8.5884   5.7599146670e+01   2.8937727152e+01    0.2347706    0.1553353  70.88 0.0007278707    1.379    0.275
        33  -9.9349    247.3578     17.1952   5.7349907940e+01   2.2937029225e+01    0.3597349    0.1401444 -37.68  0.001730217    2.477    0.596
        34  -9.6397    204.3802      6.7954   5.9090533331e+01   3.3626287925e+01    0.1419655     0.121852 -16.20 0.0003436711    1.594    0.373
        35 -11.4369    208.6983      3.7488   5.7996450714e+01   3.2952654667e+01    0.4790538    0.3028703  89.14  0.002810598    1.377    0.274
        36 -11.4361    200.3048      5.9341   5.9309809270e+01   3.4653417558e+01    0.6043788    0.3005035 -48.13  0.002796273    1.998    0.499
        37  -9.4020    187.5231     14.5126   6.2759852604e+01   3.6748039082e+01    0.3076434    0.1781498  63.44  0.001171405    1.508    0.337
        38 -10.0594    187.8585      9.6076   6.1528903096e+01   3.7179542655e+01     1.103619    0.6437309  -6.69   0.00524462    3.038    0.671
        39  -9.8530    193.0462      6.7715   6.0270341010e+01   3.6252439088e+01    0.2537225    0.1190959  64.92 0.0006652046    1.797    0.444
        40 -10.8886    150.1293     15.8382   6.8399070340e+01   4.5466862554e+01    0.4797737    0.3097476  30.88  0.002525687    1.889    0.471
        41 -10.3202    147.0178     12.0538   6.7813922661e+01   4.6560187628e+01    0.3103598    0.2086422 -68.17  0.001672735    1.854    0.461
        42 -11.2212    130.7102     14.0113   7.1276384390e+01   5.0121269039e+01     1.788134    0.1568723  49.87  0.004751862    6.008    0.834
        43 -10.7810    163.7169      5.6005   6.3536162130e+01   4.3246478088e+01    0.4916745    0.3266563  -7.12  0.002736583    2.107    0.525
        44 -10.8741    170.1795     14.0604   6.4891255899e+01   4.0906761986e+01    0.3559983    0.1836305 -46.02  0.001345356    2.103    0.525
        45 -11.4481    165.4107     11.7267   6.4936601192e+01   4.2269481199e+01    0.4577747    0.2893584 -74.32  0.002068029    1.861    0.463
        46 -10.4022    167.9832      7.7029   6.3519789815e+01   4.2048644603e+01    0.1974595    0.1703479 -73.80  0.000326813    1.181    0.153
        47  -8.8090    168.5104      4.4977   6.2614424701e+01   4.2221324408e+01    0.3611639    0.2147178 -54.81  0.001948548    1.880    0.468
        48 -10.8304    123.1875     10.0112   7.1455594227e+01   5.2169241598e+01    0.3369577    0.2057031  58.37 0.0009954453    1.396    0.284
        49 -10.1613    250.3212      9.6293   5.5668199232e+01   2.3217440795e+01    0.2077264    0.1600853 -30.23 0.0007973329    1.732    0.423
        50  -9.4299    151.3867      9.7321   6.6453641749e+01   4.5757955251e+01     0.158306    0.1224246   2.78  0.000938678    1.657    0.396
        51  -9.4651     77.4484      4.5128   8.0323305569e+01   6.1938330892e+01    0.2331377    0.1217509  24.48 0.0009761784    2.010    0.502
        52 -10.7702     77.2056      9.2158   8.2254240129e+01   6.1565414341e+01    0.2907858    0.1984401  32.58  0.001006825    1.229    0.186
        53 -11.2278     82.7028      5.9664   7.9427035223e+01   6.0843447937e+01    0.4947937    0.2374806 -26.42  0.001784595    2.238    0.553
        54 -11.2767    156.5736      4.7658   6.4299454961e+01   4.4993901247e+01    0.4796025    0.3479836  52.41  0.002420565    1.276    0.216
        55 -11.4997     67.8370      5.1504   8.3443880027e+01   6.3580181132e+01     0.601549    0.2600489  36.63  0.002743433    2.018    0.505
        56 -11.2574     60.3582      4.1201   8.5416493533e+01   6.4918459726e+01    0.4039274      0.21519  24.55  0.001879761    1.799    0.444
        57 -11.7743     55.4367      2.8178   8.6520785377e+01   6.5820720962e+01    0.3333298    0.2169311  31.99 0.0008723594    1.276    0.216
        58  -9.7356    180.6571      5.2982   6.1320475274e+01   3.9294736756e+01    0.2070782     0.161368 -58.70  0.001302202    1.321    0.243
        59 -10.3038    175.7230      4.2104   6.1639885871e+01   4.0554686043e+01    0.3714183    0.1534694  72.77  0.001057594    2.144    0.534
        60 -12.2817    246.7515      2.7839   5.4644912698e+01   2.4737349061e+01    0.4939422    0.2091272  65.56  0.001070689    2.223    0.550
        61 -10.2461    224.0222      2.0706   5.6277710532e+01   2.9692896643e+01     0.251269    0.1672502  56.31  0.001204447    1.710    0.415
        62 -10.5499    218.2613      1.3985   5.6629370322e+01   3.1039960245e+01    0.5022353    0.1601846  69.59  0.002212833    2.589    0.614
        63  -9.8548    145.0329      4.4791   6.5934729819e+01   4.7698427315e+01    0.1765099    0.1700689  77.19  0.001228632    1.145    0.127
        64 -11.9858     18.7026     13.4949   1.0601039547e+02   6.9327059365e+01    0.4410739    0.3032213   0.42  0.002503709    1.204    0.169
        65  -9.8855    216.2848      4.6734   5.7493306937e+01   3.1141705430e+01    0.1742751    0.1441505 -66.76 0.0008000683    1.154    0.133
        66  -9.5970    229.7363      1.3936   5.5673161089e+01   2.8513032481e+01    0.1584246   0.09417294  71.13 0.0008044316    1.504    0.335
        67  -9.6114    191.0745      1.3998   5.9224158531e+01   3.7234767754e+01    0.2437741    0.1038027  81.30  0.001084359    2.326    0.570
        68  -9.7027    183.2051      1.3460   6.0063574977e+01   3.9069372612e+01    0.1689411   0.09890345  82.60 0.0002667131    1.536    0.349
        69  -9.7338     44.9105      1.5608   8.9753568575e+01   6.7514856599e+01     0.154314   0.08952861  34.02            0    1.487    0.327
        70  -9.9478     97.8166    115.1552   1.1041584228e+02   4.0120843316e+01    0.2820037     0.186801  30.23  0.001286237    1.717    0.418
        71 -10.9726    201.3424    108.3781   8.3989747116e+01   1.8984950594e+01    0.4034616    0.1833791 -38.45  0.001514401    2.181    0.541
        72 -11.4068    194.8299    112.6881   8.6278424904e+01   1.9636352232e+01    0.3771226    0.3488793 -14.49  0.002002262    1.215    0.177
        73 -10.9582    200.3020    112.8349   8.5266426646e+01   1.8355152862e+01    0.3730641    0.2344764  60.76  0.001289209    1.750    0.429
        74 -10.7025    132.8346    111.4753   9.9942075916e+01   3.4032317616e+01     0.430867    0.3044266 -31.08  0.001922239    1.586    0.369
        75 -10.6377    133.9892    103.0145   9.7385579423e+01   3.5593805125e+01    0.5114409    0.1846521 -43.90  0.001680397    2.736    0.634
        76 -10.6022     67.2643    107.8709   1.1767289385e+02   4.6619638810e+01     0.603718    0.2474622 -35.18  0.001971959    3.810    0.738
        77 -11.6548    207.5668    112.5177   8.3843852152e+01   1.6771753279e+01    0.6214707    0.3213252 -51.04  0.001394983    1.977    0.494
        78  -9.5999     35.9857    109.0000   1.2749695969e+02   5.0012795764e+01    0.1856258   0.07532205  25.83 0.0004716334    2.945    0.660
        79 -10.6147     22.6062    108.3499   1.3142431535e+02   5.1336637768e+01    0.2883697    0.1947002 -29.81  0.001695123    1.653    0.395
        80 -10.8584    230.8015    105.1551   7.8197129027e+01   1.3042998035e+01    0.3148788    0.2521659 -43.76 0.0008423588    1.151    0.131
        81 -10.6971     48.8030    102.1847   1.2208380707e+02   5.0221659760e+01    0.2669188    0.1359525 -38.84  0.001000029    2.006    0.502
        82 -10.4227     28.1584    101.7528   1.2848102608e+02   5.2363898809e+01    0.3186748    0.2469173  81.34  0.001935477    1.614    0.380
        83 -10.0737    184.6037    101.3718   8.5462796688e+01   2.4239980717e+01    0.3627383    0.2454153   0.59  0.001354668    2.865    0.651
        84  -8.9858    105.7250    102.6469   1.0491991194e+02   4.1463867705e+01    0.1524449    0.1149351 -16.35 0.0007004487    1.642    0.391
        85  -9.3283     81.2052    102.3822   1.1206725211e+02   4.5792650565e+01    0.1943806     0.132563  47.41 0.0009443189    1.666    0.400
        86  -9.5912     75.5960    101.8380   1.1364009036e+02   4.6777512732e+01    0.2019998    0.1287677 -61.95 0.0007721026    1.705    0.413
        87 -10.7374      4.2833     99.6844   1.3547456918e+02   5.4527631225e+01     0.300937    0.1966731 -56.75  0.001750024    1.165    0.142
        88 -10.9573    177.6772     99.3457   8.6342180941e+01   2.6270407656e+01    0.3417371    0.2730645  32.39  0.001647971    1.464    0.317
        89 -11.5462    174.8308     96.6306   8.6222538159e+01   2.7471629658e+01    0.3919257    0.3801779  17.93  0.001294703    1.137    0.121
        90  -9.7192     34.3938     99.1441   1.2598033697e+02   5.2387283423e+01    0.1826606    0.1100123 -70.18  0.000772051    1.736    0.424
        91 -11.4180    158.4647     96.6744   8.9772338829e+01   3.1328075640e+01    0.4580424    0.3916333  78.39  0.001711362    1.266    0.210
        92 -11.0131     49.8139     97.7726   1.2074621049e+02   5.1090459703e+01    0.3038434    0.1675962 -28.35  0.001373321    2.301    0.565
        93 -10.5341    226.4282     95.7588   7.6732406886e+01   1.5683489150e+01    0.5029153    0.1557517 -43.10  0.001715215    2.875    0.652
        94  -9.7629     38.8896     96.8438   1.2404234091e+02   5.2463395313e+01    0.2060594     0.152087 -35.66  0.001218254    1.282    0.220
        95  -9.6393     45.9862     98.5023   1.2214025101e+02   5.1356405886e+01    0.1796647    0.1644898 -30.84 0.0008622755    1.108    0.097
        96 -10.4587    188.3080     94.0552   8.2879369648e+01   2.4760792430e+01    0.2794161    0.2543662  51.14 0.0008938054    1.156    0.135
        97 -10.1873    114.9988     95.5271   1.0036006312e+02   4.1157957197e+01    0.2299016    0.1477646  44.91 0.0006723155    1.592    0.372
        98 -10.6115    193.5730     92.1987   8.1423524248e+01   2.3859564556e+01    0.4711879    0.2956625 -38.43  0.002112419    1.595    0.373
        99 -11.0926    220.8546     92.2010   7.6777650165e+01   1.7554793458e+01    0.4056029    0.2448624 -70.33  0.001463386    2.213    0.548
       100 -10.8197     38.1752     91.8552   1.2314316291e+02   5.3626193972e+01    0.5113799    0.2566427  47.43  0.002341857    2.874    0.652
       101  -9.9260     33.6555     92.3265   1.2473456586e+02   5.3955633826e+01    0.2529099    0.1801792  33.69  0.001513205    1.666    0.400
       102 -10.6250    214.4551     89.4341   7.7145064632e+01   1.9495833800e+01    0.2673985    0.2014972 -51.08 0.0006417116    1.237    0.191
       103  -9.4693      3.1520     74.6253   1.3121949928e+02   5.9907007632e+01    0.1530866    0.1358212 -49.88 0.0007075931    1.175    0.149
       104 -10.8682      3.3271     88.8380   1.3391061772e+02   5.6929025212e+01    0.5226875    0.1911078 -47.97  0.002624869    2.070    0.517
       105 -10.5221      2.3253     83.6900   1.3328982478e+02   5.8073505939e+01    0.2104998    0.1645875 -65.90  0.001044989    1.175    0.149
       106 -11.2938      5.2293     80.8370   1.3177020733e+02   5.8511258984e+01    0.4286274    0.1463856 -53.05  0.002073358    2.013    0.503
       107 -11.3990    200.5057     89.9324   7.9612963386e+01   2.2640701028e+01    0.5824922    0.3261673  64.16  0.002025055    1.953    0.488
       108 -10.3523     88.0534     90.1475   1.0667666904e+02   4.7301626524e+01     0.362087    0.1996713 -42.58  0.001035149    1.715    0.417
       109  -9.4589    187.0125     89.9606   8.2079982052e+01   2.5830358461e+01    0.1837049    0.1718698 -66.26 0.0005985739    1.026    0.025
       110 -11.1616     52.0082     87.5842   1.1752014360e+02   5.3042989657e+01    0.5291549    0.3493999  14.39  0.002835134    1.804    0.446
       111 -10.6642     57.4395     85.2499   1.1510183006e+02   5.2868143953e+01    0.4456332    0.2703982   7.78  0.002116879    2.279    0.561
       112 -10.9513     14.3472     88.5527   1.3027658881e+02   5.6314287466e+01    0.3126752     0.243642  23.71  0.001388951    1.575    0.365
       113 -11.4521    154.3268     87.5977   8.8228197115e+01   3.4054398538e+01    0.5244839    0.2533777  58.51  0.001947163    2.302    0.566
       114 -10.9498    102.6180     80.5285   9.9520662497e+01   4.6598215245e+01     0.472939    0.2602541 -44.27  0.001669332    1.798    0.444
       115 -10.7226     98.1288     77.4658   9.9915892680e+01   4.8031336443e+01     0.299052    0.2568329  67.88  0.001166471    1.450    0.310
       116 -10.2692     42.3505     86.9400   1.2058108027e+02   5.4257389481e+01    0.2862386    0.1375958 -52.53  0.001382322    1.747    0.428
       117 -10.5496     18.0682     81.8366   1.2762107110e+02   5.7477537198e+01    0.2404862     0.176153 -13.51  0.001102279    1.502    0.334
       118 -12.0865     24.4937     83.2919   1.2575591331e+02   5.6681301325e+01    0.6269444    0.3823561 -80.03  0.003210766    2.352    0.575
       119 -11.3219     29.3003     80.7829   1.2351923734e+02   5.6803687091e+01    0.5830167    0.2515281 -58.38  0.002073128    2.050    0.512
       120 -11.1377    248.6727     84.1246   7.0993991747e+01   1.2941025360e+01    0.2900734    0.2186349 -75.79 0.0005658285    1.345    0.257
       121 -11.6787    240.2210     83.9881   7.2081883739e+01   1.4737171964e+01    0.7580888    0.4219544 -44.32  0.003520341    1.592    0.372
       122 -10.2143    237.5328     76.5140   7.0794262698e+01   1.6558567423e+01    0.2534604    0.2025279 -49.03 0.0007372345    1.149    0.130
       123 -10.7365    234.2923     73.3661   7.0525854102e+01   1.7779975506e+01    0.4202817    0.2468363 -50.74  0.001673548    1.543    0.352
       124 -10.6975    221.8649     84.6600   7.4862896627e+01   1.8650215192e+01     0.527758    0.3313993  79.26  0.002417055    1.936    0.483
       125 -11.1325    217.1219     82.7624   7.5142646354e+01   2.0054408109e+01    0.4053548    0.2755555 -40.29  0.001261903    1.428    0.300
       126 -11.2922    220.3442     75.4685   7.2947290590e+01   2.0554982486e+01    0.6358389    0.4547439  35.45  0.002920612    1.947    0.486
       127 -11.5271    107.0172     85.8759   9.9835660246e+01   4.4702855567e+01    0.7066386    0.4954254  41.59  0.003464084    1.451    0.311
       128 -10.8910    118.7939     86.3203   9.6689728792e+01   4.2236385738e+01    0.4574217    0.2234367  39.49  0.001515597    2.169    0.539
       129 -10.2385     82.2023     86.1425   1.0734696590e+02   4.9099559521e+01    0.3099321    0.1725674 -36.03 0.0008238554    1.818    0.450
       130  -9.6781    205.4444     86.0022   7.7799720751e+01   2.2188375146e+01    0.2245575    0.1381304 -41.40 0.0006818245    1.567    0.362
       131  -9.8629    186.2208     84.2306   8.0755358514e+01   2.7062418847e+01    0.2906188    0.2339975 -78.47  0.001033723    1.340    0.254
       132 -10.8365    188.5337     80.7023   7.9421463322e+01   2.7134714039e+01    0.4498705    0.3524094 -82.10  0.002249315    1.401    0.286
       133 -10.4281    192.3113     72.8817   7.6754289076e+01   2.7571831227e+01    0.4073772    0.3515513 -61.59   0.00222696    1.116    0.104
       134 -10.2022    140.4533     84.4352   9.0586726623e+01   3.7862761057e+01    0.2797531    0.1346381 -50.49  0.001031106    2.377    0.579
       135 -10.0382     75.5088     83.6211   1.0874340756e+02   5.0671410032e+01    0.3960043    0.2075965 -34.27  0.001420952    2.027    0.507
       136  -9.8193    229.2938     83.3942   7.3475012633e+01   1.7209388761e+01    0.2476328    0.1680472 -32.54 0.0009069418    1.597    0.374
       137  -9.7290    181.9808     83.6758   8.1411249807e+01   2.8179386929e+01    0.2085249    0.1846638  73.21 0.0004160597    1.111    0.100
       138 -10.1267    188.8132     75.7833   7.8106918951e+01   2.7920893832e+01    0.3321523    0.2222874 -75.16   0.00116866    1.886    0.470
       139 -10.2442    159.9219     81.2547   8.5236278813e+01   3.3906613351e+01    0.3672288     0.246467  60.32  0.001024254    1.521    0.342
       140 -11.1235    135.0534     80.5663   9.0793506836e+01   3.9806825282e+01    0.4345572    0.2235886 -31.76  0.001685063    2.233    0.552
       141 -10.9813    138.3605     77.2052   8.9005207750e+01   3.9673227602e+01    0.2434041    0.1849934  34.02  0.000510251    1.410    0.291
       142  -9.6485     40.4960     82.0440   1.1998105886e+02   5.5479235704e+01    0.1979322    0.1079336 -51.70 0.0006495052    1.555    0.357
       143  -9.2547     62.8698     79.3236   1.1164908793e+02   5.3369887246e+01    0.5041828    0.3404733  82.64  0.002066709    3.613    0.723
       144  -9.7588     58.3746     77.1906   1.1255312929e+02   5.4394526403e+01    0.2153724    0.1753417  -2.10 0.0006605074    1.268    0.211
       145 -11.8436     59.1772     69.8072   1.1010597563e+02   5.5730087609e+01    0.6602653    0.4712279 -27.19  0.003769693    1.316    0.240
       146  -9.2491    226.2858     79.6125   7.3044240703e+01   1.8518874847e+01    0.1534302   0.09644378 -65.65 0.0007008089    1.749    0.428
       147 -10.1839    176.9736     77.6964   8.0795310792e+01   3.0445058985e+01    0.4274763    0.2482585 -54.99  0.001796554    1.930    0.482
       148 -11.0659    171.9830     71.6227   8.0128800354e+01   3.2693960950e+01    0.5393991     0.361686  87.90  0.002360104    1.976    0.494
       149 -10.8838    167.9253     76.8482   8.2352746408e+01   3.2774993910e+01    0.5783471    0.3460422  75.57  0.002312304    2.266    0.559
       150 -11.1822     68.3477     76.0191   1.0886220003e+02   5.3256582891e+01    0.4117692     0.294205 -39.50  0.001272236    1.271    0.213
       151  -9.2667     43.5045     78.4788   1.1801536892e+02   5.5897926500e+01    0.1310872    0.1060273 -33.23 0.0002803451    1.065    0.061
       152  -9.6620    197.9987     77.7219   7.7007050178e+01   2.5390194106e+01    0.2916536    0.1469348  62.12  0.001190586    2.049    0.512
       153  -9.7127     36.7186     76.2455   1.1979157122e+02   5.7050009522e+01    0.2764179    0.1025344 -39.52  0.001158901    2.574    0.612
       154  -9.9419    250.1713     74.1600   6.8683461798e+01   1.4261226165e+01    0.2535095    0.1602083 -59.60 0.0004413947    1.472    0.321
       155 -11.6783    250.2062     67.3181   6.7236878190e+01   1.5339730389e+01    0.7658091    0.2091232 -35.37  0.002496129    4.112    0.757
       156 -10.5542    250.2373     59.0864   6.5513478119e+01   1.6601256486e+01    0.3229078    0.1934651 -46.25  0.001729981    1.460    0.315
       157 -11.4002    244.5637     54.9771   6.5284569501e+01   1.8420075572e+01    0.6250114     0.444222 -77.08  0.003594014    1.329    0.248
       158 -11.7958    234.7962     56.7823   6.6802596466e+01   2.0272490133e+01     0.614971    0.3363272  59.15    0.0027755    1.892    0.471
       159 -11.1251    237.6724     51.7018   6.5365529411e+01   2.0396742507e+01    0.3289476    0.2743487  53.60  0.001723882    1.466    0.318
       160 -11.8252    233.7642     47.1318   6.4824945295e+01   2.1921103200e+01    0.4972295    0.3293817 -62.37  0.001189537    1.382    0.276
       161 -12.3364    124.5001     70.0829   9.0335598167e+01   4.4022663850e+01    0.6246464    0.4875816 -61.61  0.003099805    1.549    0.355
       162  -9.7528    126.5032     64.0119   8.7967226364e+01   4.4610961247e+01     0.303585    0.1969726   6.31 0.0008553215    2.526    0.604
       163 -11.4321     82.0331     74.9759   1.0410121054e+02   5.1336156147e+01     0.216475    0.1976393 -14.72  0.001294686    1.007    0.007
       164 -10.0979    144.4923     75.4974   8.7057670571e+01   3.8569053188e+01    0.1471805    0.1436605  58.37 0.0008106432    1.001    0.001
       165 -10.7407     19.1752     72.7990   1.2514769559e+02   5.9256417406e+01    0.3524202    0.2087679 -21.82  0.002026915    1.829    0.453
       166 -10.6562    214.7548     71.7834   7.2903573314e+01   2.2449139115e+01    0.3599098    0.2997534   1.53  0.001687108    1.734    0.423
       167 -10.7376    151.0123     72.1911   8.4629085097e+01   3.7620328488e+01    0.3674176    0.2396008  57.86  0.001132882    1.524    0.344
       168 -11.4518    115.9143     69.8274   9.2519993563e+01   4.5900286391e+01      0.54638    0.3169537 -35.91  0.002470702    1.760    0.432
       169 -10.8234     51.7747     71.2566   1.1311192816e+02   5.6391947486e+01    0.2723351    0.2211114  18.35 0.0007623837    1.308    0.236
       170 -10.9707     32.6888     70.3186   1.1964815836e+02   5.8622489139e+01    0.4774185    0.2438047 -37.89   0.00250566    1.723    0.420
       171 -10.2191     46.8170     68.4274   1.1403512027e+02   5.7523553768e+01    0.2677402    0.1713834 -45.09  0.001273485    1.370    0.270
       172 -10.8612     26.4855     65.0896   1.2049588871e+02   6.0198788656e+01    0.7730201    0.2424895 -33.43  0.002608791    4.746    0.789
       173 -10.4524     42.2239     69.0146   1.1584941376e+02   5.7920404032e+01    0.3509963    0.3166386  -7.16   0.00194834    1.152    0.132
       174 -11.1018     36.2277     56.4624   1.1431649426e+02   6.0902491890e+01    0.3934335    0.2905678  10.54  0.002538855    1.399    0.285
       175 -11.4876     36.6747     63.7992   1.1635912126e+02   5.9498320846e+01    0.6500856    0.4816932  33.13  0.004109332    1.606    0.377
       176 -10.4969     32.3179     62.0384   1.1746356674e+02   6.0256638884e+01    0.2997089    0.1663394 -47.77 0.0008479075    1.525    0.344
       177  -9.9599    226.3645     69.4977   7.0721209188e+01   2.0169167417e+01     0.388137    0.1219594 -38.25   0.00137612    3.002    0.667
       178 -10.1454    202.3323     70.0792   7.4398075043e+01   2.5643499367e+01    0.2810468    0.2340202 -55.93  0.001233782    1.143    0.125
       179  -8.5827    198.5149     70.5130   7.5119944368e+01   2.6480649700e+01    0.2395768    0.1374256  59.71 0.0006694027    1.715    0.417
       180 -10.7880    101.9617     70.3827   9.6604785171e+01   4.8610973782e+01     0.284673    0.2491203 -80.34 0.0009262133    1.490    0.329
       181 -10.1314      5.8942     71.1187   1.2950316496e+02   6.0465712182e+01    0.1581363    0.1366343 -64.58 0.0002990295    1.259    0.205
       182 -10.9896    133.1966     68.1538   8.7575124026e+01   4.2426144948e+01    0.4270996     0.336897  73.37  0.002163758    1.485    0.326
       183 -11.1089    140.7446     67.9129   8.5709246968e+01   4.0744669593e+01    0.5340953    0.2981761  56.05  0.002305521    1.790    0.441
       184 -10.4902    179.8466     68.8110   7.7899122804e+01   3.1258660887e+01    0.5015255    0.1816975  53.46  0.001786436    2.620    0.618
       185 -10.2931    158.2691     57.9603   7.9033147397e+01   3.8206367552e+01    0.4300865     0.268991  21.54  0.001734899    2.677    0.626
       186 -10.9987    153.9038     44.2917   7.5964298488e+01   4.1229781783e+01      0.59448    0.3221816  52.98  0.002734029    1.683    0.406
       187 -11.0249    162.2743     68.1405   8.1096083405e+01   3.5618929053e+01    0.6253312    0.4237356  43.04  0.002955765    1.552    0.356
       188 -11.6099    160.1580     50.1370   7.6444335124e+01   3.8913717795e+01    0.5577289    0.4208563 -79.76  0.001949107    1.556    0.357
       189 -11.1790    165.0391     62.6973   7.9029767224e+01   3.5835885244e+01    0.5549133    0.2605701  51.97  0.002251825    2.021    0.505
       190 -11.5911    166.0206     56.3406   7.7076618611e+01   3.6584270181e+01    0.6332723    0.5241041 -59.75  0.003448764    1.261    0.207
       191  -9.8707     79.8098     69.3828   1.0308089059e+02   5.2749474269e+01    0.1885173    0.1226201  23.86 0.0008894451    1.693    0.409
       192  -9.1881     75.3034     69.6416   1.0462499963e+02   5.3423691686e+01    0.1285655    0.1090572 -81.35 0.0003012787    1.720    0.418
       193  -9.5636     69.1719     69.1950   1.0651721138e+02   5.4441778733e+01    0.1652349    0.1606391  89.01 0.0004954702    1.325    0.245
       194 -11.6096    151.9268     66.4995   8.2794822143e+01   3.8362040506e+01    0.6854032    0.2678491  45.04  0.001790663    2.694    0.629
       195 -11.1845    148.2108     64.2198   8.2940955055e+01   3.9612632644e+01    0.5286853    0.3382961  89.49  0.002119829    2.587    0.613
       196 -11.1862    109.8421     66.7069   9.3209634481e+01   4.7694168837e+01     0.381133    0.2475906  -4.73  0.001638581    2.321    0.569
       197  -9.6184    111.2184     62.5650   9.1519295435e+01   4.8112193394e+01    0.1927068    0.1262501  34.82 0.0003066707    1.561    0.359
       198 -10.6655    205.2254     65.5213   7.2830634186e+01   2.5696278430e+01    0.3081621    0.2368922  84.71 0.0008328503    1.303    0.232
       199  -9.3517     92.4935     66.5294   9.8202578057e+01   5.1071255343e+01    0.1419065    0.1234419  -0.59 3.988817e-06    1.118    0.106
       200 -10.2393    234.4186     63.4110   6.8303717858e+01   1.9339119600e+01    0.2625732    0.1946759 -44.23  0.001035019    1.291    0.226
       201 -10.0379    190.0888     64.9801   7.5112425711e+01   2.9403266553e+01    0.2219103    0.2066818  72.12  0.000899907    1.085    0.078
       202 -11.1088    185.3738     60.5677   7.4765657945e+01   3.1240373663e+01    0.3501695    0.2195685 -68.12    0.0013729    1.972    0.493
       203 -10.6332     10.6536     63.4096   1.2595688647e+02   6.1704437871e+01    0.3170555    0.1680243 -61.54  0.001506494    1.783    0.439
       204  -9.9320     53.9021     62.5271   1.0971232936e+02   5.7774604468e+01    0.4127101    0.2047871 -55.41  0.001860093    2.521    0.603
       205 -10.3180     57.4126     60.5571   1.0783940642e+02   5.7674404184e+01    0.2683651    0.2396914  35.57  0.001743233    1.351    0.260
       206 -10.7720    211.9409     54.4131   6.9193590107e+01   2.5832661002e+01    0.7058626     0.292122 -62.75  0.002196394    4.380    0.772
       207 -10.9451    221.8135     57.5096   6.8592314161e+01   2.3081034295e+01    0.7606018    0.3990218 -57.63  0.003434308    1.981    0.495
       208 -10.7014    215.9922     60.2548   7.0010111552e+01   2.4001001911e+01    0.4425415    0.2603583  63.24  0.001319868    1.672    0.402
       209 -11.4986     67.3099     61.9924   1.0486387579e+02   5.6029776625e+01    0.2836039     0.240358   4.29 0.0007340801    1.123    0.109
       210 -11.2352     16.1367     61.1787   1.2332046985e+02   6.1763542301e+01     0.410761    0.1968221  20.31  0.001632248    2.385    0.581
       211 -12.3867     20.0790     57.7641   1.2088138891e+02   6.2114988585e+01    0.4340416      0.24485 -60.54 0.0004038609    1.924    0.480
       212 -10.2665     97.9890     61.9580   9.5083829690e+01   5.0835519922e+01    0.2109461     0.190218  -4.59  0.000542078    1.051    0.048
       213 -10.5455    178.0343     60.1357   7.5919334386e+01   3.3088096313e+01    0.5473178    0.3361049 -19.74  0.001315558    2.292    0.564
       214 -10.7784    171.4910     49.3622   7.4167372498e+01   3.6284440689e+01    0.5215518       0.1705 -36.12  0.001807826    3.085    0.676
       215 -12.2867    185.8750     46.9185   7.1148336068e+01   3.3143256545e+01    0.6967312    0.6705588  12.38  0.001863924    1.262    0.208
       216 -11.8133    181.1750     38.6071   6.9719748698e+01   3.5410513892e+01    0.7410737    0.4129415  78.23   0.00288554    1.964    0.491
       217 -10.9564    174.0303     57.4760   7.5917987479e+01   3.4469829569e+01    0.3837527    0.2762335 -22.48  0.001083876    1.695    0.410
       218 -11.6880    175.8050     52.9777   7.4394931715e+01   3.4712885594e+01    0.4686871    0.4182007 -53.58  0.001845031    1.148    0.129
       219  -9.7164     79.5509     61.0582   1.0049097086e+02   5.4275274355e+01    0.2705713    0.1627611  55.98  0.001232964    2.459    0.593
       220 -11.0330    200.8941     59.2733   7.1956820047e+01   2.7706096476e+01    0.6012198    0.3544882 -88.94  0.002568453    2.247    0.555
       221 -11.4475    202.2604     36.2330   6.6161350267e+01   3.0669616421e+01    0.6086364    0.4031098  87.09  0.003208026    1.497    0.332
       222 -10.1436    191.6986     26.4330   6.5155287280e+01   3.4409401561e+01    0.2867436     0.183719 -27.89   0.00101403    1.863    0.463
       223 -11.0717    200.9712     48.0681   6.9196556285e+01   2.9352445237e+01     1.050715    0.2164494 -38.87  0.003284849    4.157    0.759
       224 -12.0294    206.5163     43.2604   6.7280581937e+01   2.8714901360e+01    0.5026638     0.490407  67.41  0.003210452    1.240    0.194
       225 -10.1301    142.0170    243.4891   1.2369699927e+02   3.4697804508e+00    0.1797893     0.108731  20.86 0.0007779063    2.477    0.596
       226 -11.0257    194.4764     30.8092   6.5864913916e+01   3.3213079686e+01    0.3827613    0.3245176  49.29  0.001585161    1.340    0.254
       227  -9.3150     46.4459     59.7664   1.1153984091e+02   5.9186089005e+01    0.1840475   0.09807213 -35.77 0.0009453517    1.681    0.405
       228  -9.8729    191.6334     58.7691   7.3273225266e+01   3.0005388744e+01    0.3116395    0.2437905  71.64  0.001671364    1.218    0.179
       229  -9.6193    138.9815     58.9461   8.3438179825e+01   4.2604427518e+01    0.2159674    0.1709293 -70.21  0.001006713    1.549    0.354
       230  -9.5863     85.4704     59.5203   9.8096270980e+01   5.3530002941e+01    0.1359092    0.1207346  -1.70 2.875974e-05    1.025    0.025
       231 -10.3293      3.4468     58.0284   1.2734370436e+02   6.3168659441e+01    0.2437754    0.1845898  89.74   0.00161335    1.998    0.500
       232 -11.6326    120.9810     54.2031   8.6284603263e+01   4.7372589989e+01    0.7838897    0.5570244  75.04  0.003796806    1.916    0.478
       233 -10.8766     85.8247     52.1605   9.5512305445e+01   5.4664694489e+01    0.4318362    0.2900558  -2.47  0.001583693    1.827    0.453
       234 -11.2650    100.0436     55.1710   9.2257619415e+01   5.1545217035e+01    0.3939303    0.2769305  26.56  0.001502298    1.478    0.323
       235  -9.2481     76.2705     56.8600   1.0016823173e+02   5.5526219186e+01    0.3457035    0.1937259   6.01  0.001340882    3.329    0.700
       236 -10.7860     12.4916     56.4558   1.2345037681e+02   6.2911645244e+01    0.3097235    0.1820509  28.61  0.001921184    2.058    0.514
       237 -10.6301     88.2623     55.9618   9.6041225657e+01   5.3623548450e+01    0.2033255    0.1880149  20.10 0.0004980558    1.102    0.092
       238 -11.4936    140.9819     51.3906   8.0713561391e+01   4.3280425927e+01    0.4546706    0.3340085  34.45  0.001286745    1.456    0.313
       239 -10.6277    146.3965     48.3523   7.8653282027e+01   4.2448260265e+01    0.4506024    0.2607239  66.37  0.002030447    1.841    0.457
       240 -10.9269     60.8439     52.6782   1.0401808088e+02   5.8566753551e+01     0.336322    0.2027734 -42.64 0.0006328825    1.628    0.386
       241  -9.9705     55.0867     50.0745   1.0519165150e+02   5.9789220399e+01    0.2600737    0.1935067  29.56  0.001604934    1.404    0.288
       242 -10.4545     56.9009     45.9427   1.0309409517e+02   6.0211931755e+01    0.4102188    0.2120596  25.84  0.002066014    2.074    0.518
       243  -9.5806    192.8660     54.0465   7.1881635141e+01   3.0422610388e+01     0.214429    0.1717768 -76.82 0.0004849461    1.235    0.190
       244  -9.8787     71.3930     53.7587   1.0074364159e+02   5.6818023843e+01    0.2423647     0.117184 -42.90  0.001124573    2.076    0.518
       245 -11.3099     25.6813     53.0155   1.1731567962e+02   6.2524109362e+01    0.2583073    0.1727828 -11.16 0.0005500152    1.496    0.332
       246  -9.8550     28.9601     48.9915   1.1476903087e+02   6.2939945520e+01     0.166998    0.1453145 -33.54 0.0004824919    1.220    0.181
       247  -9.4644    132.9572     53.2129   8.3075243107e+01   4.4857836172e+01    0.1960783     0.108884  54.41  0.000871071    1.712    0.416
       248 -11.4217    150.2860     52.2628   7.9004682014e+01   4.0966320584e+01    0.5224776     0.414011  12.83  0.002729064    1.583    0.368
       249 -10.5566     76.0808     51.7513   9.8495497467e+01   5.6392423584e+01    0.2570997    0.2302698  44.29  0.001423846    1.336    0.252
       250 -10.1326    223.1836     51.1562   6.6972732954e+01   2.3716638040e+01    0.3612351    0.3188401 -62.41  0.002226651    1.110    0.099
       251 -10.4574    219.6975     42.3109   6.5400362641e+01   2.5777213164e+01    0.4308942    0.2119215 -67.83  0.001786256    2.616    0.618
       252 -10.8006    223.2383     46.4099   6.5897176285e+01   2.4390437691e+01    0.4133929    0.2436764 -82.67  0.001287504    1.936    0.483
       253 -11.0289    225.5110     43.7052   6.5024036773e+01   2.4256691086e+01    0.5107881    0.2764501 -58.00  0.002482465    1.818    0.450
       254 -11.6331     42.9049     49.8193   1.0963455864e+02   6.1343896640e+01    0.5744919     0.232462  29.82  0.002526724    2.623    0.619
       255 -11.0124     38.3141     44.0766   1.0944772977e+02   6.2817932311e+01    0.3748242    0.3419073 -87.41  0.002565708    1.840    0.456
       256 -11.0732     31.7056     43.3657   1.1181649081e+02   6.3629949311e+01    0.2985127    0.2702502  29.55  0.001337326    1.490    0.329
       257 -10.2861    194.6963     47.6912   7.0008948735e+01   3.0907277891e+01    0.3710217    0.3436308  81.65  0.001747791    1.088    0.081
       258 -10.1672      6.9394     48.7410   1.2351429345e+02   6.4690663174e+01    0.2166697     0.134943 -36.16 0.0006560469    1.234    0.190
       259  -9.8036     94.0680     48.2836   9.1680968585e+01   5.3746131076e+01    0.2914627    0.1481729  42.34  0.001353255    1.875    0.467
       260  -9.9658     12.9241     34.2154   1.1649686280e+02   6.6778532118e+01      0.18678    0.1372597   4.41   0.00119095    1.347    0.258
       261 -10.0015     16.1220     32.1290   1.1439126184e+02   6.6861794224e+01    0.2850509    0.1486849 -48.38  0.001216878    1.853    0.460
       262 -12.0454     20.5057     42.4082   1.1604092384e+02   6.4818727371e+01    0.6184348    0.4875757 -69.10    0.0030643    1.982    0.495
       263 -11.0400     13.1470     40.5376   1.1849078323e+02   6.5712320406e+01    0.4797918    0.2329621 -13.15  0.002522585    2.531    0.605
       264 -10.7294    142.6279     43.5388   7.7994140650e+01   4.3996975930e+01    0.3804211    0.2590029  41.11   0.00193681    1.476    0.323
       265 -10.8717    118.0331     42.1038   8.3111535521e+01   4.9741965776e+01    0.4719873    0.2478498 -40.08  0.002180358    2.081    0.519
       266 -10.3900    249.1419     43.7498   6.2472999541e+01   1.9074687099e+01    0.2990352    0.1538493  68.79  0.001531779    1.930    0.482
       267 -10.0585    106.2387     43.8861   8.6745505901e+01   5.1981066394e+01    0.2798306    0.2318913  71.69  0.001594838    1.513    0.339
       268  -9.5973     67.1171     43.7391   9.8697043928e+01   5.9061287362e+01     0.206936    0.1592668 -39.83  0.001257158    1.425    0.298
       269  -9.8185    213.9230     42.7754   6.6214634932e+01   2.7047280770e+01    0.1974198     0.164653  61.20 0.0006463699    1.284    0.221
       270  -9.9599     97.5973     42.8129   8.8773558544e+01   5.3855710127e+01    0.2542613    0.1865636 -36.54  0.001426368    1.458    0.314
       271 -10.4296     99.7299     38.2627   8.6596709125e+01   5.4052601096e+01     0.334177    0.2370102  11.22  0.001276934    1.581    0.368
       272 -10.6025     86.9047     41.2263   9.1369029414e+01   5.6093741901e+01    0.3068844     0.252912 -35.42  0.001284987    1.332    0.249
       273  -9.6001    238.3918     42.2314   6.3269652669e+01   2.1596611272e+01    0.1843631    0.1003791 -50.65 0.0006105744    1.632    0.387
       274  -9.2356     48.5834     42.0231   1.0477335847e+02   6.1929767317e+01    0.1677908    0.1046278 -36.29 2.974398e-05    1.465    0.317
       275 -10.4223    161.9899     41.1957   7.3585194871e+01   3.9705829017e+01    0.2341132     0.220339 -57.37 0.0003268185    1.128    0.114
       276  -9.9519    161.5305     37.5004   7.2628799587e+01   4.0296880164e+01    0.2368907    0.1561677  62.77 0.0007263234    1.377    0.274
       277  -9.3690    250.2570     39.9693   6.1597124431e+01   1.9367612662e+01    0.1534003   0.09502163 -45.59 0.0003722886    1.459    0.315
       278  -9.5301    242.5005     40.5162   6.2482181346e+01   2.0943497603e+01     0.132848    0.1030005 -71.57 0.0008093375    1.076    0.070
       279  -9.8602    130.2124     40.1690   7.9629610009e+01   4.7300975599e+01    0.1950744    0.1686417  33.81  0.000405976    1.125    0.111
       280 -10.3943    171.0820     37.9361   7.1135251574e+01   3.7937956357e+01     0.443724    0.2474979 -88.30  0.001254732    2.658    0.624
       281  -9.3281    142.7046     38.3791   7.6422433130e+01   4.4656245529e+01    0.2067844    0.1286813 -37.55 0.0007045239    1.729    0.422
       282 -11.6325    147.2168     35.0545   7.4541055831e+01   4.4014472124e+01    0.7082194    0.2650878  60.92  0.002751579    2.477    0.596
       283  -9.8550    136.6241     38.6990   7.7776670850e+01   4.6026780665e+01    0.2554131     0.143294  47.44 0.0007633143    1.643    0.391
       284 -10.6319    124.2002     35.5754   7.9522551026e+01   4.9233070933e+01    0.4586681    0.2595497 -23.75  0.002203812    2.023    0.506
       285 -10.3183    109.7144     37.2237   8.3578141123e+01   5.2151876510e+01    0.3598395    0.1605245 -38.73  0.001323203    2.447    0.591
       286 -10.4911     45.9974     37.0138   1.0393222798e+02   6.3023137393e+01    0.3980775    0.1622111 -33.50  0.001868419    2.316    0.568
       287 -10.9016     54.2621     36.1531   1.0049794666e+02   6.2060903538e+01    0.6105927    0.3567651  38.73  0.003463326    1.822    0.451
       288  -9.5774     49.0390     34.0000   1.0164206910e+02   6.3076017744e+01    0.2081405   0.09233665  34.30 0.0004705111    2.251    0.556
       289  -9.9203     51.0652     30.8993   9.9691653339e+01   6.3242682751e+01    0.2784693    0.1781722  -1.89 0.0008484937    1.630    0.386
       290 -10.3965     55.1111     29.8477   9.7782480104e+01   6.2822538803e+01    0.2069747     0.152781 -14.37 0.0004171121    1.197    0.165
       291  -9.3273     25.2977     38.2474   1.1265872300e+02   6.5085600106e+01    0.1129734   0.07074266 -16.32 0.0002604515    1.487    0.327
       292 -10.1325     38.3392    241.2961   1.4327169762e+02   1.9532261229e+01   0.09848812    0.0889444 -57.18 0.0006414519    1.656    0.396
       293 -10.1988    222.1798     36.2533   6.3754774796e+01   2.6034718314e+01    0.3870702    0.2174647  75.53  0.001612097    1.703    0.413
       294 -10.5621    216.0287     35.5034   6.4295072009e+01   2.7545181670e+01    0.2756262    0.1890062 -89.25 0.0003511045    1.385    0.278
       295 -11.4224    211.3857     33.4564   6.4376570227e+01   2.8889855149e+01    0.5133883    0.3838397 -36.33  0.001831326    1.480    0.324
       296 -10.8137     88.8871     33.6001   8.8040140913e+01   5.6745722109e+01     0.731032    0.3753761  40.55  0.003630005    1.788    0.441
       297 -10.0505     16.2323    240.3915   1.4701072579e+02   2.2263446835e+01    0.1527716   0.07824674  53.69 0.0006645278    1.612    0.380
       298 -10.7823     81.0117     33.3192   9.0323406644e+01   5.8215951807e+01    0.3133864    0.2287544  41.44 0.0008334257    1.331    0.249
       299 -10.4381     53.3189    238.0065   1.4030445916e+02   1.8288181452e+01    0.2018029    0.1132261  44.26 0.0006774956    1.658    0.397
       300 -10.7051     61.4990     31.5095   9.6123107986e+01   6.1661275553e+01    0.2147928    0.1641772  18.16  0.000691218    1.165    0.142
       301 -10.5694     36.5183     27.1950   1.0394064921e+02   6.5589539372e+01    0.3187073    0.1565605  38.67  0.001678118    2.381    0.580
       302  -9.8085    247.9981    236.2979   1.0213236123e+02  -1.2547156931e+01    0.1664785      0.13168  11.91 0.0002099809    1.081    0.075
       303 -10.4987     55.1324     17.5946   9.2875842450e+01   6.4348053443e+01    0.2416779    0.1568307 -16.40 0.0007354126    1.444    0.307
       304  -9.6228     12.9917    232.2583   1.4704750270e+02   2.4231941591e+01    0.1366468   0.08376638  46.77 0.0008214097    1.593    0.372
       305  -9.5523    110.0114    225.2608   1.2772686698e+02   1.2413506958e+01    0.1803932    0.1056933  42.93 0.0007740465    1.559    0.359
       306 -11.2969     24.3059     32.3853   1.1098443886e+02   6.6104572376e+01    0.5440062    0.2232426 -50.69  0.001950771    2.911    0.656
       307 -10.0513     52.5087    224.4985   1.3923514801e+02   2.1195432266e+01    0.1255808    0.0988551  77.64   0.00081063    1.004    0.004
       308  -8.8776      9.3735    221.3056   1.4696811935e+02   2.6844585612e+01    0.1020185    0.0792392 -55.64 0.0007031242    1.765    0.433
       309  -9.8317    126.7388    216.7552   1.2298471499e+02   1.1301160777e+01    0.1978783    0.1512664  72.08  0.001057373    1.388    0.279
       310 -10.5367     26.2434    213.0003   1.4326389179e+02   2.6832363536e+01    0.2502603    0.1566826 -68.41  0.001544258    1.494    0.331
       311 -10.1148    247.6785    203.6713   9.6192061271e+01  -7.6760218095e+00    0.1348817   0.09008159  -2.89   0.00044238    1.691    0.409
       312 -11.3013      4.8865     27.0200   1.1755655652e+02   6.8498657334e+01     0.380449    0.2313977   7.16   0.00235887    1.652    0.395
       313 -10.2255    247.9668    191.7474   9.3822652832e+01  -5.7971456536e+00    0.1662419    0.1091011  35.87 0.0008954351    1.602    0.376
       314 -11.1888      3.1498     17.3534   1.1480922022e+02   7.0080434193e+01    0.1890764    0.1039198 -30.15 0.0004328208    1.377    0.274
       315  -9.6141      7.5346    186.4955   1.4475856012e+02   3.4538836444e+01    0.1200952   0.08955586 -89.24 7.039183e-05    1.003    0.003
       316 -10.0760    245.0096     25.6112   5.9208447620e+01   2.2387085077e+01    0.3523873    0.1145355  71.22  0.001475423    2.971    0.663
       317  -9.6213    245.8535     33.3721   6.0688953729e+01   2.1195588002e+01    0.4149984    0.1380891  66.21    0.0013555    2.840    0.648
       318 -11.0030    248.6130     29.6894   5.9694979483e+01   2.1096889338e+01    0.7017156    0.2682608  63.41  0.003275589    2.533    0.605
       319 -11.2974    236.4466     32.2875   6.1383082328e+01   2.3371987443e+01    0.4448628    0.2262972  71.30  0.002269048    1.859    0.462
       320 -12.0098    229.7214     29.3975   6.1453886777e+01   2.5234466410e+01    0.6531883    0.4157742 -85.16  0.003638631    1.493    0.330
       321  -9.3940    164.6710     33.8693   7.1081046198e+01   3.9998053860e+01    0.1814428    0.1159803 -45.55 0.0005586994    1.673    0.402
       322  -9.6285     38.1601    179.9998   1.3760861617e+02   3.2959692190e+01    0.1669019    0.1474479 -24.14  0.001065235    1.619    0.382
       323 -11.7797    246.0525    177.4408   9.1293694199e+01  -3.0702073327e+00    0.3057813    0.2445675 -33.40  0.001035672    1.133    0.117
       324  -9.2896      1.3342    177.6636   1.4529717901e+02   3.7041176258e+01    0.1255659   0.06855289  71.99 0.0007052028    1.742    0.426
       325 -10.2273    229.0972    175.6633   9.3974221257e+01   2.2024035756e-01    0.2318938    0.1823728 -45.34 0.0004305264    1.289    0.224
       326 -11.1238    247.1955    166.0144   8.8751894290e+01  -1.2755935992e+00    0.2405723    0.1993247  23.53 0.0004445415    1.307    0.235
       327 -11.0869    249.2316    161.9016   8.7554211209e+01  -9.0642106715e-01    0.2882249     0.217559 -57.49  0.001342514    1.559    0.358
       328 -10.8935    249.2270    155.8192   8.6286124713e+01   1.7091044085e-01    0.3327993    0.2158429 -46.15  0.001067081    1.458    0.314
       329 -10.2390     13.9852    165.0190   1.4140910520e+02   3.8867738187e+01    0.1945454    0.1526129 -86.54  0.001014068    1.038    0.036
       330 -10.0788      2.2062    161.7815   1.4372142968e+02   4.0566649242e+01     0.164664    0.1157505 -60.02  0.001079479    1.365    0.268
       331  -9.8788    119.5448     33.0873   7.9787667395e+01   5.0563211511e+01    0.3221872    0.1616436 -48.53  0.001175128    2.730    0.634
       332 -10.0282    177.9726     27.1007   6.7200965292e+01   3.7614501079e+01    0.4376187    0.1644105  55.41  0.001802379    2.361    0.576
       333 -10.4894    178.8266     30.9912   6.8088726354e+01   3.6942189119e+01     0.610073    0.1968618  64.14   0.00227651    2.760    0.638
       334 -10.7699    183.1364     27.8279   6.6656039865e+01   3.6289068746e+01     0.590449    0.2124445 -45.99  0.002330463    2.940    0.660
       335  -9.9610    186.2664     25.6866   6.5686692317e+01   3.5793886552e+01    0.1989674    0.1645466 -79.57 0.0002384631    1.137    0.120
       336 -11.3310    170.7424     30.7924   6.9262009632e+01   3.8912853642e+01    0.5653839    0.2688091  75.90  0.002328131    2.421    0.587
       337  -9.2056    160.6571     32.7306   7.1440678501e+01   4.1101450194e+01    0.1386994   0.09464126  39.91  0.000698889    1.609    0.379
       338 -11.3352    106.9809     29.4716   8.1625944524e+01   5.3671068366e+01    0.5987935     0.303271  60.65   0.00273593    2.207    0.547
       339 -10.0283     77.3317    156.6539   1.2479112381e+02   3.3488940027e+01    0.1526381    0.1041401  77.75 0.0007049808    1.761    0.432
       340 -11.0884    229.5086    154.2054   8.9351343729e+01   4.1209818905e+00    0.3251399    0.2399984 -49.00  0.001676063    1.341    0.254
       341 -12.0049     66.2170     30.6946   9.4170473897e+01   6.1039489019e+01    0.4472667    0.3957461  53.76  0.002029814    1.567    0.362
       342 -10.6454     89.8018     21.6268   8.3392805891e+01   5.7981369236e+01    0.3550394    0.2011078  10.83  0.001701956    2.387    0.581
       343  -9.7789    201.1765     25.5736   6.3763644321e+01   3.2268430167e+01    0.2058183    0.1564786 -59.44 0.0006199725    1.267    0.211
       344  -9.9832    159.3887     24.1901   6.9258385920e+01   4.2398746626e+01    0.4169087    0.2616121 -88.98  0.002036674    1.939    0.484
       345 -10.1646    161.3176     18.7425   6.7441833366e+01   4.2528410048e+01    0.2821293    0.1654354 -34.21  0.001263444    1.880    0.468
       346 -10.3620    155.9500     16.5795   6.7674629754e+01   4.4022874515e+01    0.2766003    0.2072491 -59.20  0.001607071    1.493    0.330
       347 -10.6995     50.7509     25.2028   9.7575843161e+01   6.4048028629e+01    0.4097196    0.1621936  32.32  0.001838334    2.517    0.603
       348  -9.7059     18.7694     26.0844   1.1102481440e+02   6.7563795152e+01    0.2042455    0.1106057  -7.43 0.0007108003    2.021    0.505
       349 -10.6668    168.4841     24.1603   6.7824457132e+01   4.0229199589e+01    0.4904839    0.2330232  49.64  0.002224048    2.063    0.515
       350 -11.2097     98.3470     22.0989   8.1253874087e+01   5.6257310605e+01    0.2847727    0.2100152  41.84 0.0007861605    1.183    0.154
       351 -12.4276     19.4830    148.3212   1.3822997979e+02   4.2295167352e+01    0.6638733    0.3673696 -45.66  0.003414643    1.977    0.494
       352 -11.8671    236.3213    135.1240   8.4000214951e+01   6.3669568311e+00    0.5131743    0.3605837 -17.00  0.002324359    1.804    0.446
       353 -11.1759    248.1684    145.0078   8.4178718419e+01   2.2973785134e+00    0.3332682    0.2823351  30.51   0.00154386    1.343    0.255
       354 -11.7601    246.1352    140.5093   8.3549253368e+01   3.4878909500e+00    0.4365401     0.276231  46.47  0.002191279    1.785    0.440
       355 -12.3881    241.9377    147.3053   8.5700132498e+01   3.0370713827e+00    0.7659999     0.460907 -65.02  0.003179496    2.679    0.627
       356 -12.2666    235.4798    144.2489   8.6138605676e+01   4.8317192932e+00    0.6908736    0.4466173 -70.77  0.002940687    2.524    0.604
       357 -11.1863     38.8098    145.8867   1.3301199089e+02   4.1025460256e+01    0.4623642    0.2758799 -72.67  0.002419831    1.473    0.321
       358  -9.2769     61.2985    147.3245   1.2735280785e+02   3.8020391653e+01    0.1393391   0.09932548 -38.39 0.0002840991    1.629    0.386
       359 -11.0722    244.3311     20.8279   5.8317852884e+01   2.3132213637e+01    0.3072665    0.2316017 -84.02  0.001082478    1.098    0.089
       360 -10.0720    240.5576     19.7672   5.8436349125e+01   2.4070045382e+01    0.2324663    0.1404166 -62.39  0.001000919    1.449    0.310
       361  -9.0490    228.4182     21.5292   5.9918374776e+01   2.6510659228e+01    0.1227622    0.1051256 -85.81 8.034674e-05    1.109    0.098
       362 -10.1959      4.9708    147.3218   1.4163362900e+02   4.3678682039e+01    0.1663832    0.1331889 -74.75 0.0006870317    1.069    0.065
       363  -9.8762     34.5086    150.4985   1.3477078916e+02   4.0365579219e+01    0.1316653    0.1077044 -78.48 0.0008104781    1.027    0.027
       364 -10.7448      6.5579    142.9514   1.4076579122e+02   4.4571704237e+01    0.3179336    0.1869251  63.58  0.001810426    1.927    0.481
       365 -11.5026    212.2560    138.1900   8.8972089912e+01   1.0707266133e+01    0.5428177    0.4269086 -14.37  0.002012876    1.527    0.345
       366  -9.4193     47.3004    137.6500   1.2945738445e+02   4.2078730073e+01    0.1382202   0.09564582  80.49 0.0007037885    1.692    0.409
       367 -10.3747      3.6301    135.6054   1.4064226641e+02   4.6467265865e+01    0.2497005    0.2208544  69.31  0.001574959    1.284    0.221
       368 -10.0294    232.5537     18.8431   5.8969062175e+01   2.5922110781e+01    0.2943317    0.1107567 -36.11  0.001334244    2.654    0.623
       369  -9.7333      9.0800    134.8607   1.3916937930e+02   4.6259395696e+01    0.1799927    0.1403926  83.44 0.0004955048    1.267    0.210
       370 -11.2808    249.4639    132.2638   8.1252024874e+01   4.3515780639e+00    0.4237395    0.2934408 -23.00  0.002148757    1.642    0.391
       371  -9.9151     79.2524     15.8196   8.4233633511e+01   6.0553996983e+01    0.2256949    0.1658658 -55.94 0.0009804507    2.241    0.554
       372  -9.1784    228.6694     18.2895   5.9215500109e+01   2.6845681086e+01    0.1323555   0.07760489 -71.31 0.0003224647    1.623    0.384
       373 -11.2400     12.8688    125.1184   1.3687647058e+02   4.8235496146e+01    0.3128589    0.1635492 -80.34  0.001502467    1.857    0.462
       374 -10.9863     15.2205    132.5813   1.3727974666e+02   4.6329800617e+01    0.2790754    0.2579765 -30.31  0.001817654    1.329    0.248
       375 -11.3838     12.1247    130.1009   1.3776112763e+02   4.7138909034e+01    0.3317874     0.272763 -32.64  0.001371621    1.443    0.307
       376 -11.2557    242.0712    129.7483   8.1879399768e+01   6.2291802464e+00    0.3132885    0.2494243  30.41  0.001602807    1.523    0.343
       377 -10.9557    224.2251    129.3581   8.4786786367e+01   9.9111130038e+00    0.2893803     0.207437  59.85 0.0008763677    1.577    0.366
       378 -11.0439    226.6821    125.8160   8.3559906804e+01   1.0073096306e+01     0.369116     0.294287 -55.68    0.0010153    1.226    0.184
       379  -9.7853     92.3207     15.7476   8.0531613421e+01   5.8102035606e+01    0.1704907    0.1184516  29.38  0.001015157    1.306    0.234
       380  -9.8706    178.8023     14.8083   6.3929460624e+01   3.8782411889e+01    0.1874458     0.152961  66.34 0.0004706396    1.119    0.106
       381 -11.2089     72.4377     17.4108   8.6944427962e+01   6.1590043893e+01     0.486262     0.212202  43.70  0.002441026    2.031    0.508
       382 -10.3703     72.3300    129.1163   1.2088883419e+02   4.0923657693e+01    0.2283094     0.199963   9.76 0.0008490598    1.360    0.265
       383 -11.6085     25.6077    128.3788   1.3388306601e+02   4.6459240619e+01    0.4571515    0.2510377  16.68  0.002356343    2.489    0.598
       384  -9.9010    208.0041    127.3129   8.7260960099e+01   1.3776758969e+01    0.2086794    0.2016386  86.39 0.0006223842    1.075    0.069
       385 -10.6320     67.4132    123.1952   1.2105651093e+02   4.3028566799e+01    0.5091068    0.2070723 -37.90  0.001683841    3.645    0.726
       386 -10.7877    246.9276    122.0334   7.9440177967e+01   6.6813704318e+00    0.2197197    0.1874717 -46.53 0.0007463514    1.027    0.026
       387  -9.4669     17.6155    122.3004   1.3516171043e+02   4.8530541372e+01     0.124882   0.08444498  71.34 0.0007019146    1.780    0.438
       388 -10.3775    217.1902    120.4097   8.3974807299e+01   1.3123884825e+01    0.3466491    0.2143925 -32.96  0.001110006    1.690    0.408
       389 -11.1833      5.6933    117.8652   1.3782051562e+02   5.0383326000e+01    0.5996268    0.2077223 -71.78  0.002641533    2.461    0.594
       390 -11.7956     10.4926    107.0461   1.3481485479e+02   5.2511975815e+01    0.7935638    0.2195228 -44.43  0.003107156    3.477    0.712
       391 -11.6221     18.2447    104.3513   1.3202945362e+02   5.2573336714e+01    0.3312213     0.279761  25.65  0.001275204    1.459    0.315
       392 -10.9685     16.1407     98.5331   1.3162157809e+02   5.4019380000e+01     0.400353    0.2296291 -17.03  0.001768973    2.330    0.571
       393 -11.7273     21.9725     95.8760   1.2926910920e+02   5.4171649198e+01    0.4915941    0.3006289 -28.11  0.002226945    1.817    0.450
       394 -10.7431     56.2343    126.6354   1.2497270443e+02   4.3665779066e+01    0.3891351    0.1690858 -44.23  0.001579793    2.387    0.581
       395 -10.0023    245.1724     93.1906   7.3420182196e+01   1.2131265801e+01    0.1894062    0.1690385 -83.52 0.0004337892    1.127    0.113
       396 -10.3875    233.1259     99.1672   7.6484299240e+01   1.3622639545e+01    0.3256696    0.2749802  88.40  0.001829074    1.243    0.196
       397 -11.7243    245.8934     97.6621   7.4293468344e+01   1.1210678354e+01    0.7082235    0.4023805  80.90  0.002992217    2.724    0.633
       398 -12.4441    246.3244    109.3054   7.6766144196e+01   9.0784628792e+00    0.7910369    0.4251058 -44.30  0.003692738    1.623    0.384
       399 -12.0303    241.8202    101.1192   7.5631105362e+01   1.1445464003e+01     0.689961    0.4652915 -86.73  0.002287747    1.961    0.490
       400 -10.0991     13.0429    117.4798   1.3571260919e+02   4.9976634729e+01    0.1519497    0.1239904  18.00 0.0006365414    1.559    0.359
       401 -11.7139    237.9176    113.5474   7.8969354642e+01   1.0024427463e+01    0.3433771     0.270503 -42.61 0.0008653114    1.148    0.129
       402 -12.3514    227.9348    112.5899   8.0346824930e+01   1.2290467399e+01      0.87183    0.3794793  50.64  0.003463359    2.488    0.598
