#   1 NUMBER                 Running object number                                     
#   2 MAG_AUTO               Kron-like elliptical aperture magnitude                    [mag]
#   3 X_IMAGE                Object position along x                                    [pixel]
#   4 Y_IMAGE                Object position along y                                    [pixel]
#   5 X_WORLD                Barycenter position along world x axis                     [deg]
#   6 Y_WORLD                Barycenter position along world y axis                     [deg]
#   7 A_WORLD                Profile RMS along major axis (world units)                 [deg]
#   8 B_WORLD                Profile RMS along minor axis (world units)                 [deg]
#   9 THETA_WORLD            Position angle (CCW/world-x)                               [deg]
#  10 FWHM_WORLD             FWHM assuming a gaussian core                              [deg]
#  11 ELONGATION             A_IMAGE/B_IMAGE                                           
#  12 ELLIPTICITY            1 - B_IMAGE/A_IMAGE                                       
         1  -9.9662    189.1910    231.9991   1.0065773431e+02   3.9448496078e-01    0.1145158   0.09447683 -31.25 0.0005869203    1.468    0.319
         2 -16.5928    242.9818    226.7811   9.0513657116e+01  -7.5808039535e+00     3.770902     1.322155 -31.67   0.01794257    3.110    0.678
         3 -16.9409     10.9726    227.4750   1.3146317844e+02   2.6651466162e+01     3.555832     1.243926 -78.07   0.02087942    2.453    0.592
         4 -21.1583    135.3460    167.3362   1.0083182029e+02   2.1062170235e+01     10.42377     7.880568  48.91   0.04895939    1.239    0.193
         5 -11.6856    103.3506    231.6583   1.1612849910e+02   1.4367761384e+01    0.2010143    0.1436358  73.16  0.001278467    1.319    0.242
         6 -10.3202    113.5537    246.5958   1.1582685444e+02   1.0437167455e+01    0.1137533   0.08626757  53.64 0.0006344478    1.037    0.036
         7 -10.5157     55.9447    232.2440   1.2442793648e+02   2.0797296920e+01    0.1024923   0.06902792  62.37            0    1.109    0.098
         8 -11.0661     79.2391    230.5769   1.2029671467e+02   1.8028698575e+01     0.133552    0.0965929  53.32 0.0003232343    1.170    0.145
         9 -10.4503    111.9167    229.8264   1.1439571728e+02   1.3371160953e+01    0.1141118   0.09731424 -80.49 0.0007219454    1.307    0.235
        10 -10.5046     85.3090    230.2059   1.1919664395e+02   1.7245391601e+01    0.1223858   0.08870611  82.98 0.0004998238    1.288    0.224
        11 -11.0028    199.4977    227.7935   9.8190876101e+01  -7.6274641866e-01    0.1489526    0.1283603  12.69 0.0004821317    1.152    0.132
        12  -9.7212    214.0725    227.0803   9.5506503243e+01  -3.0678168951e+00    0.1576665    0.1279846  28.00  0.001071695    1.064    0.060
        13 -11.2809    208.6308    227.0092   9.6450940320e+01  -2.1700609775e+00    0.1779397    0.1372779  26.31 0.0004680998    1.055    0.052
        14 -10.2997     64.5905    227.0706   1.2256136400e+02   2.0609804342e+01    0.1208262   0.09436132 -84.24 0.0002147712    1.298    0.230
        15 -10.5318     71.4457    224.9748   1.2118774239e+02   2.0078326623e+01    0.1430684    0.1107817  74.32 0.0004506589    1.071    0.066
        16 -10.9235     57.5108    219.2508   1.2318533385e+02   2.2934150838e+01    0.2078083    0.1089574 -68.67  0.001257465    1.917    0.478
        17 -10.1179     46.4608    221.3511   1.2527179393e+02   2.3903223991e+01    0.1181629   0.09039613 -85.93 0.0001266293    1.272    0.214
        18 -13.1811     44.7439    216.7945   1.2524699741e+02   2.4947394804e+01    0.2468203    0.2184901  72.98  0.001592272    1.346    0.257
        19 -12.1824     57.5277    245.1482   1.2505341458e+02   1.8404836507e+01    0.1648803     0.125623  67.58 0.0008481918    1.111    0.100
        20 -10.2450    110.4066    245.0938   1.1622087680e+02   1.1139537118e+01    0.1131672    0.0972355 -16.06 0.0007819437    1.980    0.495
        21  -9.2562     51.4315    220.1161   1.2432031878e+02   2.3529784681e+01    0.1379316   0.09139959 -84.98 0.0004570578    1.364    0.267
        22  -6.5025    141.3970    244.3812   1.1076255065e+02   6.4698115967e+00    0.1190404   0.09559349  62.40 0.0008310184    1.203    0.169
        23  -9.6893    212.6234    242.9126   9.8175165676e+01  -4.7187765710e+00    0.1164996    0.1078563 -58.52  0.000541461    1.667    0.400
        24 -10.7291    190.3542    243.3276   1.0206444082e+02  -1.2485368391e+00    0.1137589    0.0859232  34.26 0.0001518389    1.029    0.028
        25  99.0000    152.5762    241.9673   1.0851187777e+02   5.0312911601e+00    0.2060331    0.1103077 -39.06  0.001125909    2.660    0.624
        26  99.0000    126.0777    240.8141   1.1305450969e+02   9.4110775042e+00    0.3381507    0.1791909  64.68  0.001771417    2.279    0.561
        27 -10.8061     21.0626    148.3209   1.2429001551e+02   4.1562125691e+01     0.268319    0.1312671 -70.39 0.0007442995    1.633    0.388
        28 -10.4572    231.0572    147.0580   7.7082820850e+01   5.3193103637e+00    0.2277278    0.1956592 -34.12 0.0003055352    1.209    0.173
        29 -10.1967    229.1319    143.5151   7.6626153249e+01   6.2715612446e+00    0.2101241    0.1818712 -20.29 0.0006702813    1.090    0.083
        30 -10.2023     46.2792    242.4924   1.2668559844e+02   2.0217175399e+01   0.09909436   0.07222977  77.66 0.0002372021    1.131    0.116
        31 -10.4925     27.0902    138.9986   1.2193469887e+02   4.3106291292e+01    0.2145495    0.1376219 -71.05 0.0003226793    1.269    0.212
        32  -9.7989     27.4583    134.6306   1.2134973900e+02   4.4063861610e+01    0.2264763    0.1186969 -68.29 0.0007605904    1.529    0.346
        33 -10.6232    137.9812    249.1312   1.1188770512e+02   6.3216507138e+00    0.1958072    0.1088225  45.51  0.001182059    1.375    0.273
        34 -12.0538     23.8656    129.6102   1.2164788983e+02   4.5525722224e+01    0.2407326    0.1614245 -86.01 0.0003775025    1.251    0.201
        35 -10.8904    143.8189    241.2981   1.0997850665e+02   6.5341317189e+00   0.09902667   0.07774919  74.36  0.000654657    1.436    0.304
        36 -11.3989     37.1254    120.2228   1.1699583425e+02   4.6466807374e+01    0.2871103     0.193776  79.05 0.0004167526    1.559    0.358
        37 -11.2798     43.1135    120.1216   1.1537637024e+02   4.5883288797e+01    0.2744591    0.1782202 -62.04 0.0009801214    1.299    0.230
        38 -10.2885     26.7090    118.0009   1.1945590824e+02   4.7940239570e+01    0.3614003    0.1378891  44.02  0.001517814    2.888    0.654
        39 -10.2212    131.4014    241.3276   1.1217339062e+02   8.4996574687e+00    0.1141786   0.08516727  18.59 0.0006979415    1.919    0.479
        40 -11.7044     45.8318    112.6403   1.1341027187e+02   4.7341650283e+01    0.4051863    0.2460259  58.97  0.001112066    1.964    0.491
        41  -9.5768     23.0527    111.7194   1.1958105545e+02   4.9690341823e+01    0.1584287    0.1328598 -77.65  0.000307371    1.073    0.068
        42 -11.1560     95.4699    239.5937   1.1827694799e+02   1.4211850732e+01     0.128064   0.08577301  71.79 0.0008407082    1.379    0.275
        43 -11.0927     27.3297    105.1498   1.1742315154e+02   5.0848439540e+01     0.323465    0.1793393  41.45 0.0006554289    2.081    0.520
        44 -10.5675     33.9101    103.8808   1.1532440737e+02   5.0562881437e+01    0.2480489     0.179056 -42.96 0.0002651621    1.464    0.317
        45 -10.5727    214.9243    105.3038   6.9930517728e+01   1.5781841883e+01    0.2435173    0.2133939  47.39 0.0003159164    1.188    0.159
        46 -10.6361    211.1752    104.8362   7.0482995037e+01   1.6733955328e+01     0.271379     0.217162  46.31 0.0003839446    1.289    0.224
        47  99.0000     75.5079    239.3870   1.2166947399e+02   1.7033568369e+01    0.2823887    0.1403311  34.47  0.001544896    2.440    0.590
        48 -10.8069    204.0841    102.0219   7.1051694032e+01   1.8897927767e+01    0.2366434    0.2232813 -27.26 0.0007090367    1.022    0.022
        49 -11.6289    158.8420    239.1486   1.0705077585e+02   4.4163595420e+00    0.3177316    0.1105533  47.19  0.001424573    2.394    0.582
        50 -10.4779    189.6419    238.1813   1.0146819244e+02  -4.8460177143e-01    0.1303977    0.1047396  -5.86 0.0002917334    1.457    0.314
        51 -11.6908    200.1117     93.4592   6.9505849776e+01   2.1365720308e+01    0.5704102    0.2705276  53.82  0.002158191    2.162    0.537
        52 -10.0341    146.3084    238.2855   1.0917625721e+02   6.5770301436e+00    0.1222398   0.09518357  49.17 0.0008200346    1.031    0.030
        53  99.0000    150.5410    236.9095   1.0825058352e+02   6.0927513399e+00    0.3293532    0.1907308  30.62  0.001813036    1.880    0.468
        54 -10.9763     53.6498     91.4476   1.0693040768e+02   5.1389086059e+01    0.2964919    0.2285976  52.21  0.001730772    1.525    0.344
        55 -11.0991    164.7228    237.3093   1.0576543168e+02   3.7137078834e+00    0.1683125     0.110292  34.31 0.0006533572    1.355    0.262
        56 -11.0989    161.6003    235.2970   1.0606019227e+02   4.5129517342e+00    0.1347569   0.08828266  51.81 0.0003718989    1.366    0.268
        57 -10.5483    100.6411    236.7105   1.1710655501e+02   1.3930615541e+01    0.1348842    0.0935045  85.12 0.0004160705    1.511    0.338
        58 -10.5445     45.9305     88.0207   1.0860573371e+02   5.3030487290e+01    0.2692247    0.1959578  25.32 0.0006120516    1.668    0.400
        59 -10.0437     44.8513    237.6347   1.2661605859e+02   2.1210308533e+01   0.08809217   0.06178972 -73.82 0.0002989953    1.569    0.363
        60 -10.8449     78.5121     85.4715   9.7660096458e+01   4.9394367797e+01    0.2946955    0.2361898  -2.84 0.0007745782    1.548    0.354
        61 -10.7516    215.0130    234.0856   9.6438516622e+01  -4.0669351812e+00    0.2761365    0.2249828  -0.39  0.001377022    1.253    0.202
        62 -10.2862    181.0696    246.1862   1.0406147389e+02  -1.2168557410e-01    0.2751243    0.1739229  60.67  0.001591787    2.070    0.517
        63 -11.8747    160.0225     79.8022   7.3798399663e+01   3.3743241950e+01    0.4823374    0.3805662 -30.14  0.001015599    1.283    0.221
        64 -11.4914     60.9700     81.0817   1.0208514630e+02   5.2838786584e+01    0.2390303    0.1885087 -42.81  0.001384822    1.146    0.127
        65  -9.8455     63.4159     77.4602   1.0031863503e+02   5.3320859257e+01    0.2396872    0.1706248 -45.58 0.0005311022    1.225    0.184
        66 -11.8053    139.3258     80.7120   7.8982148170e+01   3.8519901357e+01      0.41434    0.3094786  52.90 0.0009592301    1.387    0.279
        67  -9.8068     72.0650     80.5367   9.8347871626e+01   5.1445443714e+01    0.2035169    0.1659905 -48.79  0.000281032    1.084    0.078
        68 -10.7172    195.0983    235.5674   1.0013292838e+02  -1.0395364625e+00    0.1540429    0.1047525  37.51 0.0009682312    1.166    0.142
        69 -12.4882    117.9234     76.6328   8.3352675816e+01   4.4069643630e+01    0.5665236    0.3714881 -37.34   0.00100659    1.484    0.326
        70  -9.7784     48.9938     76.2764   1.0482604714e+02   5.5338240211e+01    0.1748445    0.1564454 -38.63 0.0004011722    1.107    0.097
        71 -10.8728    130.1828    245.7949   1.1287468551e+02   8.0203921479e+00    0.1604722    0.1014614  34.31 0.0009788481    1.614    0.381
        72 -11.3169    170.9490    236.7537   1.0458076555e+02   2.7673570690e+00    0.1301041     0.082707  40.03 0.0003523158    1.253    0.202
        73 -10.2183     83.3636    236.4479   1.2008678606e+02   1.6452027853e+01    0.1095255   0.08587392  65.80 0.0007914896    1.061    0.058
        74 -10.7188    114.0709     67.6776   8.1547768392e+01   4.6637710942e+01    0.2053725    0.1929826  26.53 0.0004325607    1.088    0.081
        75 -12.9051    208.0218    232.1496   9.7355298189e+01  -2.7117988237e+00     0.244669    0.2135776  29.27  0.001128115    1.170    0.145
        76 -11.7308    204.0387    229.3609   9.7626770076e+01  -1.7138718102e+00    0.1863038    0.1414097  27.15 0.0004379346    1.087    0.080
        77 -10.6967    125.8741     41.3692   6.9136215815e+01   4.8540325567e+01    0.2753931    0.2088514 -18.10 0.0005729781    1.357    0.263
        78  -9.0788    124.0326    234.0164   1.1266939208e+02   1.0796487093e+01     0.147011    0.1198704  48.13 0.0009590962    1.119    0.106
