#   1 NUMBER                 Running object number                                     
#   2 MAG_AUTO               Kron-like elliptical aperture magnitude                    [mag]
#   3 X_IMAGE                Object position along x                                    [pixel]
#   4 Y_IMAGE                Object position along y                                    [pixel]
#   5 X_WORLD                Barycenter position along world x axis                     [deg]
#   6 Y_WORLD                Barycenter position along world y axis                     [deg]
#   7 A_WORLD                Profile RMS along major axis (world units)                 [deg]
#   8 B_WORLD                Profile RMS along minor axis (world units)                 [deg]
#   9 THETA_WORLD            Position angle (CCW/world-x)                               [deg]
#  10 FWHM_WORLD             FWHM assuming a gaussian core                              [deg]
#  11 ELONGATION             A_IMAGE/B_IMAGE                                           
#  12 ELLIPTICITY            1 - B_IMAGE/A_IMAGE                                       
         1 -14.3682    167.9511     37.9722   7.6587819265e+01   3.8566296262e+01     1.246818     1.014533   5.45   0.00440752    1.442    0.307
         2 -13.9980    183.0316      6.1192   6.4664568329e+01   3.8269976260e+01    0.9870748    0.7806314  68.49  0.004167469    1.158    0.136
         3 -10.4730     13.6068    244.6714   1.4984852585e+02   2.3779384595e+01    0.2594179   0.06181326 -71.03  0.001310558    3.743    0.733
         4  -9.9526    150.7852    250.6749   1.2723516281e+02   4.4774760332e+00    0.1655003   0.08254983  46.97 0.0004042234    1.600    0.375
         5 -19.7698     66.9300    181.0608   1.3532505010e+02   2.9757771111e+01     16.55292     5.174822 -68.19   0.06496253    3.269    0.694
         6  -8.2054     20.5392    202.5071   1.4646061409e+02   3.0752637237e+01    0.1093836   0.08248167  79.32 0.0001850593    1.054    0.052
         7 -12.5543    138.0599    198.4534   1.2266195536e+02   1.5004329483e+01    0.6198381    0.3424233  63.96  0.002548864    2.493    0.599
         8 -11.7588    156.0854    198.1794   1.1896281911e+02   1.1836290004e+01    0.3270673    0.1943536 -70.68   0.00109585    2.914    0.657
         9 -11.4901    208.1327    196.1475   1.0852188278e+02   2.7227343560e+00     0.207984    0.1620746  15.51 0.0007161254    1.227    0.185
        10  -9.7964      7.7403    196.6024   1.4843768067e+02   3.3131577614e+01    0.1262637   0.08300473  56.15 0.0009073422    1.326    0.246
        11 -11.8231    175.2151    193.9590   1.1443264613e+02   9.0599371909e+00    0.3083438    0.2167739 -64.12  0.001470766    1.999    0.500
        12 -11.2238    180.2691    192.4669   1.1317348678e+02   8.3739722570e+00    0.2611573    0.2260406  82.76 0.0006927685    1.501    0.334
        13 -12.6094    167.3553    190.8388   1.1545779102e+02   1.1050269610e+01    0.4293652    0.3168162  35.86  0.001908053    1.253    0.202
        14 -11.2278    156.4241    191.1931   1.1773818029e+02   1.3013114924e+01    0.1755859     0.130686 -64.86 0.0005955636    1.652    0.395
        15 -11.7848    176.0090    234.7808   1.2068423497e+02   2.6546700055e+00    0.2431112    0.1784946 -40.38  0.001093127    1.673    0.402
        16 -11.7045    176.3546    188.0314   1.1315478848e+02   9.8512005189e+00    0.2857007     0.244761 -65.41 0.0009042836    1.441    0.306
        17 -11.6805    183.9548    186.5393   1.1137494752e+02   8.6734686463e+00    0.3449253    0.2115111  51.37   0.00121334    1.682    0.406
        18 -12.0183    153.9283    185.3468   1.1725206487e+02   1.4541198958e+01    0.2504335    0.2123842 -37.94 0.0009308138    1.323    0.244
        19 -12.6095    205.5027    180.4751   1.0606022088e+02   5.6050992374e+00    0.5357776    0.3287061  41.37  0.001971296    1.519    0.342
        20 -12.5166    208.5171    178.5032   1.0510678586e+02   5.3516981647e+00    0.4305136    0.3513253  23.48  0.002048294    1.131    0.115
        21 -11.2662    196.6710    175.3572   1.0674626293e+02   8.1160529114e+00    0.3520878    0.2739537  87.30 0.0009616152    2.086    0.521
        22 -12.6547    196.4595    171.3891   1.0599552457e+02   8.8216927986e+00    0.6125575     0.436563 -51.02  0.001786481    1.676    0.403
        23 -13.9325    137.6880    171.2967   1.1824402024e+02   2.0301576496e+01    0.7477729    0.5425163  60.85  0.003858285    1.442    0.306
        24 -12.9346    125.1824    172.6875   1.2125558367e+02   2.2321373465e+01    0.5148353    0.3945466  16.80  0.001966246    1.765    0.433
        25 -12.8642    144.2279    168.1876   1.1623483366e+02   1.9682243607e+01    0.4985954     0.361828  77.00  0.001925386    1.798    0.444
        26 -11.0677     22.4364    232.6673   1.4787434768e+02   2.4940237440e+01    0.1149774   0.09129018  89.41 0.0004128046    1.309    0.236
        27 -10.5359     22.6365    166.6776   1.4339722308e+02   3.7929974745e+01    0.2201683    0.1783551   6.17  0.001063122    1.949    0.487
        28  -9.9533     26.4515    229.2733   1.4702758570e+02   2.5118453430e+01    0.3780235    0.1352995 -64.40  0.002068902    2.929    0.659
        29  -9.9777    201.6364    165.3280   1.0375248868e+02   8.8260347941e+00    0.1385831    0.1138246  89.01 0.0007039054    1.800    0.445
        30 -10.9472    223.7836    163.9127   9.9331825950e+01   4.7597438704e+00    0.2289764     0.182748 -49.36 0.0005178085    1.524    0.344
        31  -9.8116    228.0935    231.8540   1.1107487333e+02  -5.2798080196e+00     0.158302    0.1132439   9.82 0.0005476325    1.283    0.221
        32 -10.7123    237.5180    159.4818   9.5993876530e+01   2.8664478123e+00    0.1346582    0.1191915  -1.72 6.357875e-05    1.019    0.019
        33 -12.1999    163.6265    155.9692   1.0957103955e+02   1.8238739998e+01    0.3544898    0.2945617 -51.92  0.001057753    1.282    0.220
        34 -11.2297    198.8135    222.8018   1.1476451484e+02   5.3651481084e-01    0.1849863     0.143457  22.90 0.0004820291    1.140    0.123
        35 -13.6124    133.7305    145.3839   1.1411194276e+02   2.6455568902e+01     1.191844    0.3635203 -54.44  0.003488824    4.109    0.757
        36 -11.2201    128.9833    143.5209   1.1485023930e+02   2.7786786842e+01    0.2687549    0.2458868  87.13 0.0006297558    1.108    0.097
        37 -12.4667     14.5745    147.6057   1.4348858026e+02   4.2815864203e+01    0.7644411    0.3060748 -87.41  0.003177611    2.503    0.600
        38 -12.9577      3.7227    112.4774   1.4262465650e+02   5.1452815692e+01    0.4426438    0.4057103 -19.56  0.003420941    1.450    0.310
        39 -13.3254      3.1994    126.2836   1.4420078611e+02   4.8402254004e+01     1.208475    0.3503519 -73.96   0.00536985    2.620    0.618
        40 -12.7981    144.9452    145.9523   1.1161776378e+02   2.4086113882e+01     0.494448    0.3590682 -77.36  0.002279092    1.833    0.454
        41 -12.9706    116.0624    138.0846   1.1686442799e+02   3.1444067843e+01    0.5577824    0.3231377 -43.82  0.002455509    1.835    0.455
        42 -11.3597    196.9820    244.9919   1.1840965495e+02  -2.0355676132e+00    0.1834991    0.1435783  34.06 0.0008408962    1.064    0.060
        43 -12.5710    105.9088    137.7183   1.1933377162e+02   3.3369821828e+01    0.3127455     0.285385  68.29   0.00059842    1.076    0.071
        44 -10.7321     20.5970    219.3029   1.4745463664e+02   2.7548864372e+01    0.1308548   0.09201641  55.77 0.0005777593    1.252    0.201
        45  -9.7302    172.6724    139.2886   1.0395519442e+02   1.9584402022e+01     0.148392    0.1200351  87.89 0.0006257435    1.615    0.381
        46 -11.8357    109.1761    124.8943   1.1576350992e+02   3.5674748472e+01    0.2984066    0.2817914 -31.70 0.0005913023    1.153    0.132
        47 -12.7260    105.9244    130.8022   1.1789720013e+02   3.4930386964e+01    0.4564538    0.3700162 -82.35  0.001443171    1.329    0.247
        48 -11.5774    101.5246    127.5029   1.1833836693e+02   3.6457640257e+01    0.2906157    0.2209815 -68.80 0.0009034055    1.344    0.256
        49  -9.6245     16.4885    217.7831   1.4807190180e+02   2.8246376002e+01    0.0833856    0.0783985 -23.66 0.0006670383    1.888    0.470
        50 -12.6415    119.8176    129.1824   1.1399443454e+02   3.2709094156e+01    0.3995335    0.3820835  88.53  0.001342039    1.021    0.020
        51 -13.0958    124.8899    125.9023   1.1196703984e+02   3.2438677631e+01    0.7113444    0.3790621 -62.25  0.002711115    2.412    0.585
        52 -12.7392    135.5857    122.3582   1.0846640170e+02   3.1024453929e+01    0.7632147    0.2330351 -50.07  0.002270118    3.553    0.719
        53 -11.5607    113.9996    118.4601   1.1301391729e+02   3.6211125614e+01    0.2781313    0.2163712 -52.65 0.0003550164    1.249    0.199
        54 -11.0228    167.4767    112.7383   9.8596849932e+01   2.5951996462e+01    0.3903939    0.2708228 -77.88  0.001578163    2.255    0.557
        55 -10.6713    167.4467    238.4762   1.2273701178e+02   3.5327224137e+00    0.1204128   0.09652166  40.55 3.201917e-05    1.020    0.020
        56 -10.5916    205.5433    110.2031   9.0285009997e+01   1.7613180459e+01    0.2691282    0.2127755  50.19 0.0006642807    1.304    0.233
        57 -10.0376     28.6454    238.2264   1.4716149451e+02   2.3303342798e+01    0.1205944   0.08003061 -80.09 0.0003894111    1.475    0.322
        58 -11.5483    159.0243    204.5337   1.1939273327e+02   1.0216214622e+01    0.3216834    0.1878035  58.24  0.001110174    1.999    0.500
        59 -13.3674      5.9057    139.2865   1.4475156507e+02   4.5329848067e+01    0.6462414    0.4505298  83.57  0.003254641    1.197    0.165
        60 -11.2859    160.8351    127.9356   1.0388025882e+02   2.4420180821e+01    0.3583531    0.2094748 -50.50  0.001492066    1.827    0.453
        61 -12.0049    163.4026    203.8409   1.1841946857e+02   9.5515181917e+00    0.3523175    0.2263775 -46.58  0.001442971    1.790    0.441
        62 -11.0975    174.8131    148.9409   1.0566860777e+02   1.7268310782e+01    0.2715122    0.2120065 -64.83 0.0008978338    1.571    0.364
        63 -11.5978    160.7463    198.0462   1.1800584530e+02   1.1015206279e+01    0.2760741    0.2076084  62.96 0.0007307069    1.490    0.329
        64 -10.0679     30.4430    205.1919   1.4482192546e+02   2.9199914586e+01    0.1492555    0.1204403  47.58 0.0005979277    1.400    0.286
        65 -10.1395     13.3732     59.9176   1.3089237165e+02   6.2443883388e+01    0.1716506    0.1180642 -56.35 0.0004756552    1.132    0.117
        66 -14.0615    156.0581     53.4600   8.3787928582e+01   3.9383104799e+01     1.244361    0.9339043  41.48  0.001213961    1.360    0.265
        67  -9.9098    168.9596    202.5305   1.1711523125e+02   8.7725854496e+00    0.1961574    0.1150759  43.54 2.461892e-05    1.493    0.330
        68 -12.4433    171.5639     30.7622   7.3721521490e+01   3.8554281223e+01    0.4234857    0.3298263   0.51 0.0009112316    1.541    0.351
        69 -10.4102    138.2208     31.4989   8.0098896254e+01   4.6917938707e+01    0.3271957    0.2017722  73.59 0.0009722422    1.940    0.485
