#   1 NUMBER                 Running object number                                     
#   2 MAG_AUTO               Kron-like elliptical aperture magnitude                    [mag]
#   3 X_IMAGE                Object position along x                                    [pixel]
#   4 Y_IMAGE                Object position along y                                    [pixel]
#   5 X_WORLD                Barycenter position along world x axis                     [deg]
#   6 Y_WORLD                Barycenter position along world y axis                     [deg]
#   7 A_WORLD                Profile RMS along major axis (world units)                 [deg]
#   8 B_WORLD                Profile RMS along minor axis (world units)                 [deg]
#   9 THETA_WORLD            Position angle (CCW/world-x)                               [deg]
#  10 FWHM_WORLD             FWHM assuming a gaussian core                              [deg]
#  11 ELONGATION             A_IMAGE/B_IMAGE                                           
#  12 ELLIPTICITY            1 - B_IMAGE/A_IMAGE                                       
         1 -14.0333    189.6078     56.5306   5.1603789197e+01   3.0735037233e+01     2.875579      1.78906  14.93   0.01004613    3.040    0.671
         2 -13.3252    212.2840     32.9197   4.2323397098e+01   2.8522064816e+01      1.01351    0.7242659 -66.10  0.003739611    1.368    0.269
         3 -12.8607    219.3814     26.3703   3.9964262196e+01   2.7679469393e+01    0.6032304     0.502696  45.94  0.001437471    1.451    0.311
         4 -13.4894    232.8729     12.9116   3.5644922665e+01   2.6199459826e+01    0.7321153    0.6281081 -69.15  0.002581543    1.057    0.054
         5 -12.9646    154.9396      8.7909   4.3050244292e+01   4.5143473569e+01      1.24027     0.655776 -75.46  0.004228556    2.803    0.643
         6 -11.1602      2.0000     10.5964   9.5861949844e+01   7.2876270146e+01    0.6010357   0.05111431 -51.73  0.001508742    9.988    0.900
         7  -9.6143    120.9954      2.3045   4.6502534921e+01   5.3926050341e+01    0.2909291    0.1883997 -88.94  0.001464726    2.006    0.501
         8 -10.7523    184.6705      8.7295   3.9229889102e+01   3.7839391110e+01    0.5008154     0.192053  82.39  0.001850712    3.183    0.686
         9  -9.4884     93.9419    220.4883   1.0943537966e+02   1.6473141938e+01    0.1832069    0.1586872  88.69  0.000357586    1.170    0.145
        10 -12.0989    247.2744    249.6206   8.3552852784e+01  -1.1179050452e+01     0.512184    0.3179791  10.22  0.001906197    1.342    0.255
        11 -12.9377    239.5450    248.0370   8.4636196019e+01  -1.0008983324e+01     1.268808     0.639944 -14.30  0.006847545    2.280    0.561
        12 -12.8363    245.1485    240.4263   8.2422530109e+01  -9.8334524757e+00    0.6570734    0.4626593 -20.72  0.004478537    1.360    0.265
        13 -14.4280     86.7473    246.7789   1.1359423996e+02   1.2546266653e+01     5.377273    0.9291567  34.21   0.01366827    8.261    0.879
        14 -14.4109    122.3267    229.9390   1.0465523471e+02   1.0359408789e+01     5.343575    0.9369937  36.30   0.01471529    5.646    0.823
        15 -12.7871     18.5008    218.9913   1.2445964326e+02   2.6076658149e+01    0.4433355      0.34342  82.29  0.001740421    1.092    0.084
        16 -14.5063      9.3700    207.1987   1.2550674758e+02   2.9345981184e+01      1.03201    0.9467342  52.61  0.002661216    1.380    0.276
        17 -13.2444     29.0936    208.9853   1.2176026424e+02   2.7059385697e+01    0.6039612     0.417968 -48.56    0.0021302    1.968    0.492
        18 -15.9135     35.5062    192.4164   1.1911983497e+02   2.9959356237e+01     9.378691     3.382333  84.81   0.02969005    5.370    0.814
        19  -8.9235    146.4847    183.4861   9.2165650219e+01   1.5363745888e+01    0.1440154    0.1355315  27.54 0.0008102763    1.016    0.016
        20 -11.8819     58.0218    180.7197   1.1282543870e+02   3.0020686828e+01    0.3893278    0.2763492 -34.28  0.002081008    1.997    0.499
        21 -11.8866     63.6815    174.9518   1.1075839595e+02   3.0647086675e+01    0.3398559    0.2632602 -58.04 0.0007710873    1.319    0.242
        22 -10.6537    110.2471    173.5558   9.9045045235e+01   2.3975340679e+01    0.2907551     0.130207  41.90  0.001152285    2.135    0.532
        23 -11.0004    250.2499    225.4588   7.8997197744e+01  -8.6589702927e+00    0.3414146    0.1503163 -31.02  0.001779708    2.151    0.535
        24 -11.5140     74.8430    135.8128   1.0165239354e+02   3.8619315905e+01    0.5282051    0.3124262  63.52  0.002038253    2.331    0.571
        25 -11.4192     73.8917    164.9695   1.0682183491e+02   3.1643823499e+01    0.2814666    0.2724499 -76.39  0.000346081    1.121    0.108
        26 -13.1083     57.9848    131.6924   1.0579225356e+02   4.1871387320e+01     3.366568     1.022231 -72.48   0.00688557    9.294    0.892
        27 -12.5748     80.9180    158.5605   1.0399435012e+02   3.2178362654e+01     0.822081    0.6996577  78.69  0.001218747    1.175    0.149
        28 -13.8278     68.4463    144.8864   1.0508278454e+02   3.7272674550e+01     2.557419     1.285565  71.91  0.004556836    4.285    0.767
        29  -8.9970    157.4980    160.4892   8.5043203227e+01   1.8088989402e+01    0.1488847    0.1456764  51.10 -1.849677e-05    1.080    0.074
        30 -13.6339      5.0886    183.9025   1.2495956477e+02   3.4684741403e+01     1.690522    0.6972411 -89.33  0.003283868    2.176    0.540
        31  -8.7745    174.6940    149.3197   7.8650066656e+01   1.6936116009e+01    0.1488747    0.1236426 -86.33 0.0003483706    1.634    0.388
        32 -10.5482    133.8949    145.0737   8.7449070212e+01   2.6167286412e+01    0.9462149    0.2227121 -53.43  0.002152133    6.006    0.833
        33  -8.9694    137.5032    146.2487   8.6796077237e+01   2.5186790612e+01    0.2130712    0.1487101 -62.77 0.0009337856    1.666    0.400
        34 -12.2120     29.5712    143.7352   1.1555432980e+02   4.1923277166e+01    0.3683234    0.3195937 -40.51  0.002382657    1.342    0.255
        35 -10.3304     96.0595    143.8418   9.7246972668e+01   3.3376949759e+01    0.3157071    0.2975149  73.92  0.000752673    1.069    0.065
        36  -9.7948     99.1682    140.8316   9.5781647289e+01   3.3583044447e+01    0.3459845    0.2230646 -20.32  0.001189781    2.526    0.604
        37 -12.1234     84.2796    142.4496   1.0023846726e+02   3.5593530154e+01    0.3104949    0.2606169 -53.91  0.000550386    1.149    0.130
        38 -12.0322    182.3447    215.7702   9.0102508413e+01   3.0344507686e+00    0.5323923    0.2794006  26.54  0.002459827    1.983    0.496
        39  -9.9929    159.1065    134.9475   7.8873457788e+01   2.3213657956e+01     0.273073    0.2122195 -57.42 0.0006758559    1.421    0.296
        40 -10.7991    107.2757    131.7105   9.1557718047e+01   3.4349858074e+01    0.4324794    0.3599613  39.16   0.00149619    1.237    0.191
        41 -11.5178     67.1379    128.4346   1.0249575891e+02   4.1503765507e+01    0.8696159    0.3315743 -66.83  0.002989826    3.038    0.671
        42 -13.4054     60.7524    161.3824   1.0967658327e+02   3.4251973168e+01    0.5324381     0.304548 -45.69  0.001604212    1.996    0.499
        43 -12.9760     31.1717    247.6744   1.2382798639e+02   1.9260766213e+01    0.8836168    0.6573429  43.37  0.006622892    1.375    0.273
        44 -10.6341     95.5279    128.1546   9.4097861146e+01   3.7261745919e+01    0.3422372    0.2651199 -23.65  0.001385483    1.545    0.353
        45  -9.9780    239.4856    126.5304   6.0933642162e+01   8.1370497568e+00     0.139785    0.1222407 -26.19 5.963555e-05    1.010    0.010
        46 -10.3221    115.1728    125.3822   8.7878743869e+01   3.4373249381e+01    0.3266134    0.2366486 -21.02 0.0008505687    1.765    0.433
        47  -9.6865    105.8947    120.1408   8.9236854386e+01   3.7344501226e+01    0.2183663    0.2087718 -26.25 0.0003104426    1.054    0.051
        48  -9.8072    168.2673    113.4008   7.1329403619e+01   2.5699768769e+01    0.3154801    0.2350194 -70.88  0.001381436    1.793    0.442
        49 -10.1015    205.1352    110.6219   6.3080083956e+01   1.7962378670e+01     0.338361    0.2548535  31.12  0.001257453    1.512    0.339
        50 -10.1524    134.4822    104.3021   7.7136184898e+01   3.5158722172e+01    0.5202461    0.1530494 -43.54  0.001511765    3.347    0.701
        51  -9.4528     24.6346     82.6936   1.0727181502e+02   5.6975556618e+01    0.1821818    0.1414999  48.98 0.0002010699    1.621    0.383
        52 -13.1503     87.1710    228.1401   1.1167768751e+02   1.5948423971e+01     1.523396    0.6426381  60.89  0.006116956    3.269    0.694
        53 -12.4421    204.8254     37.9882   4.4496407093e+01   2.9637751009e+01    0.5865325    0.5336738  69.92  0.001995462    1.130    0.115
        54 -10.4635     53.8632    240.4083   1.1927555937e+02   1.7987320463e+01     0.309459    0.2137741  27.86  0.001275947    1.789    0.441
        55 -14.7938      7.1546    239.4320   1.2752262590e+02   2.3224935829e+01     1.979501     1.511701 -74.90    0.0156463    1.487    0.328
        56  -9.6674     29.0129     60.1595   9.9963186317e+01   6.1597067462e+01    0.2366204     0.133491  44.84 0.0009031033    2.560    0.609
        57 -11.0993     13.4211     60.2932   1.0655118976e+02   6.2716729272e+01    0.2273275    0.2086986 -43.15 0.0005567567    1.185    0.156
        58 -10.1772      1.6936     57.9549   1.1093511086e+02   6.3832316736e+01    0.1721727      0.12229 -55.44 0.0005257285    1.098    0.090
        59  -9.8563     34.6844     55.8617   9.6280611992e+01   6.1965079750e+01    0.2071623    0.1737221  21.68 0.0004289612    1.363    0.266
        60  -8.6940    211.0000    202.9748   8.2117060586e+01   3.7071175288e-01    0.1972603   0.07201272 -39.07 0.0005777226    2.796    0.642
        61 -10.8180    133.7729     40.7205   5.7426593501e+01   4.6736376420e+01    0.4202888    0.2887987 -76.30  0.001109714    2.217    0.549
        62 -12.1656     41.0229    235.6504   1.2132160698e+02   2.0402440460e+01    0.2758227    0.2068843  83.54 0.0004083015    1.169    0.145
        63 -11.5386     37.8539    230.6936   1.2157619745e+02   2.1717199884e+01    0.2683941    0.2084533 -64.49 0.0004060543    1.537    0.350
        64  -9.6404    189.5204     15.0371   4.0358774292e+01   3.6023339434e+01    0.1867941    0.1298654 -29.17  0.001023875    1.568    0.362
        65 -10.3410     61.9378    235.4689   1.1736267734e+02   1.7919398115e+01    0.2259055    0.1530598  88.38  0.000618815    1.440    0.306
        66 -10.8566    193.0099    193.3446   8.3889336642e+01   5.0318996580e+00    0.7413251    0.4279105 -55.45  0.003243204    2.550    0.608
