#   1 NUMBER                 Running object number                                     
#   2 MAG_AUTO               Kron-like elliptical aperture magnitude                    [mag]
#   3 X_IMAGE                Object position along x                                    [pixel]
#   4 Y_IMAGE                Object position along y                                    [pixel]
#   5 X_WORLD                Barycenter position along world x axis                     [deg]
#   6 Y_WORLD                Barycenter position along world y axis                     [deg]
#   7 A_WORLD                Profile RMS along major axis (world units)                 [deg]
#   8 B_WORLD                Profile RMS along minor axis (world units)                 [deg]
#   9 THETA_WORLD            Position angle (CCW/world-x)                               [deg]
#  10 FWHM_WORLD             FWHM assuming a gaussian core                              [deg]
#  11 ELONGATION             A_IMAGE/B_IMAGE                                           
#  12 ELLIPTICITY            1 - B_IMAGE/A_IMAGE                                       
         1 -10.9638      1.9005     20.8680   1.0369171751e+02   7.0980124512e+01    0.9332573    0.1380184 -57.62  0.002741591    6.921    0.856
         2 -10.8241      1.9990     39.7766   1.0965621651e+02   6.7359846127e+01    0.4679223    0.2093101 -54.44  0.002648446    1.597    0.374
         3 -11.7038    199.6344     37.2944   4.9081691707e+01   3.0573318348e+01     1.061409    0.7970041   3.46  0.005282265    1.810    0.448
         4 -11.5943    214.9373     24.2328   4.3720803508e+01   2.8426847810e+01      0.97689    0.4832318  50.57   0.00149856    2.273    0.560
         5 -11.7078    226.2194     13.8332   4.0003600362e+01   2.6931232925e+01    0.6659464    0.6123537  86.84  0.002734033    1.146    0.127
         6 -10.5528    224.0083     10.4896   3.9391086639e+01   2.7823857855e+01    0.4279127    0.2470139  79.19  0.001551001    1.650    0.394
         7 -10.2746      2.3748      8.5956   9.8454952635e+01   7.3075370696e+01    0.3464445    0.1613358 -51.55  0.002005846    1.963    0.491
         8  -8.1672     49.3131      3.6521   7.2087559461e+01   6.8591738319e+01    0.1068162   0.09405518 -44.31 0.0007046596    1.718    0.418
         9 -11.0507    116.1896    231.7664   1.1007340489e+02   1.1309134140e+01    0.3216806    0.2701978 -73.92  0.002179504    1.348    0.258
        10 -10.0001    100.8610    250.3167   1.1485512666e+02   1.0479279652e+01    0.3391598    0.1231856  44.31  0.001228115    2.106    0.525
        11 -10.7292     94.3757    246.1360   1.1563087772e+02   1.2110852667e+01    0.3796811    0.2465193  56.72  0.002463324    1.239    0.193
        12  -8.1038     52.8752    250.6777   1.2321613810e+02   1.6878070431e+01    0.1552383    0.0691843  49.84 0.0004115511    1.676    0.403
        13 -11.8486      5.0994    185.5681   1.2771969057e+02   3.4619853734e+01     0.670689    0.3511307  74.96  0.001217001    1.585    0.369
        14 -14.2674      3.3834    140.1352   1.2481818931e+02   4.4799267225e+01     7.296611     1.350654 -77.72   0.02314262    4.956    0.798
        15 -13.9859      6.5287    239.7941   1.3018369294e+02   2.3914913352e+01     2.788661     1.691555 -80.80   0.02101265    1.526    0.345
        16  -7.7194    193.6154    196.3016   8.9263241300e+01   4.1066034799e+00    0.1325774    0.1064854  70.17 0.0007019354    1.784    0.440
        17 -12.7784      9.1099    207.5607   1.2822188157e+02   2.9745648851e+01    0.9189931    0.7901554  35.56  0.004253011    1.624    0.384
        18 -11.8280     34.2820    210.9297   1.2381413907e+02   2.6493627603e+01    0.6641156    0.4888318 -38.13   0.00357927    2.406    0.584
        19 -10.0760     61.7659    182.2428   1.1560665595e+02   2.9274421238e+01     0.394622    0.2685568 -39.03  0.002101034    2.205    0.546
        20 -10.0648     67.1222    176.3582   1.1370838890e+02   2.9884742185e+01    0.2707544    0.2464094 -35.69 0.0005313428    1.472    0.321
        21 -10.3113    132.1211    232.0240   1.0703330107e+02   8.7334662869e+00    0.3477943    0.1346782  47.87  0.001548131    2.255    0.557
        22  -9.4743     45.1666    219.7968   1.2243078684e+02   2.3481738877e+01    0.2011068    0.1814224 -64.87  0.001101976    1.528    0.346
        23  -8.3850     40.1268    177.8222   1.1989284328e+02   3.2878212605e+01    0.1912266    0.1382873  75.94 0.0004982739    1.179    0.152
        24  -9.8143    144.2098    229.7594   1.0439976053e+02   7.1412496065e+00     0.243111    0.1754281  39.25  0.001186221    1.183    0.155
        25  -9.9621     76.6781    166.1190   1.1010969195e+02   3.0898316357e+01    0.3239731    0.2465988 -52.97 0.0003723999    1.417    0.294
        26 -11.6737     63.9741    162.5406   1.1266344571e+02   3.3488077270e+01    0.4863124    0.2878239 -46.26  0.001380782    2.044    0.511
        27 -11.2371     82.7071    159.6196   1.0766914951e+02   3.1525794553e+01    0.7092036    0.5986422  43.19  0.001230764    1.259    0.206
        28 -10.5021     72.5118    155.0468   1.0949332029e+02   3.4091401254e+01    0.5065436    0.3342723 -80.90  0.002587461    1.525    0.344
        29  -9.1711     32.4304    155.7593   1.1939986407e+02   3.8733740519e+01    0.2321185    0.1333944 -66.61 0.0008642357    1.492    0.330
        30 -11.4252     67.7371    144.0927   1.0899878877e+02   3.7372451015e+01    0.7909187    0.4575345  60.05  0.003209079    1.995    0.499
        31  -8.3425    101.0049    141.2487   9.9743464960e+01   3.2919981513e+01    0.3210612    0.1826286 -40.08  0.001334117    2.104    0.525
        32 -13.5250     44.2834    200.4234   1.2106710513e+02   2.7506639708e+01     2.237749     1.003614  65.72  0.009778243    2.302    0.566
        33 -10.5131     85.9842    143.1703   1.0405207414e+02   3.4931826587e+01    0.3866641    0.2926729  44.70 0.0007182192    1.367    0.268
        34  -9.2840     98.2061    144.6174   1.0113079276e+02   3.2598462069e+01    0.2730561    0.2350281 -53.98   0.00102892    1.165    0.142
        35 -10.7908     58.6374    132.5202   1.0953844519e+02   4.1360002963e+01    0.5339854    0.2452967 -74.75  0.002145972    2.463    0.594
        36  -8.8228    106.3307    131.6696   9.6335260326e+01   3.4250588125e+01    0.3145025    0.2071465  70.75  0.001325065    2.088    0.521
        37  -9.1356     82.5803    223.2285   1.1564335454e+02   1.7914320072e+01    0.2126568    0.1119179 -73.25  0.001137544    2.059    0.514
        38  -9.0187     96.4712    128.7910   9.8384860867e+01   3.6670932568e+01    0.2791408    0.2394279 -14.51 0.0007511828    1.449    0.310
        39  -8.9586    109.9734    132.0066   9.5437104382e+01   3.3504993081e+01    0.3022643      0.23253 -20.66  0.001419434    1.722    0.419
        40  -8.0650    106.5347    120.4953   9.3740669545e+01   3.6852997246e+01    0.1510904    0.1434256 -50.87 0.0001213559    1.044    0.042
        41  -9.6601    124.4665    228.9759   1.0813985438e+02   1.0485386061e+01     0.168235    0.1233979 -61.63 0.0006666277    1.590    0.371
        42  -9.4512     38.2608    223.6664   1.2396345256e+02   2.3540057063e+01    0.2438005    0.1674103  25.42  0.001555867    2.150    0.535
        43 -10.2947     47.8102    224.1565   1.2226734548e+02   2.2320119436e+01    0.2691802    0.1991982  86.67 0.0002662463    1.177    0.150
        44  -7.8008     73.0132     83.6936   9.4407097666e+01   5.1022979414e+01    0.2181747    0.1008742  54.96 0.0007031073    4.139    0.758
        45 -10.3548     72.4238    219.0634   1.1720486072e+02   2.0135137753e+01    0.3700268    0.1945878  61.07  0.001996252    1.766    0.434
        46  -9.6337     13.2510     60.3729   1.1014337990e+02   6.2457615040e+01    0.2865486    0.1342892 -63.90 0.0008430763    1.790    0.441
        47  -9.6803    137.6384     44.0050   6.2219131649e+01   4.5395997059e+01    0.4770931    0.3071142 -86.94  0.001703285    2.652    0.623
        48 -10.0897    135.0182    242.6478   1.0777663429e+02   6.5348086067e+00    0.3123022     0.182055 -29.54  0.001509581    3.308    0.698
        49 -11.2368    116.6429    247.6869   1.1173885837e+02   8.5678062564e+00    0.5155392    0.1701776  40.55  0.002322434    2.450    0.592
        50  -9.7042     83.7329    249.5880   1.1783166165e+02   1.3028137389e+01     0.213355   0.09352898  38.87  0.001131843    2.042    0.510
        51 -11.3939    208.5753     31.1693   4.6268330410e+01   2.9133508381e+01     0.768724     0.523378  69.88  0.003688474    1.428    0.299
        52  -8.6259     72.4941    244.4999   1.1939668506e+02   1.5429262929e+01    0.1155473   0.08622963  62.66 0.0008106543    1.009    0.008
        53  -9.8481     65.0246    241.5134   1.2048163079e+02   1.6940953989e+01    0.2742516    0.2049764 -71.05  0.001963805    1.519    0.342
        54  -9.4091     95.3414    224.6586   1.1331749156e+02   1.5783892010e+01    0.2217861    0.1812426 -11.39  0.001231534    2.094    0.522
        55  -9.4509     35.3523    239.7338   1.2548033856e+02   2.0882137509e+01    0.3227267   0.07333312  43.19  0.001513173    3.004    0.667
