#   1 NUMBER                 Running object number                                     
#   2 MAG_AUTO               Kron-like elliptical aperture magnitude                    [mag]
#   3 X_IMAGE                Object position along x                                    [pixel]
#   4 Y_IMAGE                Object position along y                                    [pixel]
#   5 X_WORLD                Barycenter position along world x axis                     [deg]
#   6 Y_WORLD                Barycenter position along world y axis                     [deg]
#   7 A_WORLD                Profile RMS along major axis (world units)                 [deg]
#   8 B_WORLD                Profile RMS along minor axis (world units)                 [deg]
#   9 THETA_WORLD            Position angle (CCW/world-x)                               [deg]
#  10 FWHM_WORLD             FWHM assuming a gaussian core                              [deg]
#  11 ELONGATION             A_IMAGE/B_IMAGE                                           
#  12 ELLIPTICITY            1 - B_IMAGE/A_IMAGE                                       
         1 -12.7669      2.2483    129.1961   1.1473678358e+02   4.7852961147e+01     3.389396    0.6038876 -76.26  0.008762778    6.172    0.838
         2 -13.6263     35.6599    190.6721   1.1210013136e+02   2.9588348330e+01     4.573552     1.765752  71.37   0.01352659    5.262    0.810
         3 -12.1124    206.8176     44.4742   3.8371076010e+01   2.8903604765e+01    0.9473808    0.6622812 -40.77  0.004254695    1.402    0.287
         4 -11.7618    214.3408     39.1533   3.6344413142e+01   2.7986943204e+01    0.8930559    0.5978186 -69.36  0.004472309    1.397    0.284
         5 -11.7115    232.9858     22.7457   3.1198684454e+01   2.6169116731e+01    0.6656637    0.5121427 -63.30  0.002744711    1.062    0.059
         6  -9.8863      1.7355     10.1852   8.6371715426e+01   7.3444311112e+01    0.3730077   0.08255307 -48.31  0.001437791    4.580    0.782
         7  -8.7710    250.3849      2.8076   2.6271190032e+01   2.5041545075e+01    0.3141235    0.1003116 -41.08  0.001644747    2.443    0.591
         8  -9.0457     47.9556    226.6864   1.1259695346e+02   1.9795708850e+01    0.2398452    0.1663371  86.20 0.0007195577    1.389    0.280
         9  -9.2346     81.4278    249.7979   1.0755219127e+02   1.0704292976e+01    0.2570211    0.1911307  44.73   0.00147599    1.137    0.121
        10 -13.0415      8.8352    207.9282   1.1969473690e+02   2.8108198663e+01     1.437997    0.8372681 -69.81  0.003938253    1.580    0.367
        11  -9.0543     45.0127    222.0118   1.1283722567e+02   2.1178600483e+01    0.2889522    0.1615803  83.59  0.001119585    1.923    0.480
        12 -10.5623     83.1503    217.5497   1.0363420112e+02   1.7241188792e+01    0.7665676    0.2936925 -67.60  0.002930901    3.024    0.669
        13 -10.1122     22.5614    223.8893   1.1782564570e+02   2.3216895315e+01    0.3445333    0.1858624  70.59  0.001858913    1.741    0.426
        14  -8.1869     29.4104    218.8076   1.1599850347e+02   2.3635335733e+01    0.1894497    0.1110165 -77.61  0.001043034    1.581    0.367
        15 -10.3352     74.2756    220.1583   1.0601175599e+02   1.7888894170e+01    0.4293424    0.2389709  58.07  0.001066515    1.907    0.476
        16 -10.2500     68.0707    217.9027   1.0719976914e+02   1.9228647942e+01    0.4199492    0.2394132  40.75  0.002112536    1.591    0.371
        17 -11.5652     11.4252    233.9795   1.2070503230e+02   2.2149309438e+01    0.7480469    0.4029754 -87.17  0.002429415    1.660    0.398
        18 -12.5354     95.7599    227.4366   1.0192545808e+02   1.3269667200e+01     1.703094    0.7498851  37.60  0.007492871    1.994    0.499
        19 -10.9921      6.7240    187.8914   1.1881127305e+02   3.2977328791e+01    0.3614991    0.2460269  84.64  0.002170267    1.245    0.197
        20 -10.5680      1.7703    181.2789   1.1950302893e+02   3.4952671584e+01    0.6277613     0.142876 -74.79  0.002271327    3.440    0.709
        21  -9.9965     46.6226    182.6351   1.0845591354e+02   3.0364577782e+01    0.3560573    0.2353195 -56.49  0.001285004    1.494    0.330
        22 -10.3389     56.2299    175.4205   1.0500292821e+02   3.1036698588e+01    0.4804958    0.3073083 -28.71  0.001347485    2.242    0.554
        23 -10.2083     61.8242    170.2857   1.0275246962e+02   3.1638294417e+01    0.3330339    0.2755593 -31.79 0.0005857449    1.411    0.291
        24  -9.6735      2.2194    169.2485   1.1849938153e+02   3.7848559383e+01    0.3661148    0.1862572 -84.41  0.001509454    1.687    0.407
        25  -9.0840      8.2486    167.9895   1.1687130313e+02   3.7717035042e+01    0.2016264    0.1819798  52.20 0.0007320892    1.234    0.190
        26  -9.6301     84.5514    163.8814   9.5355715648e+01   3.0058182613e+01    0.3220662    0.1818116  49.80  0.001329886    1.951    0.488
        27  -9.9161      1.9533    160.5772   1.1786437098e+02   4.0009840325e+01    0.6134268    0.1372969 -75.09  0.002101559    3.570    0.720
        28  -9.9724     72.5079    161.1077   9.8297966094e+01   3.2552576987e+01    0.3390233     0.288701 -44.24 0.0004692176    1.212    0.175
        29 -10.9898     80.0887    154.6378   9.4962740494e+01   3.3114350026e+01    0.8676487    0.5366957 -34.59  0.002104495    1.984    0.496
        30 -12.0504     68.7406    145.5507   9.6655758973e+01   3.7121455224e+01     1.184593    0.7237195  88.87  0.004387315    2.405    0.584
        31  -8.6522     32.6838    157.3028   1.0914647135e+02   3.8319519309e+01    0.2157938    0.1563916 -73.51 0.0004985731    1.215    0.177
        32 -11.7148     59.1848    156.8223   1.0144254627e+02   3.5461785887e+01      0.53811    0.3130283 -39.34  0.001334096    2.014    0.504
        33  -8.9265      1.8645    151.0506   1.1705540180e+02   4.2390964989e+01    0.2635528     0.142777 -81.39 0.0006361022    1.562    0.360
        34  -9.4730     36.3408    160.3437   1.0849984875e+02   3.7169571387e+01    0.4186867    0.2417399  65.83  0.001823819    2.042    0.510
        35  -9.8791     42.2287    209.5497   1.1234649356e+02   2.4345699215e+01    0.3845997    0.2000898 -85.74  0.001183039    2.011    0.503
        36 -10.6204     83.2746    139.6768   9.1071033552e+01   3.6475477840e+01     0.343293    0.2780798 -44.94 0.0004834734    1.203    0.168
        37  -8.6144     95.4910    141.4913   8.7789008538e+01   3.4003178380e+01    0.2692458    0.2035171  33.14  0.000841927    1.378    0.274
        38  -8.7503     97.9684    138.5398   8.6408742404e+01   3.4319832005e+01    0.3920283    0.2649136  -7.89  0.001553359    2.288    0.563
        39 -10.0295     20.6300    195.1488   1.1611804863e+02   3.0015227489e+01    0.3122534    0.1933705  69.93 0.0006890098    1.522    0.343
        40  -9.2130    106.8855    130.8945   8.2019179993e+01   3.4611137050e+01    0.3763877    0.3223768   6.47  0.001113244    1.311    0.237
        41  -9.7077     68.1838    130.1405   9.3798419627e+01   4.1185130370e+01    0.2886083    0.2252969  39.69 0.0008403339    1.367    0.269
        42  -9.2063     65.9947    127.2171   9.3892985830e+01   4.2240583438e+01    0.2049458    0.1966501  30.39 0.0004655358    1.120    0.107
        43  -9.9489     56.9959    128.3458   9.7056565595e+01   4.3144508981e+01    0.3640358     0.204852 -59.57  0.001605169    1.614    0.381
        44 -13.9867     20.7941    245.6279   1.1953755181e+02   1.8807161346e+01     4.779697     1.452655  26.78   0.01921414    4.110    0.757
        45  -9.3902     60.3511    122.4098   9.4733838699e+01   4.4230862759e+01    0.3537288    0.2139443  55.87 0.0007937791    2.193    0.544
        46  -8.2126    161.7820    119.1018   6.4689965694e+01   2.6031267592e+01    0.4601467    0.2493926 -71.87  0.001089281    6.584    0.848
        47  -8.2726    105.1511    119.1480   7.9642956976e+01   3.7778466562e+01    0.2327754    0.2037351  -9.89 0.0004603229    1.243    0.195
        48  -7.9051    205.7409    110.5976   5.3918027731e+01   1.8407176064e+01     0.181013    0.1383059  69.33 0.0006454597    1.541    0.351
        49 -11.4688     26.3354    201.5817   1.1531986469e+02   2.7927264719e+01    0.4984862    0.3796839 -32.26 0.0009513789    1.824    0.452
        50  -8.8300     52.2871     91.0253   9.0163275378e+01   5.2937108769e+01    0.2090872    0.1746095 -44.05  0.001161505    1.092    0.084
        51 -10.4688      1.8205     85.1459   1.0866027943e+02   5.8631576959e+01    0.6394966    0.1175473 -65.93  0.002145944    3.802    0.737
        52 -10.1731      2.3085     76.5897   1.0685910331e+02   6.0582031280e+01    0.4617399    0.1170309 -65.64   0.00172721    3.176    0.685
        53  -8.7839     57.7064     76.0250   8.3786832004e+01   5.5544198506e+01    0.2042295     0.174612 -33.69 0.0007511189    1.083    0.077
        54  -9.5528      2.0519     64.4840   1.0439470308e+02   6.3288586230e+01     0.297525   0.08066421 -49.04  0.001266338    2.434    0.589
        55  -9.4082     13.3400     59.9380   9.8080701802e+01   6.3606561650e+01    0.1853979    0.1652528   6.75 0.0005298348    1.278    0.218
        56 -11.1358    109.2062    229.9642   9.9181549656e+01   1.0756631411e+01    0.9202562    0.5155426  61.45  0.004025588    2.453    0.592
        57 -11.4639    114.7304    228.7087   9.7756999390e+01   1.0183898367e+01    0.8393828    0.3843781  50.05  0.003458154    2.445    0.591
        58 -11.3705    222.1340     32.4500   3.4123745823e+01   2.7201893269e+01    0.6150963    0.4523399  49.45  0.002301358    1.777    0.437
        59 -10.7280    197.9653     52.7118   4.1396278530e+01   2.9713047075e+01    0.4297206    0.2020378 -45.04  0.001971049    1.965    0.491
        60  -8.0965     29.3437     53.0815   8.8496503331e+01   6.3639788272e+01    0.1725883    0.1406655 -29.94 0.0004342382    1.076    0.071
        61  -8.3781     12.3686     53.2797   9.6642668205e+01   6.5046966958e+01    0.1340668   0.07329735 -27.14 0.0007012088    1.688    0.407
        62  -9.9542      1.8438     48.3027   1.0038567864e+02   6.6689352075e+01    0.3288486    0.1194444 -55.40  0.001578409    2.137    0.532
        63  -9.0656    127.7606     35.5108   4.8330622199e+01   4.8427232447e+01    0.2621802    0.2068952 -72.32 0.0007566992    1.511    0.338
        64  -7.7076    130.4953     30.3969   4.6138926455e+01   4.8398895884e+01    0.1339896    0.1182523  65.47 7.759315e-05    1.041    0.040
        65  -9.0841     32.0956    232.8777   1.1646222507e+02   2.0260876367e+01    0.2797671    0.1477097  85.31 0.0009824085    1.916    0.478
        66 -10.0460      1.9961     23.2806   9.1908770297e+01   7.1334874302e+01     0.239516      0.14425 -53.81   0.00146587    1.818    0.450
        67 -10.9372    127.0636    230.8781   9.5264845593e+01   7.8680908997e+00    0.4151932    0.3315024  14.62  0.002376088    1.299    0.230
