#   1 NUMBER                 Running object number                                     
#   2 MAG_AUTO               Kron-like elliptical aperture magnitude                    [mag]
#   3 X_IMAGE                Object position along x                                    [pixel]
#   4 Y_IMAGE                Object position along y                                    [pixel]
#   5 X_WORLD                Barycenter position along world x axis                     [deg]
#   6 Y_WORLD                Barycenter position along world y axis                     [deg]
#   7 A_WORLD                Profile RMS along major axis (world units)                 [deg]
#   8 B_WORLD                Profile RMS along minor axis (world units)                 [deg]
#   9 THETA_WORLD            Position angle (CCW/world-x)                               [deg]
#  10 FWHM_WORLD             FWHM assuming a gaussian core                              [deg]
#  11 ELONGATION             A_IMAGE/B_IMAGE                                           
#  12 ELLIPTICITY            1 - B_IMAGE/A_IMAGE                                       
         1 -14.2200      2.3401     91.9482   1.4381034679e+02   5.5626809304e+01     3.460752    0.2537663 -71.95  0.006804682   13.694    0.927
         2 -14.8708      3.1464    132.1220   1.4786344913e+02   4.6879090257e+01     2.730999    0.6827109 -73.75   0.01206334    2.911    0.656
         3 -13.8821    192.4019     25.1434   7.3557087623e+01   3.3917914335e+01     1.409012     1.214501  43.03  0.007699252    1.202    0.168
         4 -13.6075    208.0233      5.5257   6.5957424364e+01   3.1951405307e+01     1.229746    0.9235301  48.27  0.006705861    1.411    0.291
         5 -12.4390      2.6526     19.5389   1.2803341429e+02   7.0478816664e+01    0.6733045    0.0987179 -55.62   0.00248271    4.258    0.765
         6 -12.2884      2.2908      4.1562   1.2209104353e+02   7.3167090774e+01    0.4663883    0.3395285 -24.89  0.003594267    1.126    0.112
         7 -12.2506    171.8583      3.3150   6.9486330063e+01   4.1556790362e+01    0.4876141    0.3147013 -86.62  0.002325663    1.757    0.431
         8 -11.4734     29.4412    249.6512   1.5062738262e+02   2.2243992016e+01     0.267019    0.1844498  43.39  0.002192445    1.650    0.394
         9 -12.6052    140.9839    249.1613   1.3304348761e+02   7.4723444972e+00    0.4430427    0.2701161  55.50   0.00290263    1.400    0.286
        10 -12.8600    127.9905    246.4829   1.3491288663e+02   9.8258628758e+00    0.4987727    0.2932782  61.17  0.003154615    1.613    0.380
        11 -11.3613     29.5708    244.2973   1.5034747549e+02   2.3075429371e+01     0.345082    0.1344019  66.92  0.001825893    2.159    0.537
        12 -12.2454     19.1711    247.9875   1.5203268494e+02   2.3581165525e+01    0.4448571    0.2103419  39.70  0.003104319    2.170    0.539
        13  -9.1289     66.4824    243.4917   1.4464908080e+02   1.8888635681e+01    0.1070882   0.07436029  65.24 2.052895e-05    1.037    0.036
        14 -12.6919     51.4564    219.3885   1.4538487313e+02   2.4774917307e+01    0.8210993    0.4672599 -78.84  0.005538341    1.647    0.393
        15 -12.7732     37.8572    238.2214   1.4877716018e+02   2.3149459862e+01    0.2753975    0.2106314  80.43 0.0007906955    1.208    0.172
        16 -13.9406     42.7209    231.4796   1.4762142454e+02   2.3717087967e+01    0.7751306    0.4499583  54.83  0.003423129    1.326    0.246
        17 -13.4455    120.0693    231.8368   1.3472322320e+02   1.3209381333e+01     1.106883    0.2006323  44.00  0.003926609    4.195    0.762
        18  -9.8770     74.3876    229.6863   1.4232178092e+02   2.0113702049e+01    0.2423517    0.1271805  67.78 0.0007777751    1.779    0.438
        19 -10.8547      3.7685    228.1801   1.5344844105e+02   2.8302831303e+01    0.2111156    0.1481805  56.64  0.001824541    1.323    0.244
        20 -10.1971      1.9824    238.7417   1.5411832696e+02   2.6732788976e+01    0.1582126   0.09448108 -77.02  0.001290064    1.678    0.404
        21  -9.2336    124.5748    222.4987   1.3288820764e+02   1.3980999505e+01    0.1183537   0.09528281  57.59 0.0001084124    1.012    0.012
        22 -11.7050    182.9395    234.9986   1.2424889623e+02   2.6474749704e+00    0.4167725    0.2677337 -84.51   0.00180331    4.859    0.794
        23  -9.9069     21.2911    211.5993   1.4990829449e+02   2.9487129061e+01    0.1586667    0.1188367  46.47  0.001263028    1.513    0.339
        24 -12.1588     10.3711    207.0288   1.5145221130e+02   3.1370630116e+01    0.4180221    0.2954686  35.55  0.002592509    1.858    0.462
        25 -11.3158     63.4070    202.8701   1.4195126940e+02   2.6297485299e+01    0.2185504    0.1751998 -83.87 0.0006020633    1.227    0.185
        26  -8.7100    135.2915    198.7037   1.2782699768e+02   1.6197608747e+01     0.125659   0.08923046  71.12 0.0003115356    1.558    0.358
        27 -11.6638     69.5477    194.0984   1.3997006739e+02   2.7165128674e+01    0.2241711    0.1841493 -84.06 0.0004824097    1.191    0.160
        28 -12.8814     66.2411    179.0922   1.3904262590e+02   3.0569482839e+01    0.4314733    0.2638213 -47.35  0.001761853    2.243    0.554
        29 -10.4998     79.4011    180.5023   1.3653686011e+02   2.8498529258e+01    0.2139767    0.1783962  77.78  0.001153706    1.014    0.014
        30 -11.3589     86.0177    171.8130   1.3406814956e+02   2.9314518946e+01    0.3970728    0.3091213 -52.65  0.002443705    1.491    0.329
        31 -11.5007    248.5713    245.7572   1.1506185517e+02  -8.7276449502e+00    0.3386646    0.2000599 -47.46  0.001909694    3.565    0.720
        32 -10.2799    174.5059    249.5051   1.2754190394e+02   2.1992364705e+00    0.1139287   0.08591938  41.97 0.0008106322    1.009    0.008
        33  -9.7700     98.5578    154.5211   1.2876208768e+02   3.1013699130e+01    0.2358845    0.2121388  80.82 0.0007299708    1.020    0.020
        34 -11.6194     87.4238    153.8434   1.3118050605e+02   3.2894463243e+01    0.2541787    0.2294572 -58.21 0.0005107969    1.244    0.196
        35  -9.1308    101.5148    150.0517   1.2733815179e+02   3.1488899053e+01    0.1926713    0.1268188 -59.46 0.0003500125    1.482    0.325
        36 -12.0088     67.1771    143.7068   1.3433299120e+02   3.7970198257e+01    0.5877547    0.3579482  64.86  0.002645987    1.788    0.441
        37  -9.5605    109.8104    138.8783   1.2335406329e+02   3.2490943018e+01     0.370721    0.2151669 -26.99  0.001248936    3.631    0.725
        38 -10.2781     97.3649    136.0300   1.2580209884e+02   3.5222749068e+01    0.2198291    0.1982518  40.15 0.0004901036    1.239    0.193
        39 -10.0094     55.6384    131.4909   1.3529663787e+02   4.2137275569e+01    0.2431229    0.1839002  72.75  0.000774444    1.317    0.241
        40  -9.0657    107.0933    124.9956   1.2119287061e+02   3.6001184452e+01    0.1608409    0.1517729 -89.52 0.0003487823    1.027    0.026
        41  -9.6653     38.4957    121.5441   1.3814246950e+02   4.6243593047e+01    0.1233261   0.09982049 -78.89 0.0001037193    1.008    0.008
        42  -8.6588    168.2896    113.6134   1.0399789409e+02   2.5759853820e+01     0.159173    0.1202912 -73.06 0.0007011723    1.757    0.431
        43  -9.2474     48.6200    100.3057   1.3186734225e+02   4.9980993663e+01    0.1305999   0.08971154  75.61 0.0007025192    1.783    0.439
        44 -14.0924      6.9140    154.7682   1.4886640944e+02   4.1836505831e+01     1.229931    0.7471014  86.34  0.008409514    1.279    0.218
        45 -10.2104     89.2322    250.3996   1.4156347140e+02   1.4834474558e+01    0.1569192    0.0708109  52.09 0.0009486119    1.654    0.395
        46 -10.5216     98.1327    249.0276   1.4002985509e+02   1.3811501140e+01    0.2675308    0.1426658  25.32  0.001105938    5.344    0.813
        47 -10.7044     81.4242    249.1424   1.4270152764e+02   1.6073439925e+01    0.2137666   0.09424832  64.16  0.001204235    2.240    0.554
        48 -10.7598     13.2539    242.4657   1.5264830533e+02   2.5052137543e+01     0.246105    0.1077693  85.99  0.001686372    1.918    0.479
