#   1 NUMBER                 Running object number                                     
#   2 MAG_AUTO               Kron-like elliptical aperture magnitude                    [mag]
#   3 X_IMAGE                Object position along x                                    [pixel]
#   4 Y_IMAGE                Object position along y                                    [pixel]
#   5 X_WORLD                Barycenter position along world x axis                     [deg]
#   6 Y_WORLD                Barycenter position along world y axis                     [deg]
#   7 A_WORLD                Profile RMS along major axis (world units)                 [deg]
#   8 B_WORLD                Profile RMS along minor axis (world units)                 [deg]
#   9 THETA_WORLD            Position angle (CCW/world-x)                               [deg]
#  10 FWHM_WORLD             FWHM assuming a gaussian core                              [deg]
#  11 ELONGATION             A_IMAGE/B_IMAGE                                           
#  12 ELLIPTICITY            1 - B_IMAGE/A_IMAGE                                       
         1 -11.0819      2.0296     42.4867   1.1408977852e+02   6.9016312915e+01     1.807887    0.1559252 -74.90  0.003468248   12.057    0.917
         2 -10.4852      2.1396     20.4198   1.0858812905e+02   7.4169365511e+01    0.8223377    0.1637472 -70.42  0.002578622    4.897    0.796
         3 -10.1423      2.0000      5.8405   1.0305013507e+02   7.7345722282e+01    0.6625131    0.1616203 -62.94  0.002528932    3.474    0.712
         4 -11.7907    209.0693     33.9262   4.4078808983e+01   2.8847381142e+01    0.9885964    0.6065049 -34.49  0.004276184    1.443    0.307
         5 -11.2129    216.7685     26.4328   4.1304396496e+01   2.7943229780e+01    0.6883847    0.5106442   4.87  0.001180461    1.747    0.428
         6 -11.7670    226.5231     16.2362   3.7853383304e+01   2.6857770822e+01    0.7516373    0.5881946 -43.88  0.002739608    1.084    0.077
         7  -9.7363    145.4728    229.6523   9.7811046035e+01   9.9845943867e+00     0.218604   0.08684341  34.84  0.001097558    1.971    0.493
         8  -9.5606     50.3283    250.2443   1.1781549829e+02   1.8598274213e+01    0.5558535   0.09968655  32.54  0.002273652    3.892    0.743
         9 -11.3416     96.6550    246.1229   1.0883434555e+02   1.3928922779e+01    0.6988006    0.2469777  28.10  0.003200318    2.933    0.659
        10 -11.9934     79.1302    245.1270   1.1210066764e+02   1.6180899274e+01    0.9894654    0.5782888  11.92  0.005418261    2.840    0.648
        11 -10.4673     84.7235    249.1712   1.1132411259e+02   1.4907764971e+01    0.6326119    0.2466565  27.58   0.00250667    2.599    0.615
        12  -9.3128     74.2896    250.4851   1.1337214391e+02   1.5922563088e+01    0.5643651   0.08499184  33.74  0.002090716    4.362    0.771
        13 -10.7640     60.6475    249.6419   1.1587004920e+02   1.7581018567e+01    0.5828788    0.2840893  35.63  0.002374504    1.545    0.353
        14  -9.8668     69.6770    247.2290   1.1403372851e+02   1.6947011847e+01    0.2841217    0.1900204  44.20  0.001561763    1.082    0.075
        15 -10.7132     83.7568    227.2384   1.0984161407e+02   1.8498830406e+01    0.4983864    0.2629335 -75.86  0.002663163    2.455    0.593
        16 -10.8761     88.0871    227.0451   1.0894624060e+02   1.7991272866e+01    0.5744882    0.2985992  82.44  0.002844812    3.243    0.692
        17 -11.5943     32.7206    247.5527   1.2093557015e+02   2.0821377362e+01    0.8275287    0.4426728  34.78  0.005686801    1.505    0.336
        18 -10.4618     34.1936    238.2109   1.2028928410e+02   2.2202677331e+01    0.4284951    0.1874691  29.29   0.00204074    2.088    0.521
        19 -10.5447     41.3374    236.2508   1.1883803649e+02   2.1805798547e+01    0.2505947    0.1725827  54.92 0.0004951813    1.094    0.086
        20  -9.5265     38.6926    232.0327   1.1915182181e+02   2.2793644688e+01    0.2093878    0.1877818  36.24 0.0003391028    1.352    0.261
        21 -11.9960     22.3341    223.8359   1.2201301966e+02   2.5836811612e+01     1.079821    0.3991067  58.80  0.003646513    2.166    0.538
        22 -13.9226      6.2521    140.3657   1.2210615275e+02   4.4628337266e+01     7.863892     1.432659 -88.44   0.02056103    7.167    0.860
        23 -10.1546     49.3386    217.1003   1.1620685993e+02   2.4310674807e+01    0.3709979    0.1753951  59.95  0.002068107    1.929    0.482
        24  -9.0446     48.5965    225.0641   1.1682684392e+02   2.2963288091e+01    0.1913317    0.1324929  37.29 0.0004006314    1.252    0.201
        25  -8.0886     93.9454    220.9907   1.0720692581e+02   1.8259414168e+01    0.1432974    0.1133339  43.68  0.000793252    1.003    0.003
        26  -8.9108    124.3951    219.6903   1.0081710433e+02   1.4376078946e+01    0.1931464     0.119406 -63.97  0.001133432    2.189    0.543
        27 -10.0013     45.4762    220.7746   1.1721906983e+02   2.4062229629e+01    0.3213709    0.1761319  75.70  0.001958576    1.857    0.461
        28  -9.9756    165.2502    222.0054   9.3080764534e+01   8.3230532105e+00    0.2329636    0.1738565 -17.91  0.001575168    1.520    0.342
        29 -11.7210     32.9771    207.9893   1.1914023248e+02   2.7730609117e+01    0.5436775     0.453027 -26.89  0.001353255    1.846    0.458
        30 -10.8903     21.5238    194.3347   1.2096245029e+02   3.1514455755e+01    0.4591042    0.1927768  67.31  0.002370454    2.185    0.542
        31  -7.8315     72.4471    188.4463   1.0882752878e+02   2.7102931358e+01    0.1261854    0.1048848  54.31   0.00010519    1.008    0.008
        32  -7.5168    193.3568    191.3216   8.3205552833e+01   8.4988146452e+00    0.1306877   0.08297051   6.88 0.0007045354    1.763    0.433
        33 -10.1567     60.7126    180.2404   1.1084303063e+02   3.0271170463e+01    0.3860467    0.2820791 -26.32  0.002157861    2.113    0.527
        34 -10.0977     66.1562    174.6117   1.0894601427e+02   3.0798072638e+01    0.2829714    0.2467905 -30.47 0.0008395798    1.507    0.336
        35 -13.4778      5.6157    241.6631   1.2567677546e+02   2.4281852581e+01     1.835459     1.137605  86.64   0.01420386    1.593    0.372
        36  -9.9420     75.9405    164.8090   1.0534424084e+02   3.1647687329e+01    0.2561451    0.2438306  35.10 0.0004929359    1.174    0.148
        37 -11.6867     80.3990    157.9198   1.0327910968e+02   3.2557429974e+01     1.221793    0.6146187  48.09  0.003289019    1.878    0.468
        38 -11.4577     68.3201    144.4704   1.0472989388e+02   3.7337010087e+01    0.7714325    0.4853906  66.67  0.003111238    1.742    0.426
        39 -11.6773     63.0742    160.9308   1.0824716522e+02   3.4211410061e+01    0.4815205    0.3059316 -44.90  0.001465775    1.993    0.498
        40  -9.2300     32.4759    156.9694   1.1602190582e+02   3.8557937369e+01    0.2619107    0.1104852  89.93  0.001133282    2.540    0.606
        41  -9.5157     22.5737    156.6295   1.1862976862e+02   3.9556528506e+01    0.2136775    0.1892682  55.25 0.0008760841    1.153    0.133
        42 -12.0315      2.4193    179.3117   1.2467998528e+02   3.6216543198e+01     2.377029    0.2713916 -83.82  0.001660476    8.404    0.881
        43  -9.3025     32.3359    143.6309   1.1493832488e+02   4.1705245967e+01    0.3195494    0.1729455 -76.13  0.001628106    1.704    0.413
        44  -9.7656     98.8472    142.2246   9.5855775508e+01   3.3268676143e+01    0.5985504     0.360923 -20.43  0.002186917    3.527    0.717
        45 -10.5080     85.6597    142.2176   9.9494281762e+01   3.5366081261e+01    0.2899195    0.2702629 -30.75 0.0004419626    1.247    0.198
        46 -10.4576     57.5356    127.9204   1.0554978410e+02   4.2749617304e+01    0.5140235     0.257948 -86.08  0.002061426    2.543    0.607
        47 -12.6548      9.6978    207.1781   1.2398543537e+02   3.0047661824e+01    0.8689389    0.6745159  17.43  0.004867481    1.659    0.397
        48  -8.4899    116.1936    125.5931   8.7850796860e+01   3.3948738720e+01    0.2125114    0.1405343  30.27 0.0009557321    1.654    0.395
        49  -8.7108     96.4376    128.1239   9.3893718857e+01   3.6910046367e+01    0.2738369    0.2265651 -12.74  0.001139373    1.553    0.356
        50  -8.1473    106.3556    120.0854   8.9373374961e+01   3.7016485277e+01    0.2028902    0.1827241 -54.69 0.0004316805    1.125    0.111
        51  -9.0758    107.8051    131.6787   9.1412365321e+01   3.4119284966e+01    0.5018146    0.2585906  42.33   0.00174991    1.862    0.463
        52  -7.7790    168.4777    113.5002   7.2333916333e+01   2.5803254866e+01    0.1441609    0.1408935 -27.27 0.0008095091    1.062    0.058
        53  -8.3676    205.9329    110.5369   6.4535427993e+01   1.8595815243e+01    0.1948956     0.136666  48.92 0.0005152564    1.544    0.352
        54 -13.5629     40.8893    195.7077   1.1670423131e+02   2.9322949615e+01      3.30004    0.9256096  57.74   0.01230624    3.964    0.748
        55  -8.0790    134.3123    103.3197   7.7674719659e+01   3.5113170568e+01    0.1545956    0.1217971   0.92 0.0002859512    1.649    0.393
        56  -9.4678     33.5337    227.4236   1.1995254259e+02   2.4115177920e+01    0.2081289    0.1200154 -73.25  0.001380905    1.963    0.491
        57  -9.7386     13.2578     60.1398   1.1142082698e+02   6.4147859305e+01    0.2242455    0.1904177 -66.22 0.0007091244    1.002    0.002
        58 -10.5509    114.1496    242.9196   1.0522183531e+02   1.2215737777e+01    0.3118572    0.2137487 -52.04  0.001932616    1.913    0.477
        59  -9.2323     53.1009    240.3809   1.1678867169e+02   1.9877062872e+01     0.151478    0.1360691  77.64 0.0005803066    1.315    0.239
        60  -9.1538     61.8772    235.6311   1.1481307813e+02   1.9688830639e+01    0.1852088    0.1300995  66.30 0.0004214576    1.329    0.248
        61  -7.6922    136.5146     43.4709   5.8229457407e+01   4.5777258510e+01    0.1500573    0.1467269 -77.47 0.0002598361    1.014    0.014
        62 -11.7327    200.8703     39.3802   4.6508738520e+01   3.0106891134e+01    0.6782459    0.5371907  71.17  0.003095479    1.333    0.250
        63 -12.2487    115.9066    231.6173   1.0379324091e+02   1.3669519984e+01    0.6970703    0.3947186  38.73  0.004279417    1.356    0.263
        64 -11.8545    126.8007    230.7630   1.0156104192e+02   1.2349014202e+01    0.5200354    0.4351892  62.49     0.003806    1.394    0.282
