#   1 NUMBER                 Running object number                                     
#   2 MAG_AUTO               Kron-like elliptical aperture magnitude                    [mag]
#   3 X_IMAGE                Object position along x                                    [pixel]
#   4 Y_IMAGE                Object position along y                                    [pixel]
#   5 X_WORLD                Barycenter position along world x axis                     [deg]
#   6 Y_WORLD                Barycenter position along world y axis                     [deg]
#   7 A_WORLD                Profile RMS along major axis (world units)                 [deg]
#   8 B_WORLD                Profile RMS along minor axis (world units)                 [deg]
#   9 THETA_WORLD            Position angle (CCW/world-x)                               [deg]
#  10 FWHM_WORLD             FWHM assuming a gaussian core                              [deg]
#  11 ELONGATION             A_IMAGE/B_IMAGE                                           
#  12 ELLIPTICITY            1 - B_IMAGE/A_IMAGE                                       
         1 -11.4828     80.3271     23.4090   8.2672764727e+01   5.9473310074e+01    0.5750511    0.2363462  37.56 0.0006720931    2.293    0.564
         2  -9.4354     27.4958     22.6349   1.0177401886e+02   6.7472200946e+01    0.5283539    0.2374053 -13.22  0.002250224    3.750    0.733
         3  -9.1673     46.2472     20.8996   9.3325973308e+01   6.5327920405e+01    0.3389992    0.1754526 -24.12  0.001745351    1.920    0.479
         4  -8.6139      9.7886     19.7968   1.0874328568e+02   6.9577420183e+01    0.2659272    0.1404431  -7.12   0.00126086    1.944    0.485
         5  -9.4724     63.8964     14.3701   8.4351853876e+01   6.3304262735e+01    0.3933413    0.1897333  26.74  0.001829459    2.201    0.546
         6  -9.6712    133.8684     13.6058   6.6990944752e+01   4.9227224326e+01    0.2829596     0.197649  50.67 0.0003216096    1.255    0.203
         7  -9.3431    130.1546     10.1514   6.6627118076e+01   5.0372857050e+01    0.3000238    0.2528414  10.93  0.001098303    1.411    0.291
         8  -8.2708    129.4952      6.5122   6.5664875186e+01   5.0829333916e+01    0.2543584    0.1006573  47.54 0.0009601011    2.239    0.553
         9  -8.7470    125.0922     10.3419   6.7597820261e+01   5.1485700870e+01    0.2433715    0.1572083  33.98 0.0004129724    1.658    0.397
        10  -9.3304     76.2178      5.7170   7.7195813696e+01   6.1909701795e+01    0.3786758    0.2637825 -13.03  0.001725845    1.552    0.356
        11 -10.0780     77.5227     13.0573   7.9622223290e+01   6.1027400793e+01    0.6809431    0.1967734  49.82  0.002759206    2.813    0.645
        12  -8.7930     71.6805      9.0298   7.9795335452e+01   6.2452981493e+01    0.1976867    0.1295184  30.20 0.0006028386    1.295    0.228
        13  -8.5018     96.8838     12.4790   7.4273594702e+01   5.7321090118e+01     0.320612    0.1573186  28.30  0.001245336    2.463    0.594
        14  -7.9354    113.0251     11.2645   7.0247994590e+01   5.4045594273e+01    0.2419972    0.1319183  20.71  0.001163286    2.574    0.611
        15  -9.3818     31.5286     11.0403   9.5157386068e+01   6.8405731692e+01    0.3946107    0.1883913  22.51 0.0003565506    2.043    0.510
        16  -9.5349     32.2215      6.3481   9.2796474409e+01   6.8820182241e+01     0.296656    0.1992278  25.84 0.0002477094    1.277    0.217
        17  -9.1119     40.7726      6.2408   8.9271933842e+01   6.7677799213e+01    0.2748555    0.1534682  -5.46 0.0009273004    1.890    0.471
        18 -10.2555      7.5323      5.4689   1.0380261734e+02   7.1624497800e+01     0.492055    0.1963533  14.70  0.002554428    2.950    0.661
        19  -8.9537    119.2865      6.8635   6.7613691789e+01   5.3057056390e+01    0.2238035    0.1545216  48.29 0.0002103443    1.229    0.186
        20  -8.4032     99.8981      6.4109   7.1473352760e+01   5.7215776110e+01    0.1811015    0.1654176 -37.93 0.0005857215    1.359    0.264
        21  -9.7987     84.8300      5.5777   7.4819166794e+01   6.0292792807e+01    0.2315018    0.1916523  22.01 0.0001254429    1.131    0.116
        22  -9.2366     46.7751      6.2949   8.7002875531e+01   6.6800946628e+01    0.2129484    0.1622722  18.50 0.0003955798    1.030    0.029
        23  -9.1911     92.4941      5.1704   7.2762709076e+01   5.8817614022e+01    0.3821221    0.1730689  52.13  0.002005954    1.744    0.427
        24  -9.1056    111.1439      3.3180   6.8066744011e+01   5.5096740965e+01    0.2940701    0.2033614 -56.96  0.001752117    1.969    0.492
        25  -8.4098    152.1946      3.6486   6.1364308859e+01   4.5925685335e+01    0.3501063   0.03597201  59.26  0.001112003    4.368    0.771
        26  -8.4284    134.2031      3.1711   6.3909173209e+01   5.0046465291e+01    0.1838229    0.1376555  50.39 0.0003489195    1.201    0.167
        27  -8.8141     56.6441      3.2977   8.2240577695e+01   6.5524368408e+01    0.4297602    0.1207096  43.79  0.001947029    2.775    0.640
        28  -7.7721    155.8836      7.1790   6.1780082383e+01   4.4771898071e+01    0.1692005    0.1242378  52.33 0.0003626976    1.308    0.235
        29  -8.2708    143.1485      2.1371   6.2245857916e+01   4.8111053060e+01     0.177369    0.1369926  55.46 0.0003097554    1.159    0.137
        30  -8.1130    105.9202      1.5108   6.8529145437e+01   5.6339210323e+01    0.1947008   0.09711869  58.85  0.001043089    1.623    0.384
        31  -7.9942      2.7335      1.3909   1.0439395604e+02   7.2527276448e+01    0.1383423    0.0747786   9.26  0.000501875    1.637    0.389
        32  -7.6818     94.1806    103.1828   1.0406917979e+02   4.3743804272e+01    0.3210463    0.1138735  33.72  0.001012232    3.478    0.712
        33 -12.0029    237.0552    247.0797   1.0137118023e+02  -1.2652606049e+01    0.2557111    0.2202488   4.09 0.0003953002    1.148    0.129
        34 -10.1600    209.2306    249.9713   1.0710439199e+02  -9.1079837996e+00     0.480107     0.152415  32.08  0.001827176    3.239    0.691
        35  -7.4590    129.8249     97.3619   9.2463902354e+01   3.7801369638e+01    0.2231801    0.1383595  37.37 0.0009448107    1.735    0.424
        36  -9.4886     15.8276     94.6340   1.2771332946e+02   5.5479227035e+01     0.237983    0.2234522 -35.43 0.0008883507    1.171    0.146
        37  -9.8764     12.1960     94.0052   1.2881789902e+02   5.5866650841e+01    0.4122214    0.1846207 -41.46  0.001783068    1.969    0.492
        38  -7.1992    172.2998     93.2738   8.1594497301e+01   2.8836808281e+01    0.1430155    0.1198902  19.46 0.0002512316    1.532    0.347
        39  -7.2006     83.4852     93.4755   1.0470862640e+02   4.7678087756e+01    0.1440218    0.1316587 -17.84 0.0001242349    1.049    0.046
        40  -8.8793     44.0084     92.2060   1.1749011363e+02   5.3458886356e+01    0.3079003    0.1631225 -27.14   0.00136904    2.359    0.576
        41  -8.3767     96.9715     90.3809   9.9676145282e+01   4.5919192148e+01    0.4674609    0.2850433   9.68  0.001759657    2.956    0.662
        42  -8.0295    110.4131     90.8718   9.5895669597e+01   4.3202617206e+01    0.3015447    0.1907982  27.29  0.001302031    1.913    0.477
        43  -7.1952    139.6836     87.6467   8.7307997823e+01   3.7498635838e+01    0.1545332    0.1198684   8.87 0.0007046343    1.740    0.425
        44  -9.3391    228.2992     85.0151   7.0171752222e+01   1.7573369046e+01    0.2357097    0.2098659 -87.29 0.0003418479    1.100    0.091
        45 -10.4167     37.3984     81.0736   1.1698662332e+02   5.6500169218e+01    0.6602784     0.337443 -15.78  0.002767645    3.095    0.677
        46  -7.9955     66.0058     84.2696   1.0782402482e+02   5.2309921951e+01    0.1874303    0.1667238  -8.36  0.000410125    1.073    0.068
        47  -9.6951      8.0163     77.8181   1.2693185187e+02   5.9558116390e+01    0.4059688    0.1968108 -34.57  0.001371335    1.902    0.474
        48  -8.6911     88.6099     78.6706   9.8793614122e+01   4.9737053147e+01    0.3606324    0.2341685  14.13  0.001636153    2.046    0.511
        49  -7.7766    184.1899     78.1529   7.5509819168e+01   2.8748375347e+01    0.2011238    0.1610259 -77.89 0.0007493134    1.284    0.221
        50  -8.9019     49.3252     77.2325   1.1163428247e+02   5.5939729775e+01    0.4009742     0.218025   5.25  0.001736934    2.794    0.642
        51 -10.0011     23.8314     73.6366   1.2005214558e+02   5.9264372417e+01    0.9429921    0.3300897 -29.96  0.003208939    4.691    0.787
        52  -9.2904     23.7408     69.5580   1.1901366638e+02   6.0076557063e+01    0.7968951    0.2650676  17.75  0.003232897    3.857    0.741
        53  -8.2096    115.0066     75.0094   8.9971218122e+01   4.5241576861e+01    0.2034202    0.1975559  16.11  0.001177909    1.021    0.021
        54  -8.1090     74.8611     74.4093   1.0192992744e+02   5.2874626553e+01    0.2187426    0.1712209 -14.47 0.0005917124    1.300    0.231
        55  -7.8014    126.3139     83.8475   8.9571940873e+01   4.1201024773e+01    0.3270551    0.1567725  31.26  0.001074928    3.310    0.698
        56  -7.5530    129.3566     69.3000   8.4567355711e+01   4.3098726052e+01    0.1500264    0.1095659  21.50 0.0007036842    1.707    0.414
        57  -8.1724    105.5844     67.9243   9.0419645481e+01   4.8416481840e+01    0.2979455    0.1653907  17.79  0.001036237    3.544    0.718
        58  -8.6849     83.5594     64.5595   9.5987043705e+01   5.3166827318e+01    0.4386218    0.2753755   6.09  0.001965418    2.326    0.570
        59  -8.9037     16.2780     64.0133   1.2042291629e+02   6.1739022240e+01    0.2063116    0.1358918 -24.59  0.001198007    1.375    0.273
        60  -8.7922     19.7638     61.2023   1.1826828307e+02   6.2000068768e+01    0.2033112    0.1218462 -15.29 0.0008946154    1.739    0.425
        61  -9.6797     37.7236     58.6201   1.1040226197e+02   6.0771898267e+01    0.4543612     0.216818 -21.59  0.001954687    2.936    0.659
        62  -8.5334     57.9638     62.2434   1.0395741842e+02   5.7615389850e+01    0.3207746    0.1523064  38.25  0.001157709    2.214    0.548
        63  -9.4309     62.5383     61.3930   1.0204513892e+02   5.7108518085e+01    0.4987813      0.24122  24.47  0.001791968    2.462    0.594
        64  -8.3433     96.8977     58.7576   9.0014377671e+01   5.1640555320e+01    0.4815403     0.267413   1.99  0.001534289    4.805    0.792
        65  -9.0261     27.7741     60.3785   1.1484931303e+02   6.1458710755e+01    0.1586524    0.1041416   3.79 0.0006925763    1.595    0.373
        66  -8.1179    111.0877     58.5301   8.5961922212e+01   4.8799804331e+01    0.3354076    0.1858059  29.55  0.001062971    2.284    0.562
        67  -7.1656    146.6555     56.0391   7.6813704465e+01   4.1202433752e+01     0.215029      0.12167  -6.07  0.000704185    4.324    0.769
        68  -7.9572     88.7552     54.3811   9.1017975480e+01   5.3871286092e+01    0.1930855    0.1137676  33.80  0.000940582    1.673    0.402
        69  -9.9356     75.1514     50.1360   9.3915650077e+01   5.6934984260e+01    0.3265489    0.2367529   7.44 0.0002805485    1.450    0.310
        70  -9.6237    128.0451     53.0070   8.0011051566e+01   4.5926936337e+01    0.2452778    0.1949098  61.26  0.001349393    1.230    0.187
        71  -9.2140     45.5006     48.9766   1.0419189495e+02   6.1497777508e+01    0.3896568    0.2279609 -12.71  0.001882012    2.014    0.503
        72  -8.3236    118.3426     51.0440   8.1740133874e+01   4.8356274814e+01    0.2388262    0.1760814  51.43 0.0005536373    1.257    0.204
        73  -8.3182    106.5226     48.9464   8.4119098073e+01   5.1167150072e+01    0.3293918    0.2116153   6.08  0.001121796    2.276    0.561
        74  -9.6659     11.7171     46.4095   1.1721972882e+02   6.5274243092e+01    0.4148772    0.2518523  -9.75  0.001335312    1.619    0.382
        75  -8.8347      2.9573     45.1681   1.2062242840e+02   6.6072771147e+01    0.2555062     0.206118 -25.11  0.001946559    1.107    0.097
        76  -8.6073     91.8449     43.6498   8.6465045503e+01   5.4837270338e+01    0.3604822     0.174344 -23.84  0.001581018    2.539    0.606
        77  -8.3297     92.3764     37.3420   8.4141309077e+01   5.5560349356e+01    0.2513776    0.2085339 -40.76  0.001148264    1.425    0.298
        78 -10.9085     83.1808     40.0761   8.7827993135e+01   5.6945574241e+01    0.3458818    0.2432633  -3.10 0.0002318372    1.579    0.367
        79  -8.8798     87.6036     38.1434   8.5810267450e+01   5.6374486540e+01    0.2277684    0.1680575  36.31 0.0006535908    1.206    0.171
        80  -9.1640     57.0171     42.4789   9.7538550527e+01   6.0934250411e+01    0.6861283    0.3340203  -9.30  0.002274985    5.258    0.810
        81  -7.1745    142.6768     44.6544   7.4368491722e+01   4.3726049434e+01    0.1421442   0.09982686  29.33 0.0007050062    1.738    0.425
        82  -7.9039    131.3357     42.9852   7.6244427167e+01   4.6556224013e+01    0.2079027    0.1135378  -2.00 0.0007049981    4.342    0.770
        83  -7.9789    113.1584     42.6142   8.0356879583e+01   5.0626140207e+01    0.2046867    0.1063569  43.01 0.0009440049    1.787    0.441
        84  -9.1772     35.5731     38.7456   1.0452661136e+02   6.4285787217e+01    0.3812155    0.1683507 -38.14  0.001599854    2.054    0.513
        85  -8.9607     38.8902     35.4750   1.0196412402e+02   6.4378145846e+01    0.2751634    0.1533724  24.02  0.001350205    1.728    0.421
        86  -7.4648    124.1573     39.8039   7.6862020567e+01   4.8579312033e+01    0.1838911    0.1436054  31.10   0.00050238    1.322    0.244
        87  -8.1938      2.7286     40.1973   1.1921918277e+02   6.6938874353e+01    0.2177186    0.1290438  -6.71  0.001302101    1.643    0.391
        88  -8.8999     67.9527     37.7090   9.1921511779e+01   5.9907149015e+01    0.2356077    0.2159588  14.35 0.0009658832    1.189    0.159
        89  -9.0649     72.8620     34.5417   8.9117709714e+01   5.9497320233e+01    0.4945113    0.1948194  35.39  0.001522779    2.551    0.608
        90  -8.4887    223.3714     36.6825   6.0477826557e+01   2.6006916225e+01    0.2230583    0.1946467 -30.76  0.001047353    1.524    0.344
        91  -8.8821     23.4600     35.8334   1.0858628827e+02   6.6007016226e+01    0.2696259    0.1863682  29.72  0.001801152    1.656    0.396
        92  -8.0493     19.3106     35.7267   1.1036036176e+02   6.6410193685e+01     0.160738    0.1059822 -11.82 0.0004352881    1.330    0.248
        93  -8.1260    106.0210     36.4789   8.0156766524e+01   5.2911685103e+01    0.1981275   0.08955663  35.61 0.0008099903    2.527    0.604
        94  -8.7726     56.8142     34.8192   9.4787795592e+01   6.2040513706e+01    0.3438824    0.2115153   6.70  0.001533508    1.852    0.460
        95  -9.7029      6.0965     33.7625   1.1560916626e+02   6.7773868897e+01     0.349948    0.2561613  -3.85  0.002396085    1.232    0.188
        96  -8.2821      2.6836     31.3588   1.1636501754e+02   6.8386573710e+01     0.158963    0.1217937  11.85 0.0009207471    1.423    0.297
        97  -8.9105      1.2910     28.6585   1.1608819764e+02   6.8900864983e+01    0.2087888   0.09015846 -47.41  0.000689673    1.977    0.494
        98  -9.0548     21.6881     31.9904   1.0795601614e+02   6.6757963163e+01    0.2170063    0.1444411  19.75 0.0009423032    1.475    0.322
        99  -9.5137     61.4860     27.4202   9.0293887331e+01   6.2264214877e+01    0.3297937    0.1810956   4.46  0.001421636    2.609    0.617
       100  -9.2570     41.7538     27.2506   9.7644369884e+01   6.5148620258e+01    0.3315058    0.1654485 -42.06  0.001121067    2.327    0.570
       101  -7.8441    110.5827     26.2195   7.5654696294e+01   5.3123583926e+01    0.1670076    0.1203212  -2.63 0.0009464808    1.662    0.398
       102  -9.4683    241.6095     96.2155   7.0726901468e+01   1.2884463897e+01    0.4057001    0.1618424 -56.60  0.001321419    3.057    0.673
       103 -11.1386    195.2832    249.5678   1.0976972500e+02  -6.9147360828e+00    0.8568065    0.2532349  39.22  0.003280352    3.024    0.669
       104  -7.6306    102.7077     25.5643   7.7336524211e+01   5.4849886539e+01    0.1804675    0.1142147  62.34 0.0009615114    1.653    0.395
       105  -8.9050    144.6743     23.3082   6.7897067595e+01   4.5796057735e+01    0.2256669    0.1819845  53.80  0.000310605    1.131    0.116
       106  -8.5244    248.5198    248.4724   9.9537533378e+01  -1.4358870397e+01    0.1179949   0.09431165  -1.10 0.0008094626    1.035    0.034
       107  -7.6339    128.7816     22.4391   7.0564143979e+01   4.9518851048e+01    0.1902451    0.0994056  50.94 0.0008930758    1.629    0.386
       108  -8.7489     92.1205     21.0430   7.8494711193e+01   5.7463493619e+01     0.313045    0.1785906  32.43  0.001159096    1.714    0.417
       109  -7.5485    169.4807     20.0386   6.3194289093e+01   4.0354420205e+01    0.1679503    0.1269258 -35.81 0.0005669628    1.524    0.344
       110  -8.2045    140.1795     20.0048   6.7738518694e+01   4.7172661508e+01    0.1881793    0.1613993  62.83  0.000559755    1.011    0.011
       111  -8.1655      5.4069     18.8002   1.1046266530e+02   7.0068748066e+01    0.1455856   0.07404003 -30.75 0.0002538778    1.573    0.364
       112 -10.1319    185.8740    244.3103   1.1080018895e+02  -4.5606930325e+00    0.2874286    0.1765872  39.62  0.001521532    1.487    0.328
       113  -8.2073    127.7522     16.8942   6.9085651362e+01   5.0297306351e+01    0.1827311     0.147152  45.05 0.0004111147    1.149    0.129
       114  -8.3017      1.3573    237.8176   1.4704730134e+02   2.3943395540e+01    0.1843828   0.08417688 -83.70 0.0003447069    1.798    0.444
       115  -9.7078    187.9418    233.7186   1.0861877699e+02  -3.0854048828e+00    0.2570123    0.2279895 -71.81  0.001166099    1.494    0.331
       116  -8.7095    149.0185    224.0126   1.1524112942e+02   5.4971739472e+00    0.2045792     0.191711  39.71  0.000343585    1.022    0.022
       117  -8.7350     11.7105    207.0231   1.4304900306e+02   2.9560249434e+01    0.1770762    0.1314087 -88.75 0.0005258523    1.061    0.058
       118  -8.7606    242.8650    169.6654   8.5794385508e+01  -7.5776252985e-01    0.2449387    0.2259861  36.81 0.0008410895    1.239    0.193
       119  -7.9720    243.4282    165.1973   8.4794573806e+01  -3.8570298938e-02    0.1874255    0.1163214 -48.79 0.0005360463    1.559    0.359
       120  -9.9614    211.5507    157.7531   8.8983350725e+01   7.2415925778e+00    0.2860354    0.2687746 -54.76 0.0003590689    1.082    0.076
       121  -9.2298     67.0203    144.6361   1.2163156889e+02   3.8270389170e+01    0.4195575    0.3074069  82.37  0.001852517    1.626    0.385
       122  -7.7920    105.4725     14.0168   7.2788300863e+01   5.5408839320e+01    0.1672557    0.0941197  16.70 0.0007246002    2.452    0.592
       123  -8.2876    230.9033    140.2244   8.1717996306e+01   6.9154369190e+00    0.2012289     0.180082 -69.98 0.0003185047    1.179    0.152
       124  -8.6727     88.1923     13.0160   7.6658346595e+01   5.9005218304e+01    0.2154717    0.1488721  46.45  0.000634403    1.213    0.176
       125  -7.2167    216.6201    139.2856   8.4014689213e+01   9.9166812374e+00     0.148643    0.1125913 -82.65 0.0007013881    1.729    0.422
       126  -8.1877      3.8470    133.6183   1.3760748307e+02   4.7387021662e+01    0.1565136    0.1057353  42.55 0.0009502465    1.752    0.429
       127  -8.0225     22.7618    129.4261   1.3170579663e+02   4.6962851807e+01    0.1553991    0.1227341 -11.44  0.000341357    1.576    0.366
       128  -7.2715      9.6428     12.6784   1.0589866161e+02   7.0542045576e+01    0.1149188   0.06213499 -10.13            0    1.764    0.433
       129  -7.7075    189.4899     15.5527   5.9607897867e+01   3.6191839044e+01    0.1260252    0.1028164  83.44 0.0002108441    1.033    0.032
       130  -7.6737    153.4759    124.0387   9.3574306668e+01   2.6885966478e+01    0.2120219    0.1397435 -20.18 0.0006681354    2.301    0.565
       131  -7.9864    134.0230    124.3960   9.8478760266e+01   3.1074693115e+01    0.4330907    0.1398314  34.53 0.0009556631    6.263    0.840
       132  -7.3521     85.7884    121.3471   1.1118825837e+02   4.1069732494e+01    0.1994102      0.14101  23.70 0.0009332506    1.643    0.391
       133  -8.4645     12.3045    120.3535   1.3335713981e+02   4.9910548748e+01    0.1349074   0.07364941 -44.32 0.0007040754    1.710    0.415
       134  -7.6998    119.5892    118.7510   1.0087365285e+02   3.5377102177e+01    0.2111285    0.1472722 -57.08 0.0006621169    1.503    0.335
       135  -7.1534    100.2959    118.3875   1.0620205927e+02   3.9218368063e+01    0.1599688    0.1163602 -19.52 0.0007014341    1.776    0.437
       136  -9.3566    248.4737    113.5904   7.3384896766e+01   8.4806479078e+00    0.2959181    0.1176645 -41.43  0.001215989    2.194    0.544
       137  -7.6864    131.3480    113.3069   9.6340289724e+01   3.4114223247e+01    0.1589655    0.1252177   2.81 0.0007043018    1.702    0.413
       138  -7.4673     39.0000    109.9450   1.2319653634e+02   5.0032161899e+01    0.2210888   0.06651796 -59.63 0.0007489476    2.875    0.652
       139  -8.4646      2.4311    109.6795   1.3468465788e+02   5.2988119684e+01     0.270081    0.1182847 -36.44  0.001308485    2.461    0.594
       140  -7.8309    123.3971    107.7754   9.6981815391e+01   3.7008795236e+01    0.3413943    0.1812464  24.41  0.001085176    3.482    0.713
       141  -8.1901    108.9804    106.9578   1.0074937644e+02   4.0128541562e+01    0.3478226    0.2032107 -25.12  0.001301822    2.551    0.608
       142  -7.9707    133.8844    106.1699   9.3804845280e+01   3.5092436612e+01    0.2956187    0.2092298 -13.34  0.001231838    2.077    0.518
       143  -9.1326     14.6611    105.1674   1.3010018522e+02   5.3223848641e+01    0.3350072    0.1628559 -33.15  0.001591091    2.300    0.565
