#   1 NUMBER                 Running object number                                     
#   2 MAG_AUTO               Kron-like elliptical aperture magnitude                    [mag]
#   3 X_IMAGE                Object position along x                                    [pixel]
#   4 Y_IMAGE                Object position along y                                    [pixel]
#   5 X_WORLD                Barycenter position along world x axis                     [deg]
#   6 Y_WORLD                Barycenter position along world y axis                     [deg]
#   7 A_WORLD                Profile RMS along major axis (world units)                 [deg]
#   8 B_WORLD                Profile RMS along minor axis (world units)                 [deg]
#   9 THETA_WORLD            Position angle (CCW/world-x)                               [deg]
#  10 FWHM_WORLD             FWHM assuming a gaussian core                              [deg]
#  11 ELONGATION             A_IMAGE/B_IMAGE                                           
#  12 ELLIPTICITY            1 - B_IMAGE/A_IMAGE                                       
         1 -13.4064    195.2085     30.1690   6.8441831549e+01   3.2942759048e+01     1.307582      1.10853  65.70  0.006743716    1.136    0.120
         2 -13.7387    210.3883     10.9362   6.1944901645e+01   3.1507402481e+01     1.383648    0.9676598  45.72  0.007834727    1.745    0.427
         3 -11.2562      2.4027      4.0344   1.1345472031e+02   7.1864010250e+01    0.4079255    0.1836879 -41.75  0.002598325    1.917    0.478
         4 -11.4437      2.0005     13.9046   1.1766283307e+02   7.0511653843e+01    0.5584121    0.1018429 -48.78  0.002194404    4.731    0.789
         5 -10.4278     81.9685    248.6954   1.3852259421e+02   1.3057310132e+01    0.1778408    0.1281701  59.97  0.001163399    1.095    0.087
         6 -12.4832    243.3074    246.3807   1.0819065750e+02  -1.2976796946e+01    0.9282044    0.4025407  29.20  0.004584725    2.209    0.547
         7 -11.5393    123.7563    249.7561   1.3098243626e+02   6.2712115893e+00    0.6143666    0.1375546  42.33  0.002129621    3.688    0.729
         8  -9.8567     66.9074    250.0481   1.4129184448e+02   1.4975515803e+01    0.1777951    0.1318466  70.11 0.0003047964    1.015    0.015
         9 -11.2019     29.5555    248.7412   1.4743393035e+02   2.0022763985e+01    0.3862073    0.2606327 -86.58  0.002819794    1.279    0.218
        10 -12.5029     34.9512    244.2329   1.4625800290e+02   2.0224551150e+01    0.6715476    0.4854473 -83.54  0.004179588    1.295    0.228
        11 -14.3491     11.0545    243.5503   1.5005622334e+02   2.3051695551e+01     10.09973     2.928855  30.88    0.0318471    9.929    0.899
        12 -15.3282      9.3339    151.8041   1.4346009335e+02   4.2399958109e+01     7.745386     3.047893  87.73   0.03156797    3.412    0.707
        13 -11.2358    234.3693    238.2531   1.0841173734e+02  -1.0580086204e+01    0.3346132    0.2073698 -53.92  0.001711362    2.833    0.647
        14 -10.5992    185.8830    238.2341   1.1748825991e+02  -2.5372198765e+00    0.2941459    0.1744409 -64.26 0.0009260363    3.025    0.669
        15 -10.4582    119.8202    237.6695   1.3026021792e+02   9.0927508954e+00    0.2754671    0.1459987 -85.77  0.001105667    3.537    0.717
        16 -13.9583      7.9131    207.8581   1.4841015090e+02   3.0375621688e+01     2.551436    0.7547985 -78.10  0.008328255    2.829    0.646
        17 -10.1422    228.9192    228.4639   1.0770813901e+02  -8.3621096117e+00    0.2188603    0.1767678 -49.47  0.001070572    1.664    0.399
        18 -10.2040     60.5563    227.7271   1.4044890529e+02   2.0166141529e+01    0.3909462    0.1745818  77.74  0.001667789    3.075    0.675
        19 -12.7282     35.1061    231.2559   1.4530699315e+02   2.2711916053e+01    0.2996531    0.2389823 -78.48 0.0007449532    1.358    0.263
        20  -8.9301    152.5517    212.9420   1.2010782572e+02   7.9339621250e+00    0.1823061    0.1382225 -53.88 0.0003154653    1.463    0.317
        21  -9.9828    172.4914    246.9926   1.2138146583e+02  -1.5858361318e+00     0.160272    0.1111697 -83.05 0.0008103681    2.537    0.606
        22 -11.5795     61.7506    197.5141   1.3709832030e+02   2.6398749199e+01    0.3052696    0.2460127 -49.26  0.001186234    1.603    0.376
        23  -9.7361    191.7105    192.4232   1.0827121752e+02   4.2711519505e+00    0.5368329    0.2694172 -65.04  0.001444914    6.305    0.841
        24 -14.2602     41.0627    223.2992   1.4363060314e+02   2.3586524299e+01     1.069697     1.022197 -87.01  0.005041183    1.512    0.339
        25 -11.8351     67.7963    189.4247   1.3484431680e+02   2.7371857186e+01    0.2797122    0.2310505 -64.77 0.0005697153    1.276    0.216
        26  -8.8086     50.4253    196.4340   1.3931553321e+02   2.8122143128e+01    0.1259136    0.1004018  84.88 9.136953e-05    1.006    0.006
        27 -10.6963    105.8696    247.0424   1.3400236527e+02   9.6710389752e+00    0.1999249    0.1418482  69.21 0.0007692447    1.280    0.219
        28 -10.9316     77.7507    176.8918   1.3092052317e+02   2.8802063962e+01    0.2525908    0.2109013 -70.92 0.0003777386    1.139    0.122
        29 -13.1742     64.6252    174.8233   1.3363417487e+02   3.1159707394e+01    0.5079248    0.2758675 -46.29  0.001480656    2.287    0.563
        30  -9.5171     97.7601    173.8206   1.2578642338e+02   2.6336144598e+01     0.292474    0.1810123 -68.61  0.001376492    1.636    0.389
        31 -11.9026     85.3912    167.6107   1.2769835048e+02   2.9802833816e+01    0.6660128    0.5897489  63.76  0.003919387    1.122    0.109
        32 -10.0300     98.2477    151.6946   1.2171712609e+02   3.1463645015e+01    0.3002048    0.2662471  55.25  0.000771602    1.150    0.131
        33  -9.2172    101.0846    147.7841   1.2023276595e+02   3.1900663939e+01    0.2194807    0.1996859 -23.81 0.0004252724    1.315    0.239
        34 -12.1015     86.5578    150.9836   1.2454164544e+02   3.3562523904e+01    0.2941507    0.2516088 -48.06 0.0007413651    1.242    0.195
        35 -12.3872     67.5810    143.8416   1.2812603648e+02   3.8073038081e+01    0.7203839    0.4820879  71.15  0.003298054    1.784    0.440
        36 -11.4429     57.8836    132.8972   1.2874990648e+02   4.1935602974e+01    0.8689242    0.3077409 -72.94   0.00234159    5.780    0.827
        37  -9.8300    109.6831    136.9429   1.1574615414e+02   3.2910562913e+01    0.3906326    0.2430298 -29.14  0.001563068    2.364    0.577
        38 -10.5192    198.9625    246.5116   1.1630292976e+02  -6.0090170367e+00     0.200653    0.1050164  40.15  0.001037746    1.606    0.377
        39 -10.5432     96.8061    134.2413   1.1855271217e+02   3.5849636657e+01    0.2539071    0.2239268 -36.44 0.0005310865    1.231    0.188
        40  -9.0245    106.7714    123.7432   1.1351779344e+02   3.6525176498e+01    0.1883366    0.1658278  87.58 0.0003620239    1.226    0.184
        41 -10.5762     46.3965    248.5912   1.4466549201e+02   1.7987859093e+01    0.3245406    0.1399729  73.77  0.001349695    2.516    0.603
        42  -8.4686    192.3031    143.7379   9.7761437528e+01   1.3766017527e+01     0.148623    0.1214423 -89.52 0.0002421091    1.519    0.342
        43 -10.2005    167.9317    112.9161   9.5498648482e+01   2.5765488143e+01    0.3671175    0.2885012 -83.05  0.001102301    1.565    0.361
        44  -9.3043    203.4879    111.4992   8.7792700275e+01   1.7630375532e+01    0.1511557    0.1479755 -43.29 7.959444e-05    1.056    0.053
        45 -10.8147    243.1866     91.9697   7.6544203855e+01   1.2146728013e+01    0.2281925    0.1692807  -6.91  0.001097135    2.028    0.507
        46  -8.7126    184.5310     77.4722   8.2654299662e+01   2.8518266004e+01    0.1495864    0.1449779  71.82 6.751336e-05    1.058    0.054
        47  -9.5464    157.5468     76.4946   8.7905993817e+01   3.5320047064e+01    0.1510223     0.145629  83.31 0.0001732291    1.032    0.031
        48  -9.6049     43.4077     67.8489   1.1857076510e+02   5.7861241242e+01    0.1951964    0.1679932  44.37  0.000824212    1.493    0.330
        49  -9.6775     34.8771     63.5364   1.2039040966e+02   5.9548824122e+01    0.2808481     0.167982  43.90  0.001404106    2.322    0.569
        50 -10.2565     16.5055     55.9725   1.2507251503e+02   6.2495246820e+01    0.1910532    0.1573372  -4.55 0.0004753009    1.299    0.230
        51 -11.0046    139.1301    249.8896   1.2811181843e+02   3.6681605844e+00    0.3424682    0.1373945  42.09  0.001553783    2.081    0.520
        52 -10.2126    163.2269    249.4070   1.2348629867e+02  -3.7247594150e-01    0.1942757    0.0992673  49.48 0.0009624218    1.749    0.428
        53 -11.3915     99.3936    247.9897   1.3529832349e+02   1.0526222968e+01    0.3464934    0.3049532  36.69  0.002370869    1.447    0.309
