#   1 NUMBER                 Running object number                                     
#   2 MAG_AUTO               Kron-like elliptical aperture magnitude                    [mag]
#   3 X_IMAGE                Object position along x                                    [pixel]
#   4 Y_IMAGE                Object position along y                                    [pixel]
#   5 X_WORLD                Barycenter position along world x axis                     [deg]
#   6 Y_WORLD                Barycenter position along world y axis                     [deg]
#   7 A_WORLD                Profile RMS along major axis (world units)                 [deg]
#   8 B_WORLD                Profile RMS along minor axis (world units)                 [deg]
#   9 THETA_WORLD            Position angle (CCW/world-x)                               [deg]
#  10 FWHM_WORLD             FWHM assuming a gaussian core                              [deg]
#  11 ELONGATION             A_IMAGE/B_IMAGE                                           
#  12 ELLIPTICITY            1 - B_IMAGE/A_IMAGE                                       
         1 -12.4274     43.6867     20.2779   1.0128845412e+02   6.5900019574e+01    0.7288057    0.3553064  23.08  0.002163655    2.198    0.545
         2 -12.6052    216.9851     14.6666   6.1633334987e+01   2.9721609671e+01    0.6662071    0.4064204  77.65  0.001733641    1.438    0.304
         3 -13.5583    185.7027      6.4688   6.3116183091e+01   3.8086567472e+01    0.9049029    0.5811672 -78.86  0.004898855    1.600    0.375
         4 -11.9397     57.8577      7.1755   9.0412723368e+01   6.5410238273e+01    0.4505385    0.4088693 -10.32  0.003268421    1.362    0.266
         5 -11.7279     43.4742      8.4084   9.6294277603e+01   6.7354548745e+01    0.2861788    0.2167228  29.38  0.001143287    1.349    0.259
         6 -10.0471    109.6866      8.6826   7.6317203784e+01   5.5638737294e+01    0.1333559   0.08053561  31.80 0.0004367071    1.646    0.392
         7 -10.6528    169.8655      1.8845   6.3881176429e+01   4.2338541537e+01    0.2606414    0.1648854  76.73 0.0006843715    1.383    0.277
         8 -11.4031    165.7428      1.7641   6.4386361015e+01   4.3339503535e+01      0.35498    0.1662302  73.65  0.001661209    1.921    0.479
         9 -11.1183    149.8200    222.0471   1.2145371179e+02   6.5858873540e+00    0.5863818    0.2079884 -51.30  0.002252427    3.176    0.685
        10 -11.2419    226.3939    221.2487   1.0619842152e+02  -6.9919310250e+00    0.2336321    0.1869133  87.15  0.001263853    2.328    0.570
        11  -9.9351    184.8776    223.3125   1.1456858343e+02  -6.8761456317e-02    0.2808247    0.1073988  47.07  0.001096692    2.520    0.603
        12 -10.2072    211.4945    218.4646   1.0851324245e+02  -4.0185284295e+00    0.2210081    0.1246251 -51.86  0.001030299    2.365    0.577
        13 -11.7502    222.6805    213.9310   1.0555996445e+02  -5.2345008291e+00    0.4658809    0.2706104  36.26  0.002387397    1.609    0.379
        14  -9.0049      3.2977    215.2997   1.4932482098e+02   2.9324679131e+01   0.09747297   0.07309038 -66.47 0.0005358279    1.576    0.365
        15 -10.9586    115.8094    209.1350   1.2661808742e+02   1.5322520111e+01    0.3302208    0.2317156 -68.25  0.001753166    1.491    0.329
        16  -9.9921     56.3471    205.6642   1.3859511507e+02   2.5344848733e+01    0.1397258   0.07829697  71.04 0.0007048293    1.776    0.437
        17 -10.1979     48.4429    201.1881   1.3973157558e+02   2.7354459034e+01    0.3069862    0.1086809 -79.40  0.001153961    3.418    0.707
        18  -9.3300    197.2857    201.3309   1.0814928178e+02   1.4891322442e+00    0.1402375    0.1060479   1.51 0.0002753563    1.616    0.381
        19 -11.2501      4.9929    199.4300   1.4799264608e+02   3.2458836480e+01    0.3101356    0.1624163  50.49  0.001023611    1.787    0.440
        20 -10.6435    149.0071    197.7832   1.1763062521e+02   1.1547080740e+01    0.3792302     0.184936 -67.22  0.001298419    3.526    0.716
        21 -10.3506    112.3744    197.5703   1.2563147641e+02   1.8422532572e+01    0.2737848     0.126099 -72.80 0.0009539633    3.361    0.702
        22 -12.1037    159.5690    191.6761   1.1423303788e+02   1.0736427315e+01    0.6988487    0.4878458 -86.99  0.002578295    2.124    0.529
        23  -9.7589    215.3177    193.9830   1.0316862704e+02  -5.9667446394e-01    0.2167362     0.108705 -59.33 0.0007048423    4.287    0.767
        24 -10.6330    224.3913    183.6247   9.9359222676e+01  -4.7080183475e-01    0.3477176    0.1715702 -58.25   0.00114992    4.186    0.761
        25  -9.7607    193.3459    188.6720   1.0650187872e+02   4.5966271074e+00    0.1453916    0.1153711  83.50 0.0004475487    1.751    0.429
        26  -9.7365    133.1540    195.7191   1.2074746128e+02   1.5020176759e+01    0.2744717    0.1668193 -71.67  0.001102335    2.080    0.519
        27  -9.8643     54.3197    186.7014   1.3691297527e+02   2.9861868471e+01    0.1359595   0.08370402  72.52 0.0002633614    1.619    0.382
        28 -10.1239    210.6028    183.0054   1.0189235151e+02   2.2687410513e+00    0.3216695    0.1348188 -41.41  0.001249102    2.401    0.583
        29 -10.4284    183.2547    183.0225   1.0747595618e+02   7.7196247194e+00    0.3749034     0.201699 -40.82  0.001583003    1.963    0.491
        30 -10.2690    191.7124    177.1610   1.0451241700e+02   7.1562712932e+00    0.3523304    0.1307906 -41.56  0.001223806    2.795    0.642
        31 -10.1909    148.3089    176.0099   1.1375247965e+02   1.6342649353e+01    0.2383346    0.1151174 -31.52 0.0007032987    4.151    0.759
        32  -9.5966    159.3395    175.6640   1.1119601620e+02   1.4158104901e+01    0.1584278    0.1179029  82.31 0.0005370841    1.755    0.430
        33  -9.8288     38.3214    175.3185   1.3909898935e+02   3.4415215967e+01    0.1209276   0.08850986 -48.39   0.00070432    1.666    0.400
        34 -11.1982     34.5836    172.6827   1.3962903438e+02   3.5435247515e+01    0.3420619    0.1430345 -74.79  0.001574171    2.117    0.528
        35  -9.7484    176.0000    171.0361   1.0657494974e+02   1.1662762071e+01    0.2521767    0.0862244 -45.59 0.0008099393    2.995    0.666
        36 -10.7039     44.3182    169.1024   1.3701536747e+02   3.5171052973e+01    0.2704783   0.08545531 -60.95  0.001093397    2.597    0.615
        37 -10.1570    167.8972    168.7981   1.0788382771e+02   1.3842458644e+01    0.3005136    0.2036395 -75.79   0.00124138    2.153    0.536
        38 -11.7670    120.7989    167.9697   1.1862455098e+02   2.3602702613e+01    0.5387253    0.1657621 -54.61  0.001695487    3.298    0.697
        39 -10.0426     92.4819    160.0020   1.2406140676e+02   3.0551127025e+01    0.2107014    0.1207252 -84.93 0.0008098348    2.541    0.607
        40 -11.6959    105.8084    156.7063   1.2013266561e+02   2.9035832789e+01    0.6961173    0.3935494 -68.58  0.002884125    2.012    0.503
        41 -10.7294     51.3733    159.3255   1.3406305449e+02   3.6632771196e+01    0.2716093    0.1267931  56.24  0.001175516    2.531    0.605
        42 -11.1772     28.6674    156.4936   1.3910430537e+02   3.9796775123e+01     0.423057    0.2053995  89.78  0.001618254    2.346    0.574
        43 -10.1588     23.7365    153.6201   1.3992101502e+02   4.0934100832e+01    0.1579927    0.1042909  50.12 0.0006822348    1.631    0.387
        44 -10.8745    167.7680    157.4768   1.0548576422e+02   1.6306825343e+01    0.3777772     0.213781 -63.97  0.001386651    2.497    0.600
        45 -10.4415    218.3312    156.4538   9.4767049137e+01   5.7022746602e+00    0.2971689    0.1765156 -42.97   0.00133164    1.629    0.386
        46 -10.9469    118.9579    156.9760   1.1692430381e+02   2.6529057691e+01    0.3652607    0.2442684  58.77  0.001651293    1.604    0.377
        47  -9.0816    237.3415    156.2950   9.1250828453e+01   1.9443221449e+00     0.142809     0.107399   3.70 0.0002004727    1.659    0.397
        48 -10.1496      6.5351    155.9799   1.4411182321e+02   4.1862350839e+01     0.180363   0.09059761 -74.99 0.0004336052    1.525    0.344
        49 -10.5553    189.7935    150.1391   9.9058610961e+01   1.3041122976e+01    0.4067509     0.200793 -52.85  0.001501185    2.310    0.567
        50 -10.2833     12.0293    148.6604   1.4210329510e+02   4.3085758145e+01    0.2459621    0.1385721 -66.53  0.001362743    1.397    0.284
        51 -11.3103    107.4495    145.6356   1.1750215120e+02   3.1378117919e+01    0.5766749    0.2994758  71.23  0.001609713    4.952    0.798
        52  -9.9184     38.6607    147.3352   1.3549629276e+02   4.0921552102e+01    0.1360591   0.08638906  75.19 0.0007051378    1.753    0.429
        53 -10.2167    148.4898    145.0108   1.0715441620e+02   2.3256710318e+01    0.2286584    0.1364511 -71.23 0.0008101625    2.578    0.612
        54 -10.0095     55.3527    145.6645   1.3101647424e+02   3.9399372145e+01    0.1433575   0.09363518  75.46 0.0007044959    1.791    0.442
        55 -11.2627     55.6110    167.3779   1.3417023098e+02   3.4196454046e+01    0.4246547    0.2549358 -82.80  0.001590069    1.634    0.388
        56 -10.1495    181.5253    141.5039   9.8828701320e+01   1.6685841951e+01    0.2894257    0.1422511 -54.02  0.001029615    2.363    0.577
        57 -10.3043     82.7885    131.4649   1.2109466003e+02   3.8963705093e+01     0.369833    0.1982353 -75.12  0.001401637    2.678    0.627
        58 -11.9134     98.2031    127.3940   1.1599820282e+02   3.7368847139e+01    0.7580121    0.3838861 -73.54  0.002361574    3.900    0.744
        59  -9.6544    117.3149    125.6484   1.1045480851e+02   3.4203985613e+01    0.1604119     0.119978  89.15 0.0007046477    1.732    0.423
        60 -10.3451     58.6878    123.8850   1.2626590783e+02   4.4161971485e+01    0.2953428    0.1627249 -86.04  0.001159754    2.956    0.662
        61 -10.7227     26.9170    120.4737   1.3456462777e+02   4.8322132242e+01    0.5359792    0.2319336 -89.24  0.001668677    5.576    0.821
        62 -10.7468     13.3844    121.5876   1.3841753363e+02   4.9148368766e+01    0.3824658    0.1365356 -43.12  0.001609445    3.310    0.698
        63 -11.9916    193.4349    118.8635   9.0900283326e+01   1.8624894164e+01    0.6463513    0.4442829 -66.10  0.002348127    1.778    0.437
        64 -10.1111     70.3213    118.3274   1.2181084237e+02   4.3916770018e+01    0.4118236    0.1107249 -54.92  0.001355929    3.186    0.686
        65 -11.1570    141.2768    114.1353   1.0140302091e+02   3.1743541478e+01    0.7349039    0.2657311 -37.66  0.002179105    3.431    0.709
        66 -11.0195     41.0092    116.0081   1.2981186408e+02   4.8015688934e+01    0.4563997    0.1714104 -74.89  0.001395655    4.877    0.795
        67 -10.3471      2.2040    115.1733   1.4054714356e+02   5.1328379335e+01     0.156531    0.1161509  89.55 0.0006926575    1.307    0.235
        68 -10.3533    108.0066    112.4306   1.0971288311e+02   3.9029196226e+01    0.4654019     0.185505 -58.10  0.001467323    3.293    0.696
        69 -10.4205     91.8972    112.2972   1.1421290579e+02   4.1961135292e+01    0.3619998    0.1863112 -59.77  0.001458125    2.105    0.525
        70 -10.6853     78.5672    112.3965   1.1808929999e+02   4.4083824808e+01    0.3083204    0.2190842 -89.68    0.0013181    1.947    0.487
        71 -10.6405    174.1240    110.8514   9.2906819548e+01   2.4819071108e+01    0.3879702    0.2281221 -45.12  0.001100308    1.681    0.405
        72 -11.4210    159.8526    112.1405   9.6429972893e+01   2.7922779838e+01    0.3201058    0.2249974 -61.09  0.001390507    1.599    0.375
        73 -10.7069     13.8154    108.2309   1.3631216004e+02   5.2117486876e+01    0.5322725    0.1555485 -61.06  0.002344908    2.379    0.580
        74 -10.0741     60.0392    109.9826   1.2300888148e+02   4.7221138443e+01    0.2085195    0.1773892 -52.47  0.000686802    1.039    0.037
        75 -10.2867    122.3195    109.0073   1.0494209979e+02   3.6946113205e+01    0.2535104    0.1190475 -28.94 0.0007046827    4.260    0.765
        76 -11.8922    141.3233     99.9849   9.7619147562e+01   3.4739455654e+01    0.4629037    0.3505999  57.85  0.002180515    1.373    0.272
        77 -11.7199     43.8989     99.8964   1.2572280250e+02   5.1368568265e+01    0.7107471    0.3551997 -73.45  0.003011816    2.716    0.632
        78 -11.3467    127.5869    100.4643   1.0125415786e+02   3.7673820718e+01    0.4459693    0.2239027 -45.37   0.00174232    1.967    0.492
        79 -11.6087    107.2375     98.3271   1.0621213270e+02   4.2275317001e+01    0.5041845    0.2913206 -57.37   0.00210234    1.966    0.491
        80 -10.6485     19.6296     97.5360   1.3275639347e+02   5.4060457145e+01    0.3074824    0.1047125 -68.26  0.001254771    2.867    0.651
        81 -10.7214     94.3869     97.1960   1.0960808086e+02   4.4883281329e+01    0.3150129    0.1301516 -54.85  0.001118426    2.714    0.632
        82 -10.7776     62.8829     95.4196   1.1874639709e+02   5.0113972529e+01    0.3540287    0.1845268 -72.14  0.001321157    3.349    0.701
        83 -12.9756    170.1954     90.8115   8.8462152025e+01   2.9735085114e+01    0.4564177    0.3734676 -73.42 0.0008281238    1.345    0.256
        84 -10.5761     81.6095    100.2465   1.1421295601e+02   4.6348218469e+01    0.3206956    0.1764777 -64.56  0.001320087    2.309    0.567
        85 -10.0963    151.0000     88.9611   9.2227323802e+01   3.4703896210e+01    0.2530522   0.08781725 -40.23 0.0006082656    2.912    0.657
        86 -11.4373     42.4607     87.8559   1.2344990032e+02   5.4142910234e+01    0.3608816    0.2229359  -2.24  0.001646232    2.296    0.564
        87 -10.5415     85.9922     87.0199   1.0931479984e+02   4.8465015613e+01    0.3109788    0.1958163 -70.08  0.001308335    2.517    0.603
        88 -10.4404     34.4457     85.4290   1.2551536682e+02   5.5442679899e+01    0.5940561    0.1106525 -47.27  0.001970251    4.057    0.754
        89 -11.0274      8.2651     84.0004   1.3380462656e+02   5.7723489595e+01    0.4148538    0.1517264 -41.34  0.001991164    2.517    0.603
        90 -11.1001    104.1521     82.2649   1.0251809045e+02   4.6169779075e+01    0.5712724    0.2177958 -49.99  0.001979645    2.949    0.661
        91 -10.7325    140.6219     82.0177   9.2721370633e+01   3.8452476813e+01    0.3581195    0.1453647 -39.56   0.00126429    2.503    0.601
        92 -10.4966     45.2891     81.6681   1.2098927790e+02   5.5148678020e+01    0.2267712    0.1404153 -62.10 0.0005677974    1.663    0.399
        93  -9.8290    249.6774     81.3390   7.2736956182e+01   1.2685502888e+01    0.1483942   0.09386849 -66.87 0.0005435996    1.719    0.418
        94 -11.8110    223.7177     71.5727   7.4059053661e+01   2.0135693947e+01     0.308347    0.2506312 -80.62 0.0002584223    1.191    0.160
        95 -10.4805     81.8200     72.6377   1.0638028656e+02   5.2009959426e+01    0.2941011    0.1619341 -64.06  0.001089957    3.470    0.712
        96  -9.4104    115.3249     72.6489   9.6454667450e+01   4.5755379631e+01    0.1473633    0.1165151 -80.40 0.0006993783    1.757    0.431
        97 -10.3491     51.9331     70.1833   1.1559782565e+02   5.6712075178e+01    0.2292886    0.1627128 -44.33  0.000655805    1.235    0.191
        98 -10.5990     62.4362     69.3082   1.1173498307e+02   5.5543655330e+01    0.2620707     0.110398 -43.34  0.001144494    2.123    0.529
        99 -11.7576     20.6897     50.9776   1.2147622560e+02   6.3399913282e+01    0.4872867    0.2766678 -54.92  0.001967047    1.653    0.395
       100 -11.4099     19.6364     59.0831   1.2415845613e+02   6.1974580794e+01    0.3349556    0.1966069 -42.96  0.001542291    1.331    0.249
       101 -13.4311     30.8226     59.6407   1.2013685774e+02   6.0945167189e+01    0.9666292    0.6670182  20.44  0.004932513    1.622    0.383
       102 -11.9729    232.0607     60.1503   7.0259761653e+01   2.0015227835e+01    0.4297791    0.2594224  69.69  0.002115051    1.665    0.399
       103 -11.9417     40.1894     51.9222   1.1427567443e+02   6.1431776053e+01    0.5123701    0.2183447 -42.17  0.001801687    1.978    0.494
       104  -9.7850    160.7409     61.0024   8.2091211991e+01   3.7294689629e+01    0.1955095     0.191443  82.71 0.0002138808    1.045    0.043
       105 -11.1734      7.3084     54.1732   1.2753660459e+02   6.3725015913e+01    0.4299231    0.1044398 -54.45  0.001912845    2.780    0.640
       106 -11.2517     48.0948     57.3625   1.1308361627e+02   5.9575722622e+01    0.2800381     0.184372 -10.77  0.001321743    1.708    0.415
       107 -10.8963    149.7566     52.8331   8.1964261985e+01   4.1230262409e+01    0.2680645    0.1997586  62.79 0.0004506455    1.303    0.232
       108  -9.9062     62.4474     53.2463   1.0660260487e+02   5.8452019739e+01    0.1685229    0.1148789 -47.80 0.0005201199    1.573    0.364
       109 -10.1606    173.0355     49.5320   7.6492565751e+01   3.5998697592e+01    0.2006753    0.1885428 -59.72 6.498843e-05    1.106    0.096
       110  -9.8453     82.4129     47.2274   9.7816125702e+01   5.6305706325e+01    0.1765401     0.118767 -43.84 0.0009421438    1.633    0.388
       111 -10.2084    157.1429     45.0008   7.8139254699e+01   4.0567359994e+01    0.2500853      0.19009  58.67 0.0005381316    1.212    0.175
       112  -9.9353    238.9850     43.7022   6.5747165004e+01   2.0871948400e+01    0.1852783    0.1487036 -89.95 0.0003536014    1.127    0.112
       113 -10.0792      9.9866     43.9978   1.2367967108e+02   6.5414606106e+01    0.1934634    0.1483333  16.29 0.0006669832    1.525    0.344
       114 -10.4467      5.4176     42.5521   1.2511920424e+02   6.5952827095e+01    0.2666866    0.1793621 -72.68  0.001697753    2.124    0.529
       115  -9.8841    114.2789     42.7294   8.7043404208e+01   5.0791053478e+01    0.1907664    0.1454216  27.58 0.0006978177    1.322    0.243
       116 -10.8763     70.2481     42.1466   1.0001149986e+02   5.9080239395e+01    0.3573294    0.2701387  67.35  0.001942547    2.315    0.568
       117 -10.3731     69.5085     38.4613   9.8914339121e+01   5.9742916337e+01     0.224109    0.1527036 -29.17 0.0007225634    1.388    0.279
       118 -12.2682     42.0221     38.3515   1.0894127966e+02   6.3499461154e+01    0.4708529    0.3269267  10.74  0.001615778    1.429    0.300
       119 -10.8271    119.9421     34.0019   8.2687921549e+01   5.0715682787e+01    0.3151791    0.2609267  50.96  0.001125328    1.131    0.115
       120 -10.2121     74.0297     32.8829   9.5307902753e+01   5.9797239136e+01    0.2601289    0.1665733  55.74  0.001371547    2.154    0.536
       121 -11.4267    104.1501     30.1543   8.5338998598e+01   5.4545946949e+01     0.522745    0.3335801  62.50  0.001732218    1.835    0.455
       122 -10.9861    220.0846    248.8670   1.1207939384e+02  -9.9194477902e+00    0.2361675    0.1873801  75.70  0.001382628    2.322    0.569
       123 -10.3316    119.4939     22.5063   7.8901891426e+01   5.2154300781e+01    0.1319002    0.1158848  41.49 0.0008106334    1.001    0.001
       124 -10.5754    239.5855     20.8851   6.0793795849e+01   2.3775285564e+01    0.2406313    0.1666211  79.71 0.0007497537    1.296    0.228
       125 -11.9393    202.0073     20.6143   6.4671110240e+01   3.2609496176e+01    0.3636605    0.1927946 -81.03  0.001607343    2.278    0.561
       126 -12.4894     22.3786    239.1941   1.4759475218e+02   2.2580726151e+01    0.5722035    0.2270909  76.78  0.002838767    2.607    0.616
       127  -9.2594      3.2620     17.7030   1.1786835048e+02   7.0150307608e+01   0.08519112   0.07577413 -38.75 0.0001739952    1.508    0.337
       128 -10.6444      5.9966    236.2634   1.5008900532e+02   2.4906208371e+01    0.1497136    0.1031836  74.41 0.0004600484    1.050    0.048
       129 -11.2001     12.3572    227.0386   1.4850550424e+02   2.6056359318e+01    0.2489635    0.1580916  73.04 0.0007369537    1.171    0.146
       130 -10.0829    104.4670    225.4633   1.3116756127e+02   1.3887772247e+01    0.2553877    0.1259619 -63.69  0.001207741    2.179    0.541
       131 -10.3099     77.0694    225.8290   1.3662099299e+02   1.8126215780e+01    0.2051726     0.139265  69.31 0.0007623008    1.281    0.219
       132 -11.1803     96.0081    224.0696   1.3269017105e+02   1.5551828833e+01    0.3906607    0.2817407 -62.36  0.002284817    1.499    0.333
