#   1 NUMBER                 Running object number                                     
#   2 MAG_AUTO               Kron-like elliptical aperture magnitude                    [mag]
#   3 X_IMAGE                Object position along x                                    [pixel]
#   4 Y_IMAGE                Object position along y                                    [pixel]
#   5 X_WORLD                Barycenter position along world x axis                     [deg]
#   6 Y_WORLD                Barycenter position along world y axis                     [deg]
#   7 A_WORLD                Profile RMS along major axis (world units)                 [deg]
#   8 B_WORLD                Profile RMS along minor axis (world units)                 [deg]
#   9 THETA_WORLD            Position angle (CCW/world-x)                               [deg]
#  10 FWHM_WORLD             FWHM assuming a gaussian core                              [deg]
#  11 ELONGATION             A_IMAGE/B_IMAGE                                           
#  12 ELLIPTICITY            1 - B_IMAGE/A_IMAGE                                       
         1 -13.9134    231.5061      3.5657   4.2543413007e+01   2.6376271450e+01     1.412621    0.3427386  52.33  0.004375113    4.429    0.774
         2 -14.8670    220.4173     78.2569   6.4252829170e+01   1.9296261852e+01     2.982236    0.8690389 -47.65  0.007267615    5.570    0.820
         3 -18.4666    241.9877     46.5436   5.2646499142e+01   1.8631217297e+01     7.238349     5.070844 -18.23   0.02456813    1.546    0.353
         4 -15.2389    221.7640     22.7086   4.8707400019e+01   2.6733941378e+01      1.46819    0.8577867  -9.57   0.00473907    2.250    0.555
         5 -12.1194    122.2750     35.5943   7.0803085382e+01   5.0251898411e+01     1.301522    0.4703551 -31.48  0.004712047    2.707    0.631
         6 -11.8201    127.2354     24.8122   6.5522430539e+01   5.0630604366e+01    0.9018295    0.4804449 -12.49  0.003710897    2.322    0.569
         7  99.0000    160.6958     19.8087   5.6762410531e+01   4.3049053907e+01     2.242424     1.162003  15.56  0.005828647    3.319    0.699
         8  99.0000    154.4768     15.3889   5.6350348071e+01   4.5134955031e+01     1.261757    0.6322252  17.71  0.004395688    3.367    0.703
         9 -11.1370    135.3557     19.0160   6.1484414884e+01   4.9443979560e+01     1.174334    0.4700924 -25.53  0.004440516    2.528    0.604
        10 -11.0841    142.1395     14.0846   5.8234000873e+01   4.8359994808e+01     1.327011    0.4244122 -17.33  0.002526622    4.239    0.764
        11 -11.6015    144.7642     30.2384   6.3565414150e+01   4.5757237936e+01     1.267408    0.5291632 -26.02  0.004746784    2.493    0.599
        12 -12.8310    147.9242     42.5052   6.7174359542e+01   4.3250430814e+01     1.316329    0.9458979 -35.55  0.005487395    1.395    0.283
        13 -12.3215    140.6182     39.0146   6.7603448600e+01   4.5530703686e+01     1.791664    0.4880416 -34.84  0.005611636    3.405    0.706
        14 -12.1682    133.6375     36.0411   6.8168450604e+01   4.7609772563e+01     1.332622    0.4772697 -29.48  0.004662809    2.825    0.646
        15 -10.3378    183.2160     27.5765   5.5496498469e+01   3.6245047526e+01    0.8215296    0.3269604 -39.47  0.003012531    2.519    0.603
        16  -9.2249    125.5533     14.3737   6.1881714189e+01   5.2283346617e+01      0.27771    0.2396698 -86.94  0.001369213    1.472    0.321
        17 -11.7879    118.9079      9.8542   6.1616844081e+01   5.4295241459e+01    0.7035666       0.4312  38.29   0.00255592    1.548    0.354
        18  -9.5851    177.0771     12.8725   5.1745966481e+01   3.9553843744e+01    0.3836316    0.2493897  17.31  0.001740478    1.947    0.486
        19  -9.4814    193.9985     11.3388   4.8887332271e+01   3.5257495756e+01    0.4055168    0.2147194  -3.95  0.001407329    2.708    0.631
        20  -9.0704    185.5636      7.4827   4.8823736803e+01   3.7875934817e+01    0.2438278    0.2051442 -24.05 0.0005608924    1.265    0.210
        21  -7.8181    182.1599      5.1346   4.8547142195e+01   3.9002296034e+01     0.375515     0.197928 -53.73  0.001565687    2.281    0.562
        22 -10.3515     92.8938      7.7058   6.7456895413e+01   6.0006690757e+01    0.2263872    0.1588166  -7.69 0.0004340466    1.357    0.263
        23 -10.0024    249.3200    176.2742   8.2321650940e+01  -1.6453355567e+00    0.2825562    0.1980966  36.92  0.000877748    1.300    0.231
        24 -10.4444    248.3428    249.7090   9.5013366853e+01  -9.3970321717e+00    0.3544083     0.159658  33.60  0.002110798    1.702    0.413
        25 -10.6371    214.7826    241.6834   9.9156104781e+01  -3.4359652313e+00    0.3025248    0.1753306  12.96  0.001671337    2.470    0.595
        26 -11.4408    200.9843    167.1496   8.9088600561e+01   8.9743341711e+00    0.5158222    0.3496114 -51.67  0.001302969    1.827    0.453
        27 -13.1060     24.2797    162.5657   1.2426643521e+02   3.8413209716e+01    0.7531208    0.5369744  86.56  0.003788014    1.047    0.045
        28 -10.2981    157.6659    161.0840   9.6456446138e+01   1.8781113881e+01    0.3429213      0.25744 -46.12  0.001264716    1.442    0.307
        29 -10.2767    188.5694    157.5591   8.9542841575e+01   1.3105824895e+01    0.2855623    0.2416237  78.79 0.0007972987    1.439    0.305
        30 -10.2190    170.8025    156.4975   9.2877933935e+01   1.6971787795e+01    0.4543226    0.2572298  73.44  0.001528876    3.933    0.746
        31  -8.6082    146.2945    157.0074   9.8055688691e+01   2.1792257442e+01    0.1860536    0.1730969  89.90 0.0003772792    1.078    0.072
        32  -8.8516     90.8354    156.7992   1.0991301162e+02   3.1510581882e+01    0.1790726    0.1319174  81.13 0.0004099799    1.326    0.246
        33  -8.5135     86.7767    155.9864   1.1066853358e+02   3.2287642820e+01     0.168852    0.1429885 -87.63  0.001073886    1.039    0.037
        34 -10.1254    155.7281    153.7574   9.5449247897e+01   2.0551025639e+01    0.2583474    0.1829432  49.21 0.0004185821    1.327    0.246
        35  -9.2268    152.3765    151.1383   9.5640128361e+01   2.1728235906e+01    0.2564532    0.1968535 -76.24  0.000717741    1.563    0.360
        36 -10.2729    149.5223    147.5715   9.5538878733e+01   2.2997412529e+01    0.3274284    0.1990524 -59.52  0.001080941    1.902    0.474
        37  -8.8658    198.4981    153.0880   8.6681042339e+01   1.1785662544e+01    0.2007571    0.1409253 -34.45 0.0004199661    1.511    0.338
        38 -10.8082    191.0243    150.5351   8.7594732289e+01   1.3800174200e+01    0.5752243    0.3026023 -61.86  0.001925166    3.990    0.749
        39 -11.7468     50.6614    150.4806   1.1770873727e+02   3.8179716986e+01    0.3284156    0.2733851  43.00 0.0008759471    1.446    0.309
        40 -13.9361     62.8900    144.8051   1.1433013467e+02   3.7932277355e+01     1.425706     1.245132   4.07  0.004508692    1.744    0.427
        41 -12.5068    198.9909    175.3553   9.1055019136e+01   8.0798431446e+00    0.7792763    0.6369222  60.89  0.004497202    1.364    0.267
        42 -10.6153    175.6247    149.1415   9.0388170817e+01   1.7308894455e+01    0.4464374     0.247464  44.14  0.001861603    1.711    0.415
        43 -10.3362    132.5195    137.4993   9.7245119029e+01   2.8387533333e+01    0.3837113     0.191528 -48.63   0.00132274    2.030    0.507
        44 -10.3609    133.9066    147.3214   9.8881065384e+01   2.6104298993e+01    0.5300989    0.1959315 -54.31   0.00192644    2.963    0.663
        45  -9.9075    204.0574    161.8219   8.7437493861e+01   9.2002154479e+00    0.4019066    0.2737132 -64.10  0.001789314    2.306    0.566
        46 -10.0816    140.8995    147.5057   9.7389558421e+01   2.4718335101e+01    0.2308741    0.1911492 -89.53 0.0005420662    1.317    0.241
        47 -10.5173    198.6943    144.5575   8.4800382258e+01   1.3187743105e+01    0.3548187    0.2398894 -66.60  0.001345814    2.318    0.569
        48 -12.7913    161.5004    128.7619   8.8889618605e+01   2.4201282333e+01     1.125996    0.6815875  27.28    0.0045351    2.335    0.572
        49  -9.5512    192.0198    144.0370   8.5993159271e+01   1.4718321190e+01    0.2617639    0.2311779 -89.95 0.0004761677    1.370    0.270
        50 -12.7598    188.7206    138.7961   8.5484715363e+01   1.6362907588e+01      1.09646    0.5718286  56.95  0.002054314    2.168    0.539
        51 -13.3866    184.6935    121.6614   8.2292136538e+01   2.0379474438e+01     1.123304    0.9999889  61.07  0.005958722    1.167    0.143
        52 -12.5081    168.9522    114.4468   8.3829371809e+01   2.5335643567e+01     1.066238    0.6573142  52.33  0.002962657    1.633    0.388
        53  -9.5450    162.4994    138.5499   9.0865464680e+01   2.2079572008e+01    0.2536707    0.1366667 -55.54  0.000697118    2.231    0.552
        54 -11.1796    163.0138    120.9361   8.6717210436e+01   2.5405663180e+01    0.3690006    0.3079112 -61.86 0.0004725504    1.299    0.230
        55  -8.8813    165.3149    136.6369   8.9844327855e+01   2.1848770421e+01    0.1524159    0.1159977 -86.21 0.0001616644    1.762    0.432
        56 -10.7177    192.0389    132.0385   8.3275367144e+01   1.6836752490e+01    0.3590562    0.2436379  57.32 0.0007500924    1.569    0.363
        57 -10.3788    188.5188    131.4938   8.3854474482e+01   1.7720105281e+01    0.2744876    0.2176491 -37.00 0.0008635709    1.298    0.229
        58 -11.4353    136.6076    127.9129   9.4278920157e+01   2.9574591512e+01    0.6721947    0.3469104 -56.00  0.002759623    2.120    0.528
        59  -9.8686    135.2863    120.4176   9.2897475489e+01   3.1402245852e+01    0.3367059    0.2055622 -56.12  0.001475299    1.723    0.420
        60 -11.3019    134.7649    109.5438   9.0425725124e+01   3.3779044730e+01     1.135153    0.2134133 -46.58  0.002813017    5.280    0.811
        61 -10.1172    133.1378    100.2384   8.8456006498e+01   3.6047397164e+01    0.3931909    0.2892416 -79.35  0.001573396    1.824    0.452
        62 -10.4090    154.2713    125.9047   8.9822604368e+01   2.6323730640e+01    0.2955993    0.2163974 -52.60  0.001027818    1.415    0.293
        63  -9.4276    222.0417    151.1334   8.1860600136e+01   7.1776946903e+00    0.4198922     0.194353  50.37   0.00116714    2.171    0.539
        64 -10.3037    196.4751    119.9945   7.9515988129e+01   1.7978045760e+01    0.4345317    0.3128422 -82.94  0.001858763    2.197    0.545
        65 -12.1450    122.1922    102.8069   9.1837455176e+01   3.7717609131e+01    0.7722579    0.5043389 -72.20  0.003326063    2.117    0.528
        66 -10.1379    128.1494    105.6654   9.1071950240e+01   3.5935320992e+01    0.5516105    0.2506738 -56.64   0.00198194    2.674    0.626
        67 -10.1705    126.4197    116.2194   9.4037472327e+01   3.4047437179e+01    0.3356548    0.2130075 -71.23  0.001230501    2.117    0.528
        68 -11.2282    127.3253    111.6074   9.2729719805e+01   3.4846679373e+01    0.5280728    0.3776163 -54.22  0.002468152    1.381    0.276
        69  -9.6052    146.4964    142.5188   9.5168325830e+01   2.4607452534e+01    0.1439279    0.1339061  74.23   0.00081004    1.041    0.039
        70 -11.2725    119.0381    110.2187   9.4438276148e+01   3.6746699028e+01    0.5226071    0.3410556  86.90  0.002136422    2.560    0.609
        71 -11.6761      6.8329    152.3353   1.2683755194e+02   4.1987785618e+01    0.5921528    0.3287577  71.38  0.003964598    1.569    0.363
        72 -10.8964    136.9484    140.7955   9.6922227045e+01   2.6849059280e+01     0.522831    0.1938221 -48.78  0.001919684    2.752    0.637
        73  -9.8228    145.4761    104.4863   8.6594506622e+01   3.2552023323e+01    0.2540125    0.2464641  19.43 0.0005603465    1.081    0.075
        74  -9.1987    163.9933    102.3825   8.1807959408e+01   2.8807295906e+01    0.2108325    0.1917882  47.50  0.001093145    1.099    0.090
        75 -11.9550    167.9629     94.6871   7.8855306603e+01   2.9348952059e+01    0.7760771    0.6703727 -18.35  0.002125401    1.238    0.192
        76 -10.3278    138.6422     95.1671   8.5758376095e+01   3.5920039800e+01    0.3597383     0.303214  68.04  0.001039069    1.306    0.234
        77 -11.0491    113.9309     93.2601   9.1497038194e+01   4.1321377059e+01    0.3787003    0.2457149 -50.02  0.001797015    1.468    0.319
        78 -11.1201    118.2789     92.9918   9.0291541926e+01   4.0544828909e+01    0.3415826    0.2953379 -38.53  0.001425718    1.140    0.123
        79 -10.3043    119.1136     87.6716   8.8625482202e+01   4.1485547875e+01    0.3735178    0.1970231 -53.60  0.001098154    2.026    0.506
        80 -10.8305    151.5576     91.8883   8.1779448120e+01   3.3707420339e+01    0.3199594    0.2690615 -45.14 0.0007194459    1.179    0.152
        81  -8.2327     84.0000     91.9475   9.9283875343e+01   4.6693770661e+01    0.2308702   0.07039224 -52.86 0.0008001578    2.927    0.658
        82 -10.3454    174.4160     90.7375   7.6372898996e+01   2.8539276980e+01    0.2687599     0.256651  43.75 0.0003191257    1.048    0.046
        83 -10.8957    153.9534    100.2797   8.3514659217e+01   3.1514769387e+01    0.5062366    0.3398016  41.33  0.002282349    1.548    0.354
        84 -12.2988     10.4967    162.4044   1.2686919039e+02   3.9673693409e+01     0.491182    0.2388898 -85.01  0.003095709    1.600    0.375
        85  -9.6300    107.8488     82.1310   9.0085396531e+01   4.4779114186e+01    0.2108589    0.1855138 -67.73 0.0003089467    1.209    0.173
        86  -9.2339     80.0000     77.4329   9.6719279531e+01   5.0400478374e+01     0.300599   0.06930345 -50.82  0.000921768    3.831    0.739
        87  -8.7232    126.4634     75.4739   8.3171843018e+01   4.2434153129e+01    0.1481104    0.1412355 -25.42 7.549419e-05    1.020    0.019
        88  -9.2912    125.1244     68.8251   8.1470758872e+01   4.3991046541e+01    0.2235623      0.20298 -60.16 0.0005212302    1.186    0.157
        89  -9.5044    130.9349     66.6893   7.9298751553e+01   4.3140568691e+01    0.2074762    0.1936261  42.58 0.0006022659    1.106    0.096
        90 -11.8788    135.8712     60.0991   7.5932789609e+01   4.3227906729e+01      1.00734    0.5030936 -51.40  0.002959422    2.540    0.606
        91 -10.1361    136.5073    232.3181   1.1093319300e+02   1.0583011544e+01    0.2054107    0.1602746  51.52 0.0002231422    1.077    0.072
        92  -8.8998    123.9740    205.9897   1.1001572050e+02   1.6799565577e+01    0.1707284    0.1392432  62.46            0    1.004    0.004
        93 -10.0062    245.7834    203.7474   8.8047073503e+01  -4.3479538447e+00     0.234359    0.1635224  31.47 0.0003686329    1.180    0.153
        94 -10.5230    192.3577    194.1073   9.5654755417e+01   6.5051941689e+00    0.7944734     0.410861 -63.89  0.002581706    6.046    0.835
        95 -10.1585    247.9201    195.8241   8.6270956181e+01  -3.7928061769e+00    0.2005585     0.141891  18.81  0.001228761    1.257    0.204
        96 -10.6526    223.4509    191.9617   8.9721651147e+01   1.0285446225e+00    0.2402768    0.1654641  40.02 0.0003441619    1.263    0.208
        97 -12.0515    211.8962    187.6282   9.0975878075e+01   3.7670312152e+00    0.6246086    0.3190635  50.65  0.002482752    1.935    0.483
        98 -11.3994    136.8556     48.6200   7.1836869975e+01   4.4936287827e+01    0.7052822    0.4070344 -36.14  0.002339307    1.697    0.411
        99  -8.8711    200.1737    188.1805   9.3195783131e+01   5.9061550014e+00    0.1781469     0.141321  56.47 0.0004565668    1.342    0.255
       100  -9.4916    244.1458    185.9057   8.5052181844e+01  -1.9325244292e+00    0.2035933    0.1706563 -31.25  0.001303296    1.402    0.287
       101 -10.2501    244.3009    181.9845   8.4276088615e+01  -1.4669275106e+00    0.3678117    0.2002451  52.83  0.001797726    2.155    0.536
       102 -10.4974    122.0297     60.5805   7.9633298637e+01   4.6171125564e+01    0.2880594    0.2483005  26.85 0.0003718916    1.207    0.172
       103  -8.9616    103.8010     55.2063   8.2876919214e+01   5.0794612260e+01    0.2330043    0.1591742 -77.73 0.0009575486    2.850    0.649
       104  -8.6305    165.6539     40.1903   6.2707567447e+01   3.9145884442e+01    0.3342256      0.18341  78.52  0.001203231    2.753    0.637
       105 -10.2882    110.8436     37.8688   7.4687824201e+01   5.2343080477e+01    0.3861185    0.1846368 -24.02  0.001526395    2.400    0.583
       106 -10.1548    177.5589     34.5497   5.8669396455e+01   3.6835364826e+01     0.555204    0.3467964   9.36  0.001498623    2.315    0.568
       107  -8.6848    171.5036     34.9825   5.9891478683e+01   3.8356057706e+01    0.2212991    0.1473753 -28.42 0.0006348494    1.527    0.345
       108 -11.0157    112.4164     30.1457   7.1321311045e+01   5.3170449552e+01    0.3275525    0.2484179  14.25  0.001732546    1.388    0.280
       109  -8.1818    176.6379     20.2709   5.4211602987e+01   3.8850411717e+01    0.3064705    0.2040288  84.17  0.001345888    1.738    0.425
       110  -9.2439    191.4720    181.8595   9.3668508384e+01   8.5368525469e+00    0.2310729    0.1978512  74.68 0.0008237656    1.417    0.294
       111 -10.0866    177.1915     25.3103   5.5753917015e+01   3.8107890693e+01    0.5032949    0.4011033  45.89  0.001160789    1.230    0.187
       112  -8.8687     78.7629     22.0192   7.8069870091e+01   6.0722130064e+01    0.1757463   0.09751359 -32.03 0.0007523974    1.631    0.387
       113  -9.8405    237.4946    249.2371   9.6624638880e+01  -7.7341625916e+00    0.2095818    0.1184989  39.12   0.00101921    1.333    0.250
       114 -10.4115    242.6176    246.4223   9.5421277035e+01  -8.2464588537e+00    0.1984058    0.1387768  30.53 0.0004392369    1.044    0.042
       115 -14.6458    209.7543     75.5553   6.5309880130e+01   2.2376202369e+01     1.637436     1.070671 -46.00  0.004890473    1.574    0.365
       116 -11.1669    221.0174    243.6139   9.8426815287e+01  -4.6322352232e+00    0.5906655    0.2280564  30.48  0.002679996    3.003    0.667
       117  -8.0600    184.2802     11.3301   5.0204938803e+01   3.7820644668e+01    0.1479927    0.1031965  32.45 0.0007000889    1.603    0.376
       118  -8.9606    179.6394    174.3135   9.4541697726e+01   1.2075849951e+01    0.1382526    0.1046929  77.57 0.0007042269    1.751    0.429
       119  -9.6968    154.0445    169.3122   9.8700650541e+01   1.7967049050e+01    0.3814563    0.1908863 -51.29  0.001708354    2.212    0.548
       120  -8.8367     87.2134    171.1841   1.1265869804e+02   2.9088875976e+01     0.167403    0.1462807  85.83 0.0003696769    1.098    0.089
       121 -12.3157     12.6861    172.4661   1.2716331977e+02   3.7506837979e+01    0.7543637     0.415755  50.01  0.005253973    1.708    0.415
