#   1 NUMBER                 Running object number                                     
#   2 MAG_AUTO               Kron-like elliptical aperture magnitude                    [mag]
#   3 X_IMAGE                Object position along x                                    [pixel]
#   4 Y_IMAGE                Object position along y                                    [pixel]
#   5 X_WORLD                Barycenter position along world x axis                     [deg]
#   6 Y_WORLD                Barycenter position along world y axis                     [deg]
#   7 A_WORLD                Profile RMS along major axis (world units)                 [deg]
#   8 B_WORLD                Profile RMS along minor axis (world units)                 [deg]
#   9 THETA_WORLD            Position angle (CCW/world-x)                               [deg]
#  10 FWHM_WORLD             FWHM assuming a gaussian core                              [deg]
#  11 ELONGATION             A_IMAGE/B_IMAGE                                           
#  12 ELLIPTICITY            1 - B_IMAGE/A_IMAGE                                       
         1  -8.4669      7.5048     15.4962   1.0396035302e+02   7.3006906356e+01    0.2082612    0.1011252 -76.44   0.00102351    2.170    0.539
         2  -7.6729    168.9929     11.9467   4.6842474814e+01   4.0953948707e+01    0.1815743    0.1649843 -18.81 0.0003044007    1.080    0.074
         3  -9.0740    136.0308      9.7727   5.1149796241e+01   5.0208990358e+01    0.2483223    0.2083768 -18.10 0.0002564791    1.167    0.143
         4  -8.5088     55.8396     10.1360   7.4917909208e+01   6.8447088038e+01    0.2003739     0.169133 -50.88 0.0007930744    1.309    0.236
         5  -7.8452     47.4667     10.2405   7.8895169866e+01   6.9775912395e+01    0.1839716    0.1120099 -49.48 0.0009363745    1.636    0.389
         6  -8.6156     90.8942      9.1555   6.1435184720e+01   6.1600630298e+01    0.2203761    0.1885051 -49.79  0.000647079    1.299    0.230
         7  -7.5555    101.4879      8.4378   5.8093631277e+01   5.9217860009e+01    0.1443364    0.1363728 -21.37 0.0001274575    1.069    0.064
         8  -8.3641     33.3496      5.3014   8.3506156308e+01   7.2655634501e+01    0.2425842    0.1364437 -60.03  0.001143882    2.387    0.581
         9  -8.5011     79.2259      4.1040   6.2319678080e+01   6.4846998829e+01     0.307753    0.1597464 -34.86 0.0009374538    1.793    0.442
        10  -7.8090     44.6792      3.3348   7.6181132995e+01   7.1395211760e+01    0.1246973   0.09891184 -62.84   0.00070498    1.704    0.413
        11  -7.6515    115.5059      2.4971   5.1812678047e+01   5.6397960281e+01    0.1460762     0.140222 -15.02 0.0008100215    1.056    0.053
        12  -8.4571     62.6220      1.7040   6.6973467721e+01   6.8541008737e+01    0.2176375    0.1731697 -78.65  0.001170256    1.941    0.485
        13  -7.3778     15.7116      2.7089   9.3038253609e+01   7.5086791562e+01    0.1223238   0.07490338 -33.47 0.0003232233    1.542    0.352
        14  -7.4487     39.2938      1.6501   7.7942091471e+01   7.2487014219e+01    0.1226393   0.09579057 -60.66 0.0007031184    1.676    0.403
        15  -8.8186    194.0690    239.8501   9.4804663582e+01   5.6648132449e+00    0.1488788    0.1282575  52.42 0.0005318555    1.553    0.356
        16  -7.9346    191.4860    249.9367   9.6298967046e+01   5.1274794982e+00    0.1003605   0.08211304  81.23 0.0007142264    2.353    0.575
        17  -8.4707     93.9660    249.4813   1.1108758392e+02   1.7739554307e+01    0.1659487    0.1007845  66.04  0.001096561    1.596    0.373
        18  -8.7005    139.6673    244.7051   1.0361692907e+02   1.2516875713e+01    0.1625112    0.1079831  80.89  0.001072342    2.488    0.598
        19  -9.5667     78.2619    243.7549   1.1317929326e+02   2.0308800673e+01    0.3191733    0.1041113  58.09   0.00170781    3.124    0.680
        20  -8.2556     67.5108    245.0177   1.1492975756e+02   2.1371251701e+01    0.1167488   0.08164246  88.06  0.000903544    1.572    0.364
        21  -8.3292     58.9785    245.2275   1.1626385656e+02   2.2284899531e+01    0.1743422   0.05598747  63.90 0.0009011232    3.643    0.725
        22  -9.4022    248.6923    242.6161   8.7349874037e+01  -1.7011455341e+00    0.1822553    0.1621466 -14.06  0.001214042    1.825    0.452
        23  -9.1967    202.0634    242.6616   9.3943392893e+01   4.3435627335e+00     0.233154    0.1547009 -22.79  0.001390206    1.961    0.490
        24  -9.0049    169.1376    242.9590   9.8906680927e+01   8.7548773904e+00    0.1832527     0.146245 -27.98 0.0009586647    1.746    0.427
        25  -8.5533      9.5072    243.5551   1.2371717001e+02   2.7398680425e+01    0.1485979   0.05363802  75.80 0.0009776915    2.404    0.584
        26  -9.9553    160.2143    240.6059   1.0003883327e+02   1.0200551182e+01    0.2621138    0.1895158  84.61  0.001327258    2.516    0.602
        27  -9.3261    183.1432    239.4816   9.6406288760e+01   7.1860415531e+00    0.2743598    0.2575966 -54.89   0.00181576    1.653    0.395
        28  -9.1436    120.2741    245.6359   1.0671828737e+02   1.4933343277e+01    0.2703221    0.1422043  64.44  0.001571503    2.407    0.585
        29  -7.8928     88.3289    242.1923   1.1149617267e+02   1.9320568273e+01    0.1172036   0.07636008  82.68 0.0006733105    1.756    0.430
        30  -9.0579    240.5867    240.2468   8.8159009488e+01  -5.1791350828e-01    0.1656513   0.07988578 -13.00  0.001124341    2.544    0.607
        31  -7.9805    208.8813    238.7888   9.2491522769e+01   3.7547013334e+00    0.1244654   0.09235791  38.63 0.0005115393    1.273    0.215
        32  -8.9685    135.4666    238.8900   1.0375347654e+02   1.3722535668e+01    0.1657397    0.1195976  64.42  0.000940374    1.530    0.346
        33  -9.2803    230.9401    236.9281   8.9087755649e+01   9.7030975507e-01    0.1902712     0.157188 -43.72  0.001155263    2.248    0.555
        34  -9.1853    247.9145    234.9917   8.6472825777e+01  -1.0863456296e+00    0.1775339    0.1569102  25.83  0.001629272    1.645    0.392
        35  -9.9599    246.5622    229.1487   8.5882690260e+01  -5.0047667173e-01    0.3351502     0.159974 -16.85  0.002106013    2.386    0.581
        36  -9.5142    214.0104    232.1593   9.0929476254e+01   3.6147381325e+00    0.2290669    0.2038483 -85.27  0.001179262    2.282    0.562
        37  -8.9509    203.2857    235.0771   9.2873260278e+01   4.8303015303e+00    0.1801697    0.1613389 -64.30  0.001120983    2.007    0.502
        38  -9.7661    175.6763    233.2803   9.6863921901e+01   8.8184510820e+00    0.2980544    0.1941895 -58.03  0.002112627    2.695    0.629
        39  -8.0462    169.9704    235.9639   9.8043348921e+01   9.3394333264e+00    0.1435522    0.1025575  56.76 0.0005598675    1.600    0.375
        40  -9.4097    108.9548    234.3536   1.0762204372e+02   1.7749265232e+01    0.3782643    0.1617352  53.87  0.001992051    2.032    0.508
        41  -7.6568     18.6770    236.3369   1.2214857242e+02   2.7568444729e+01    0.1002712   0.03875217  58.50 0.0007050823    1.715    0.417
        42  -8.2664     99.8650    234.7148   1.0912570137e+02   1.8860149885e+01    0.1839814   0.09862181  66.96   0.00121915    2.109    0.526
        43  -9.3613     78.7893    234.5884   1.1253645824e+02   2.1451657968e+01     0.185936    0.1107819  63.73 0.0009526148    1.443    0.307
        44  -9.1685      8.2123    233.6887   1.2368638556e+02   2.8890347293e+01    0.2274298   0.09205049 -57.10  0.001273414    5.406    0.815
        45  -8.3767    122.8324    234.1586   1.0535625473e+02   1.5960076211e+01    0.1565236    0.1027492  56.36 0.0006617173    1.337    0.252
        46  -9.0340     68.1347    232.2137   1.1412257528e+02   2.3016456532e+01     0.317557    0.1267391  64.29  0.001861278    2.645    0.622
        47  -7.4968     53.6989    234.3899   1.1656914532e+02   2.4322857632e+01    0.1041535   0.04644939  61.08 0.0007013048    1.798    0.444
        48  -8.5671    194.5620    232.8752   9.3920183221e+01   6.2294994258e+00    0.1360978    0.1258617 -54.02 0.0006839589    1.737    0.424
        49  -9.2457    186.5993    230.8772   9.4900534469e+01   7.5281971620e+00    0.2418885     0.193205  84.14  0.001275683    2.373    0.579
        50  -8.5040    144.6566    233.3194   1.0176407970e+02   1.3113491799e+01    0.1664066   0.09034567  61.68  0.001000756    2.493    0.599
        51  -8.7508    140.0482    230.1854   1.0219932255e+02   1.4108074465e+01    0.2669646    0.1194509  54.94  0.001508608    2.414    0.586
        52  -8.5728    132.8323    232.7843   1.0361543040e+02   1.4786129154e+01    0.1736736    0.1114829  69.79 0.0009595844    2.043    0.511
        53  -8.3351     92.4718    232.1512   1.1014334002e+02   2.0118486989e+01    0.2398938   0.08932982  58.58  0.001096852    2.965    0.663
        54  -9.2336    236.1867    230.8731   8.7565433144e+01   7.3444555051e-01    0.1849721    0.1616222 -22.13 0.0007466789    1.753    0.430
        55  -8.0382     49.5217    243.0278   1.1762630560e+02   2.3588698851e+01    0.1301745   0.05117228  69.26 0.0008102513    2.599    0.615
        56  -8.9374      1.7666    230.9016   1.2461378931e+02   2.9848679941e+01    0.1688818   0.07405646  65.84 0.0008398649    1.577    0.366
        57  -8.9577    151.3090    228.9642   1.0025517512e+02   1.2686432176e+01    0.1925963    0.1388213  77.80  0.001386943    2.118    0.528
        58  -9.4843    148.8134    224.6985   1.0021335191e+02   1.3527712019e+01    0.3023897    0.2103971  79.54  0.001440221    2.314    0.568
        59  -7.9674    229.6198    228.8126   8.8230708453e+01   1.7694722485e+00    0.1087136   0.08922893 -17.74 0.0004316383    1.607    0.378
        60  -8.6474    162.1833    228.1276   9.8420296931e+01   1.1251159935e+01    0.2198814    0.1372816  60.79 0.0009630984    2.062    0.515
        61  -9.0132    127.5464    227.4102   1.0397788519e+02   1.6154711369e+01    0.2514664    0.1536242  48.33  0.001270888    1.224    0.183
        62  -8.3132    120.0210    227.7413   1.0525042307e+02   1.7130259395e+01    0.1624213     0.117013  75.86  0.001058802    1.646    0.392
        63  -7.8537    223.3791    227.2381   8.8927727997e+01   2.7428925092e+00     0.110427   0.09156844 -21.98  0.000560614    1.639    0.390
        64  -8.3573    206.0158    226.3159   9.1384360464e+01   5.2288155078e+00    0.1519781    0.1304603  49.03  0.000668449    1.547    0.353
        65  -8.2040     49.6485    227.2817   1.1687778278e+02   2.5766062167e+01     0.166904   0.07094779  60.05  0.001104915    1.853    0.460
        66  -8.9336      7.8744    227.2006   1.2358450258e+02   2.9857151326e+01    0.1104017    0.0877964  64.43  0.000626551    1.312    0.238
        67  -8.9618     94.3543    224.4780   1.0926103410e+02   2.0915809261e+01    0.3258486    0.1352454  61.60  0.001738154    2.897    0.655
        68  -8.6204    180.3784    224.2738   9.5089069475e+01   9.0680218879e+00    0.1954119    0.1280346  52.19 0.0006094466    1.594    0.373
        69  -8.8517    104.7438    223.6833   1.0744924838e+02   1.9684814825e+01    0.2477977    0.1433146  70.80  0.001614702    2.074    0.518
        70  -8.2425     38.1857    224.9117   1.1864648702e+02   2.7312482704e+01    0.1448247   0.06491882  55.01 0.0007700449    1.531    0.347
        71  -8.6342    216.4594    223.4295   8.9447038158e+01   4.0204824722e+00    0.1811775    0.1501238  50.23 0.0009343047    1.651    0.394
        72  -8.5503    172.9624    223.3549   9.6157439400e+01   1.0229278904e+01    0.1589711    0.1402998  75.46  0.000593212    1.608    0.378
        73  -8.1281    113.7824    223.9902   1.0595648172e+02   1.8448604062e+01    0.1564748   0.09543835  68.98 0.0007603858    1.916    0.478
        74  -8.0889     59.7549    223.9676   1.1503237118e+02   2.5135194859e+01     0.162345    0.0749885  65.23 0.0007810749    1.977    0.494
        75  -9.0306    225.2032    221.9146   8.7953605666e+01   2.9313681890e+00     0.198458    0.1378708   2.62 0.0008075412    1.436    0.304
        76  -9.3565    192.5945    221.4701   9.2829852596e+01   7.5936616253e+00    0.2549709    0.2085125  75.25  0.001118271    2.092    0.522
        77  -9.5342    159.9835    220.7536   9.7954500588e+01   1.2387301161e+01    0.4180525     0.245525  61.02  0.001846363    2.297    0.565
        78  -8.4149    140.3810    223.1118   1.0143567983e+02   1.4905399277e+01    0.1213073   0.09548743 -86.58 0.0009356407    1.771    0.435
        79  -9.0297    238.8693    221.6176   8.5937160125e+01   1.0822876829e+00    0.1597958    0.1309485  -2.16 0.0005194442    1.401    0.286
        80  -8.2950    199.8930    226.1677   9.2293887346e+01   6.1039189601e+00    0.1456666     0.115884  40.80 0.0005223147    1.297    0.229
        81  -8.1087    202.7826    220.5434   9.1136103668e+01   6.2182924873e+00    0.1337558    0.1189753  -2.66 0.0005773659    1.383    0.277
        82  -9.2239    120.5941    219.5874   1.0440507181e+02   1.8103831167e+01    0.3648846    0.1734124  61.60  0.001969432    2.758    0.637
        83  -8.7975     82.9495    220.7373   1.1091233190e+02   2.2865717964e+01    0.2258041    0.1003761  61.82   0.00127419    2.284    0.562
        84  -8.1934     73.0195    220.5499   1.1258884560e+02   2.4095963486e+01    0.2014022   0.07883623  66.54 0.0009445745    3.359    0.702
        85  -8.3369     27.5975    220.7773   1.2021836024e+02   2.8984014011e+01    0.1543684   0.07611521 -77.53  0.001132444    2.151    0.535
        86  -8.3012    210.0473    219.3325   8.9868688416e+01   5.2906745881e+00    0.1508708    0.1352633  46.55 0.0006118268    1.538    0.350
        87  -8.7082    217.3132    235.7016   9.0887339835e+01   2.8752374357e+00     0.178923    0.1158842  44.80 0.0007574862    1.527    0.345
        88  -8.3963    179.4600    217.9881   9.4471890608e+01   9.8581175126e+00    0.1229117    0.1061864 -32.32 0.0006132983    1.541    0.351
        89  -9.3029    132.9391    216.2190   1.0197384458e+02   1.6818329582e+01    0.3654542    0.1955481  66.92  0.001948325    3.040    0.671
        90  -8.5076     62.2182    217.5625   1.1424229257e+02   2.5797060503e+01     0.280555   0.09478888  57.14  0.001519344    2.584    0.613
        91  -8.9570     51.4851    217.3802   1.1606377105e+02   2.7026538638e+01    0.2225883    0.1140784  71.49  0.001031089    1.791    0.442
        92  -8.8637    169.3580    216.1423   9.5881808336e+01   1.1542671419e+01    0.2115545    0.1790055 -82.99 0.0009118684    1.820    0.451
        93  -8.7466    142.8807    216.3642   1.0030596488e+02   1.5378515749e+01    0.2214737    0.1546919  84.19   0.00141025    2.255    0.556
        94  -8.0555    111.4994    216.9964   1.0571731094e+02   1.9691209350e+01    0.1338853    0.0784397  77.29 0.0008092978    2.438    0.590
        95  -7.6158     18.4944    216.4754   1.2156910047e+02   3.0503290662e+01   0.09634182   0.06329995  60.54 0.0001160355    1.002    0.002
        96  -8.3636    185.6525    214.5085   9.3041370531e+01   9.3151546115e+00    0.1419261    0.1268845  79.22 0.0006626252    1.697    0.411
        97  -8.2970    154.2277    215.1910   9.8270580179e+01   1.3874409208e+01     0.143061    0.1057026  55.91 0.0004995787    1.367    0.268
        98  -9.5264     73.5200    212.3775   1.1194596663e+02   2.5242677335e+01    0.5108251    0.1452912  56.94   0.00218339    4.039    0.752
        99  -7.8672     41.3273    215.6460   1.1770362290e+02   2.8376372457e+01    0.1091541   0.04769807  60.56 0.0007046543    1.771    0.435
       100  -9.5553    213.8707    212.0245   8.8293093717e+01   5.4108603948e+00    0.2470813    0.2398043  45.49  0.001389167    1.600    0.375
       101  -8.9876     92.7467    213.8038   1.0869025276e+02   2.2624471666e+01    0.2514802    0.1183978  60.21  0.001121046    2.113    0.527
       102  -8.9844    161.7698    212.4452   9.6688692472e+01   1.3089529653e+01    0.1869678    0.1466688  63.96 0.0007485547    1.542    0.351
       103  -8.4067    106.4879    212.9970   1.0622147404e+02   2.0923443989e+01     0.129845     0.100818 -81.18 0.0008344324    1.541    0.351
       104  -7.7443    224.7869    212.0562   8.6650937964e+01   3.8313100502e+00    0.1163772   0.07955968 -19.45 0.0007690369    1.671    0.401
       105  -8.9514    204.4069    211.1160   8.9626836801e+01   6.8851715287e+00    0.1908211    0.1699515  52.59 0.0007645882    1.539    0.350
       106  -9.4651    175.6158    210.3210   9.4132464705e+01   1.1266216016e+01    0.3258351    0.2142467  68.03  0.001462223    2.647    0.622
       107  -9.4269      7.3938    211.2242   1.2325417143e+02   3.2316216847e+01    0.2286636   0.07828575  67.50  0.001431992    2.246    0.555
       108  -8.2744    192.2775    210.6665   9.1478818999e+01   8.7321886325e+00    0.1536735    0.1328637 -49.21  0.000750132    1.717    0.418
       109  -8.9414    147.9203    210.4530   9.8789946658e+01   1.5382984896e+01     0.225001    0.1609647  72.02  0.001040551    1.882    0.469
       110  -8.9633    116.2860    210.3609   1.0425827691e+02   1.9948202590e+01    0.2426731    0.1531901  72.21  0.001151671    1.945    0.486
       111  -8.3490     32.8869    210.8161   1.1892492382e+02   2.9989080579e+01    0.2399268   0.08045059  61.04  0.001375042    2.425    0.588
       112  -9.1887    236.5838    208.5644   8.4406949448e+01   2.4489857579e+00     0.203826    0.1969417 -49.97  0.001042343    1.890    0.471
       113  -8.6151     85.4881    209.3262   1.0960595820e+02   2.4215226299e+01     0.246044    0.1276441  72.00  0.001300112    2.306    0.566
       114  -8.3891    139.3236    208.2791   1.0002002065e+02   1.6927670994e+01    0.2015432    0.1267453  64.70 0.0007761825    1.952    0.488
       115  -8.2752    126.4577    208.6318   1.0229988178e+02   1.8748078326e+01    0.1790407    0.1313563  66.47  0.000847829    1.437    0.304
       116  -8.8999    232.7025    215.7842   8.6011718462e+01   2.3959030205e+00    0.2191556    0.1614888 -40.20  0.001641439    2.211    0.548
       117  -9.3192    246.4137    207.2937   8.2801332795e+01   1.1723044770e+00     0.194838    0.1532457  -4.47 0.0007248247    1.352    0.260
       118  -7.9615    156.4622    208.1733   9.7066065709e+01   1.4395839413e+01    0.1242326    0.1043243 -82.61 0.0009298167    1.685    0.406
       119  -9.1676     99.3044    206.1751   1.0687268121e+02   2.2876674025e+01    0.2707809    0.1592008  70.87  0.001176306    1.938    0.484
       120  -8.3763     11.7741    206.8087   1.2238952398e+02   3.2626298458e+01    0.1399481   0.07172529  58.94 0.0005228464    1.323    0.244
       121  -8.4759     56.4633    205.3475   1.1449911034e+02   2.8330690507e+01    0.2709013    0.1138885  65.51  0.001305898    2.353    0.575
       122  -8.9822    183.8333    204.1285   9.1965081402e+01   1.0712932949e+01    0.2443759    0.1659452  60.34   0.00084819    1.981    0.495
       123  -8.7593    131.4556    204.1961   1.0093960919e+02   1.8629848499e+01    0.2364716    0.1570721  74.70  0.001001674    2.045    0.511
       124  -8.0625    109.1833    205.2668   1.0501761371e+02   2.1660792920e+01    0.1499137      0.10005  61.19 0.0005168838    1.374    0.272
       125  -7.6362     92.6179    205.3278   1.0799819505e+02   2.3892781197e+01    0.1180364    0.0614743  61.15 0.0002598322    1.856    0.461
       126  -9.5305    250.1047    202.0167   8.1476140731e+01   1.0777934630e+00    0.2865275     0.138019 -18.96  0.001439123    2.197    0.545
       127  -9.2211    194.9658    203.6536   9.0087611043e+01   9.0618421764e+00    0.2205918    0.1813031  40.76 0.0009697158    1.238    0.192
       128  -9.1804    192.4205    197.3229   8.9600271583e+01   1.0139641767e+01    0.2223335     0.210752 -73.98  0.001180857    1.573    0.364
       129  -9.5952    163.7279    203.1152   9.5197903757e+01   1.3915301117e+01    0.3074107    0.1830475  56.86 0.0009284036    1.910    0.476
       130  -9.3043    243.0610    200.6706   8.2278803628e+01   2.1857576198e+00    0.2384472    0.1422849 -21.07 0.0009349107    1.805    0.446
       131  -8.3927    210.9777    202.0090   8.7310984120e+01   6.7966195196e+00    0.1472531    0.1262436  57.84 0.0005080723    1.674    0.403
       132  -8.8201    140.6030    201.2482   9.8982869659e+01   1.7672111513e+01    0.2646031    0.1689032  70.08  0.001145614    2.209    0.547
       133  -8.5860     80.2176    201.5856   1.0993276993e+02   2.6070793917e+01    0.2434856    0.1239254  62.41  0.001484531    1.865    0.464
       134  -8.2808     48.0487    201.7770   1.1579571790e+02   2.9840084169e+01    0.1861097    0.1004242  76.83   0.00126183    1.728    0.421
       135  -8.0465    221.8880    201.3810   8.5534057128e+01   5.2193005609e+00     0.139933    0.1169232  24.03 0.0005628593    1.209    0.173
       136  -8.8940    237.0347    198.4265   8.2813160188e+01   3.2491485137e+00    0.2278535    0.1419963 -35.36  0.001278531    2.181    0.541
       137  -9.4459    149.5373    198.6040   9.7083229468e+01   1.6667535177e+01    0.3324645    0.2261995  81.75  0.001456919    2.516    0.603
       138  -9.1037    123.9152    199.2463   1.0173746034e+02   2.0430144431e+01    0.2590831     0.170411  68.76    0.0012824    1.772    0.436
       139  -9.4479    113.0607    198.6933   1.0365147552e+02   2.2080721199e+01    0.3603992    0.1883987  63.72  0.001819796    2.324    0.570
       140  -8.9845     88.8043    198.7007   1.0811123867e+02   2.5412994355e+01    0.2772062    0.1515656  71.05  0.001646104    2.102    0.524
       141  -8.4499    176.9881    199.1890   9.2428730999e+01   1.2336569544e+01    0.1632758    0.1284428  48.46 0.0004290048    1.260    0.206
       142  -8.2047    202.4653    198.1402   8.8090737555e+01   8.4905755351e+00    0.1677528    0.1313916  45.92 0.0006648776    1.360    0.265
       143  -9.3300     61.6040    197.2168   1.1302638146e+02   2.9045546521e+01    0.3267993      0.14362  66.12  0.001453467    2.344    0.573
       144  -8.3680     12.6814    197.6995   1.2193871146e+02   3.4023227106e+01    0.2039326   0.06965726  70.18  0.001166996    2.493    0.599
       145  -7.9409     29.3234    197.6541   1.1896195988e+02   3.2465521233e+01    0.1118238   0.04924062  61.23 0.0005845748    1.739    0.425
       146  -9.4662    245.9105    194.0361   8.0828515419e+01   2.3331940024e+00    0.2705999    0.2356387 -70.24  0.001842808    2.605    0.616
       147  -8.6819    215.9265    195.5797   8.5577738255e+01   6.6776933251e+00    0.1731184    0.1508703 -41.36 0.0007376767    1.713    0.416
       148  -8.5006    133.2315    196.1434   9.9694589923e+01   1.9488108440e+01    0.2055869    0.1188527  60.14 0.0008660606    1.916    0.478
       149  -8.7325    224.4277    194.4659   8.4092669669e+01   5.4883246938e+00    0.1865863    0.1812347  17.35  0.001205088    1.544    0.352
       150  -7.5973    209.2885    195.6632   8.6634226426e+01   7.6917703135e+00   0.09634837   0.08500882  59.82 0.0003369632    1.635    0.388
       151  -8.8494    185.2682    194.6880   9.0404543366e+01   1.1561715939e+01    0.1990356     0.182165 -88.86 0.0007771627    1.610    0.379
       152  -9.0064    161.2008    194.5972   9.4513647632e+01   1.5376848268e+01    0.2218832    0.1621569  64.37 0.0008699979    1.684    0.406
       153  -9.0957     44.2785    193.7169   1.1601550225e+02   3.1578448618e+01     0.378655    0.1289041  62.71  0.001896446    2.917    0.657
       154  -8.3291    230.8238    194.1594   8.3074112767e+01   4.5512974589e+00     0.152058    0.1012481  15.31 0.0004678836    1.303    0.233
       155  -8.9449     77.1842    193.8234   1.0985651773e+02   2.7696114149e+01    0.2209096    0.1347129  62.16 0.0006602276    1.402    0.287
       156  -8.1676    199.0136    191.9726   8.7729777425e+01   9.6911375016e+00    0.1700662    0.1367654  30.28 0.0004985467    1.063    0.059
       157  -7.9025    178.8401    191.7908   9.1072162738e+01   1.2926323189e+01    0.1475738    0.1197835  51.17 0.0004392375    1.304    0.233
       158  -8.3711    172.3566    191.8483   9.2193468625e+01   1.3955426514e+01    0.1976613    0.1622393  70.65  0.001327481    1.629    0.386
       159  -9.1327    139.5931    190.7920   9.7879582169e+01   1.9274556062e+01    0.2959195     0.201934  76.04  0.001148659    2.084    0.520
       160  -8.9930     21.4389    191.5579   1.2012844927e+02   3.4249160400e+01    0.2710635   0.04639799  53.41  0.001224075    3.570    0.720
       161  -7.9806     53.4803    196.9343   1.1450893259e+02   3.0027724273e+01    0.1468546   0.06476171  72.64 0.0008074936    2.464    0.594
       162 -10.3839     92.1880    188.8117   1.0655183938e+02   2.6537996374e+01     0.805501    0.1940177  49.69  0.003154781    3.761    0.734
       163  -8.4918    148.3783    189.0755   9.6057353453e+01   1.8139428239e+01    0.2048618    0.1635607 -89.09  0.000727941    1.707    0.414
       164  -8.5355    237.2419    188.5629   8.1220442927e+01   4.0970784807e+00    0.1797899     0.132762  -9.26 0.0005727295    1.354    0.262
       165  -9.1004    216.7305    188.0578   8.4279630422e+01   7.3073051726e+00    0.2253151    0.2033864 -25.16 0.0009799371    1.482    0.325
       166  -9.4423    156.0935    187.6965   9.4477228567e+01   1.7099992782e+01    0.2679334    0.1982224 -65.16 0.0009760237    1.905    0.475
       167  -8.9495    129.2707    188.6050   9.9509859525e+01   2.1183461619e+01    0.2331585    0.1566955  67.21 0.0009293151    1.711    0.416
       168  -9.8923    120.9343    186.8321   1.0085901484e+02   2.2717389690e+01    0.4112826    0.2385454 -80.55   0.00217661    2.861    0.650
       169  -8.7175     34.3540    188.1493   1.1756138867e+02   3.3566841934e+01    0.2755437    0.1057076  67.74  0.001149088    2.480    0.597
       170  -8.8339    191.4103    187.2445   8.8268665431e+01   1.1441935566e+01    0.2289619    0.1849898 -87.87  0.001018169    2.242    0.554
       171  -9.2813    109.6854    186.3233   1.0293935736e+02   2.4466192734e+01    0.3278686    0.1889489  68.00  0.001511025    2.106    0.525
       172  -9.0941     54.5404    186.6516   1.1361638261e+02   3.1639145512e+01     0.350942    0.1618916  74.18  0.001731532    2.364    0.577
       173  -8.0226    230.4910    187.0571   8.1990791474e+01   5.2654378984e+00    0.1498037    0.1016604 -18.50 0.0007210378    1.562    0.360
       174  -8.8595    164.9755    186.7498   9.2757871896e+01   1.5794511772e+01    0.2103206    0.1798275  74.67 0.0009901943    1.503    0.335
       175  -8.6148    249.0916    185.5719   7.8993657821e+01   2.5912329710e+00    0.1758361    0.1401163 -22.94 0.0008002825    1.570    0.363
       176  -8.7009    210.2114    184.1200   8.4686905959e+01   8.7545236211e+00    0.1924003     0.168394 -12.47 0.0007620824    1.322    0.244
       177  -8.4839    202.8266    184.5964   8.5962659847e+01   9.8940569248e+00    0.1818037    0.1512307 -50.83 0.0006963885    1.785    0.440
       178  -8.7106    182.9542    184.7366   8.9320365593e+01   1.3117871262e+01    0.1898132    0.1701566 -42.34 0.0007847652    1.445    0.308
       179  -9.1772     67.0616    184.6906   1.1103920750e+02   3.0490048274e+01    0.3452523    0.1407869  54.95   0.00126248    2.112    0.526
       180  -8.6689    224.1221    183.7108   8.2421696925e+01   6.5822710218e+00    0.1693357    0.1459221 -11.95 0.0005508775    1.348    0.258
       181  -8.4269    197.1616    183.4977   8.6724434654e+01   1.0939317106e+01    0.1771063    0.1332426 -59.74 0.0007926154    2.256    0.557
       182  -9.1137    174.2776    183.0260   9.0567824403e+01   1.4757672207e+01    0.3135457    0.1950398 -43.72  0.001346967    2.004    0.501
       183  -8.0795      1.8399    183.8041   1.2346066073e+02   3.7305159305e+01    0.1473583   0.07409307  57.15   0.00105991    1.388    0.280
       184  -8.9227    241.0022    181.6538   7.9520608590e+01   4.1572845445e+00    0.2309179    0.1659881 -45.69  0.001477368    2.390    0.582
       185  -8.8277    141.2116    182.1693   9.6447042288e+01   2.0266284867e+01    0.1991937    0.1579848  47.08 0.0003190408    1.043    0.041
       186  -8.6442    137.6451    179.3133   9.6729328647e+01   2.1262495230e+01    0.2536348    0.1769149  79.48 0.0009416418    2.025    0.506
       187  -8.9989     44.3728    182.3064   1.1529347946e+02   3.3531088287e+01    0.3057447    0.1480232  72.22  0.001270069    1.957    0.489
       188  -9.1289    189.1587    181.2207   8.7712951281e+01   1.2523177994e+01    0.1908931    0.1754041  -1.32  0.000379161    1.233    0.189
       189  -9.3540    191.2057    178.2431   8.6888598762e+01   1.2542184353e+01     0.232077    0.1878598  53.48 0.0005770935    1.407    0.289
       190  -9.2861    147.4653    180.8182   9.5094340764e+01   1.9455677122e+01    0.2671038    0.2031495  72.63  0.001067453    1.637    0.389
       191  -7.9580     83.3579    182.2108   1.0762279743e+02   2.8827850960e+01    0.1448302     0.094409 -89.73 0.0004317018    1.662    0.398
       192  -9.6866     25.7148    179.0609   1.1874401067e+02   3.6018482636e+01    0.5648928    0.1742785  72.74  0.002467265    3.938    0.746
       193  -7.9142    235.3803    181.2335   8.0289236551e+01   5.0625841474e+00     0.139694   0.09859334 -28.54 0.0009462654    1.676    0.403
       194  -8.7325    204.9536    177.8445   8.4518547762e+01   1.0302184164e+01    0.2160642    0.1618231 -32.69 0.0006989131    1.596    0.373
       195  -8.0361    169.5194    178.7162   9.0756951581e+01   1.6110598148e+01    0.1353727    0.1164969 -63.61   0.00077934    1.562    0.360
       196  -9.1539     35.8347    176.8206   1.1663075174e+02   3.5412396269e+01    0.4105742    0.1446227  74.06  0.001862337    3.524    0.716
       197  -9.6218    248.4677    176.7228   7.7585588421e+01   3.4651134879e+00    0.3251365    0.2322954 -38.34  0.002169273    2.049    0.512
       198  -8.6668    250.5243    172.9294   7.6626818909e+01   3.4923762261e+00    0.1963926    0.1383028   7.94 0.0004861369    1.176    0.150
       199  -8.6337    231.2263    176.9941   8.0201258820e+01   6.1246886930e+00    0.1993801    0.1411854 -32.07  0.000641295    1.728    0.421
       200  -8.6856    129.1871    177.5457   9.8108783872e+01   2.2881166693e+01    0.2406718       0.1667  78.36 0.0009668967    1.908    0.476
       201  -8.4312     97.3189    177.6871   1.0438681853e+02   2.7669215003e+01    0.2048991    0.1299094  23.60  0.001118797    2.289    0.563
       202  -8.2886    217.5072    177.1833   8.2374761533e+01   8.3131922389e+00    0.1675516    0.1458322  40.87 0.0006731853    1.349    0.259
       203  -9.1110    183.1505    176.2071   8.7950913440e+01   1.4147050049e+01    0.1996572    0.1927765 -47.94 0.0004990238    1.349    0.259
       204  -9.6486    104.3503    174.7599   1.0264505666e+02   2.7142991661e+01    0.4655806    0.2577098  69.00  0.001731541    2.327    0.570
       205  -9.0492     89.0052    176.3920   1.0591021230e+02   2.9059289125e+01    0.2699244    0.1630045  87.07  0.001158236    1.993    0.498
       206  -9.5331     58.3363    175.0249   1.1198534698e+02   3.3245345773e+01    0.4396419    0.1770077  66.12  0.002082629    2.934    0.659
       207  -9.2471     55.5288    171.0091   1.1223256652e+02   3.4306489736e+01    0.2918109    0.1555428  73.38  0.001710477    1.851    0.460
       208  -8.8792     12.6130    176.3281   1.2116532735e+02   3.7712415766e+01    0.2609085   0.09161028  70.03  0.001217418    2.480    0.597
       209  -8.2953    211.5045    176.5058   8.3224824578e+01   9.3698035381e+00    0.1190714    0.0939262  24.88 -0.0001158921    1.002    0.002
       210  -9.3185    158.6801    175.0782   9.2174747726e+01   1.8426536351e+01    0.2688387    0.2005438  82.13  0.001030576    2.038    0.509
       211 -10.7139     75.8816    170.4342   1.0797366118e+02   3.1883605391e+01    0.9601567    0.3683428 -80.55  0.003824594    4.438    0.775
       212  -8.3873     79.5216    158.4807   1.0592243275e+02   3.3603717074e+01    0.2658652    0.1159139  30.10  0.001170008    3.082    0.676
       213  -8.1412    224.3939    174.2806   8.0792399890e+01   7.4966808883e+00    0.1401024    0.1047079 -30.03  0.000620994    1.592    0.372
       214  -9.4537    175.8072    172.1548   8.8595609071e+01   1.5922436189e+01    0.2958016    0.1721038 -44.84  0.000863951    2.121    0.529
       215  -8.6957    143.0130    172.5082   9.4741800090e+01   2.1419007878e+01    0.2092727    0.1663215 -84.68 0.0008181201    1.642    0.391
       216  -8.7986    134.8159    171.9140   9.6240518474e+01   2.2858753297e+01    0.2061369    0.1590829  83.77  0.001010004    1.616    0.381
       217  -9.5773    121.3686    170.2876   9.8667841799e+01   2.5284093261e+01    0.3700472    0.2347964 -73.73  0.001215184    2.098    0.523
       218  -8.9818     44.9090    170.9531   1.1441236835e+02   3.5519072839e+01    0.3199944     0.147499  73.63  0.001331267    2.222    0.550
       219  -8.3077    205.8714    170.5236   8.3129389563e+01   1.0986072998e+01    0.2026798    0.1536232 -49.28 0.0008607536    1.918    0.479
       220  -8.4742    198.5381    170.3232   8.4324806389e+01   1.2258213084e+01    0.1782353    0.1726878 -64.87 0.0006170341    1.442    0.306
       221  -8.1764    237.1655    169.6728   7.8021882634e+01   5.8972626360e+00    0.1756265    0.1448433 -18.24 0.0006349352    1.382    0.276
       222  -8.7434    230.2325    169.3845   7.9028436088e+01   7.0489727325e+00     0.304027    0.1292841 -39.28  0.001458573    3.166    0.684
       223  -8.6201    149.8893    169.6010   9.2989817167e+01   2.0707967906e+01    0.2127331    0.1612735 -78.07 0.0008868153    1.867    0.464
       224  -7.9769    244.4862    169.4524   7.6891195305e+01   4.7532164534e+00    0.1157737   0.08983962  17.12 8.712341e-05    1.035    0.034
       225  -9.1166    167.0847    168.5876   8.9601946653e+01   1.7911978201e+01     0.291005    0.1907246  63.76  0.001137539    2.033    0.508
       226  -8.3001     88.7345    168.8906   1.0514751008e+02   3.0414941913e+01    0.2152952    0.1410639  83.00  0.001008848    1.678    0.404
       227  -8.3929    218.8467    168.2415   8.0615024063e+01   9.0542396261e+00     0.165876    0.1461267  28.09 0.0005517849    1.219    0.180
       228  -9.0173    209.7155    165.0288   8.1527830731e+01   1.0966548204e+01    0.3888655    0.2111617 -46.86   0.00183895    2.831    0.647
       229  -8.4949    212.8442    163.7855   8.0790167586e+01   1.0571848325e+01    0.3130504    0.1880605 -21.32 0.0005923439    1.809    0.447
       230  -8.7635    111.8432    167.5300   1.0022275760e+02   2.7239233359e+01     0.271152    0.1811286 -89.07  0.001193035    1.935    0.483
       231  -8.8687    191.8952    166.6587   8.4833648383e+01   1.3855879655e+01    0.2068919    0.1743507 -34.97  0.000631618    1.419    0.296
       232  -8.7513    184.9954    166.5085   8.6017281990e+01   1.5078309035e+01    0.2004399    0.1698457 -55.68 0.0006357185    1.596    0.373
       233 -10.1159     95.2386    163.2347   1.0312131127e+02   3.0498240371e+01    0.7248176    0.3367996  70.27  0.002735609    4.297    0.767
       234  -9.1319     20.4542    166.1686   1.1913853922e+02   3.8871430498e+01    0.2950437   0.09116458  56.26  0.001105735    2.545    0.607
       235  -8.1713    233.8810    165.2746   7.7730812153e+01   6.8706961832e+00    0.1794908    0.1434648 -20.83 0.0006065987    1.389    0.280
       236  -9.9476    136.7047    164.4262   9.4767662792e+01   2.3736954971e+01     0.560675    0.2390698  55.68  0.002146077    2.884    0.653
       237  -7.8426    250.6539    165.1927   7.5223662974e+01   4.1811070365e+00    0.1557912   0.09168214  -8.14   0.00075201    1.642    0.391
       238  -8.7125    159.5784    164.5202   9.0341280805e+01   1.9800981581e+01    0.2280184    0.1856118  69.94 0.0008385079    1.478    0.323
       239  -9.4576     33.6134    163.5402   1.1624988380e+02   3.8096967001e+01     0.481446    0.1369275  55.45  0.002186023    3.045    0.672
       240  -8.8003    246.0234    162.9578   7.5488837707e+01   5.1278839161e+00    0.2071833     0.143361 -14.87 0.0005083273    1.388    0.280
       241  -8.2851    240.0358    164.0560   7.6577804025e+01   5.9875873679e+00    0.1540423    0.1437947 -43.43 0.0007058122    1.666    0.400
       242  -8.4055     56.9226    163.9166   1.1133976613e+02   3.5462088910e+01     0.281478    0.1534364  22.74  0.001449469    2.917    0.657
       243  -8.8258    204.8885    162.6775   8.1910013096e+01   1.2080136080e+01    0.2052357    0.1550685 -47.76 0.0006468581    1.833    0.454
       244  -9.3565      3.3372    162.4124   1.2247429689e+02   4.1041115530e+01    0.3332475    0.1046262  54.39  0.001627438    2.269    0.559
       245  -9.1628    177.5272    160.8329   8.6377132394e+01   1.7159747026e+01    0.2576012    0.2124714 -70.15 0.0009246371    1.749    0.428
       246  -8.8736    151.6637    161.0570   9.1293330576e+01   2.1704849126e+01     0.253759    0.2016315 -77.29 0.0009275639    1.685    0.407
       247  -8.6913     60.5232    160.2285   1.1023019274e+02   3.5728818415e+01    0.2742749      0.14256  73.64  0.001061785    2.071    0.517
       248  -8.6730    243.5628    159.2984   7.5173240575e+01   5.8828124695e+00     0.343992    0.1215188  33.94   0.00151638    2.777    0.640
       249  -8.4829    227.3961    159.0790   7.7594614103e+01   8.6041279964e+00    0.2228879    0.1686209 -41.54 0.0009155895    1.801    0.445
       250  -8.4149    128.3042    159.2951   9.5682155852e+01   2.5990549611e+01    0.2430069    0.1596258  72.52 0.0007875512    2.006    0.502
       251  -9.7549    105.8698    157.9651   1.0017965282e+02   2.9845993553e+01    0.4563619    0.2942977  81.14  0.001316088    1.982    0.495
       252  -9.7203    250.1899    157.8257   7.3927599847e+01   4.9499194830e+00    0.2804773    0.1473427 -20.87 0.0008142132    1.841    0.457
       253  -8.4011    236.9863    158.9449   7.6092103344e+01   7.0035065500e+00    0.1545479    0.1491554 -59.78  0.000645691    1.641    0.391
       254  -9.1500    167.6716    157.6579   8.7649669642e+01   1.9377002254e+01    0.2736057    0.2271166 -86.65  0.001004462    1.691    0.408
       255  -8.4667    196.6311    158.0694   8.2482006179e+01   1.4109041572e+01    0.1955201    0.1599455  47.50 0.0006684893    1.276    0.216
       256  -8.4687    188.2269    157.5980   8.3871835417e+01   1.5679598060e+01    0.2097966    0.1685363 -27.79 0.0006502928    1.381    0.276
       257  -8.4033    217.9667    156.5291   7.8618666540e+01   1.0514654113e+01    0.2108971        0.159 -40.45 0.0009055563    1.705    0.413
       258  -9.2463    157.7113    155.9735   8.9262636238e+01   2.1418053439e+01    0.2915139    0.2152785 -58.28  0.001267298    1.708    0.414
       259  -9.5357    119.6372    155.4482   9.6899038179e+01   2.8091380136e+01    0.3437491    0.2283126  82.88  0.001741471    2.084    0.520
       260  -8.5198     22.6635    156.6441   1.1815228507e+02   4.0481725203e+01    0.1462205    0.1198182 -52.69 0.0009485934    1.729    0.422
       261  -9.5250     81.7291    154.8018   1.0500774733e+02   3.3996931420e+01    0.4264056    0.2592946  67.98  0.001528871    1.683    0.406
       262  -9.4347     49.5424    155.2624   1.1217972960e+02   3.7982668243e+01     0.330706    0.1534027  64.29  0.001613929    2.122    0.529
       263  -8.9989    233.5845    147.7436   7.4459884511e+01   8.7634146515e+00    0.2152925    0.1829939 -21.42 0.0007821356    1.330    0.248
       264  -7.8066    237.4436    150.4644   7.4404610030e+01   7.8065290688e+00    0.2003724    0.1037239  43.90 8.673902e-05    1.782    0.439
       265  -8.7439    242.5500    155.0106   7.4514327136e+01   6.4773317484e+00    0.1702279    0.1452996 -22.00 0.0004113806    1.402    0.287
       266  -8.0616    239.7905    153.0581   7.4552645970e+01   7.1381337635e+00    0.1674737    0.1321187   1.97 0.0005632703    1.109    0.099
       267  -9.8820    243.0221    149.5833   7.3397528476e+01   6.9491552596e+00     0.305521    0.2766951  33.32  0.002170242    1.365    0.267
       268  -8.2570    240.1858    145.2193   7.2959318508e+01   7.8869199864e+00    0.1967071    0.1428292 -29.27 0.0005727909    1.516    0.340
       269  -8.1158    204.8625    155.1824   8.0535928251e+01   1.2996244943e+01    0.1696214    0.1648034  28.83 0.0007740503    1.293    0.226
       270  -8.7019    144.5164    154.8549   9.1679158806e+01   2.3941496933e+01    0.2771084    0.1807098  60.93  0.001128511    1.718    0.418
       271  -9.7939    132.8327    153.1656   9.3783767911e+01   2.6261009637e+01    0.4000792    0.2926343  73.48  0.001306767    1.644    0.392
       272  -9.5685    133.6448    148.6912   9.2872945292e+01   2.6886615429e+01    0.3447695    0.2074083 -44.72   0.00182415    1.903    0.474
       273  -9.5612     67.9646    153.9121   1.0795760753e+02   3.6013723513e+01    0.3587714    0.1901189  70.30  0.001286829    2.077    0.519
       274  -7.9041    232.8045    154.0229   7.5799424673e+01   8.2234454850e+00    0.1696005    0.1318407 -46.23 0.0006247512    1.901    0.474
       275  -8.3211    151.7525    152.9340   8.9906256249e+01   2.2962597420e+01    0.1897646    0.1441968 -85.23 0.0006796478    1.896    0.473
       276  -7.9714     60.2886    153.6118   1.0963759494e+02   3.7036616362e+01     0.127236    0.0714157  69.73 0.0007009533    1.758    0.431
       277  -8.0969     19.9161    152.7779   1.1852372819e+02   4.1486308180e+01     0.157574   0.09185679  63.37 0.0005421274    1.352    0.260
       278  -8.0757    182.4834    151.5169   8.3786602033e+01   1.7555617726e+01    0.1933984    0.1195674 -48.97 0.0008134731    2.093    0.522
       279  -8.6539     98.5463    151.1078   1.0081574512e+02   3.2238021335e+01    0.2736352    0.1799523  77.34 0.0009912445    1.767    0.434
       280  -9.6464     29.2589    150.4815   1.1631356572e+02   4.1065300259e+01     0.443879    0.1609915  68.98  0.002025383    3.038    0.671
       281  -9.7049    248.8237    149.4452   7.2520406446e+01   5.9902788717e+00    0.2810567    0.1722164 -20.02 0.0009082758    1.553    0.356
       282  -8.9081    247.0296    143.9848   7.1703243186e+01   6.8409576671e+00    0.2155232    0.1488893 -15.34 0.0005269374    1.345    0.256
       283  -8.2286    250.3077    141.0213   7.0634522254e+01   6.5837805758e+00    0.1901795    0.1355139  10.96 0.0005281853    1.204    0.170
       284  -8.6230    189.5977    150.5395   8.2316188928e+01   1.6376403434e+01    0.2164395    0.1841931 -51.22 0.0007071641    1.510    0.338
       285  -8.2218    162.4831    150.5063   8.7368508651e+01   2.1391973718e+01    0.1973541    0.1229373 -54.80 0.0007150529    2.092    0.522
       286  -8.3409    213.0517    149.9758   7.8170525413e+01   1.2156501360e+01    0.1904663     0.162523  19.78 0.0004669983    1.041    0.039
       287 -10.2592     89.3527    146.5387   1.0224071063e+02   3.4494446311e+01    0.6161648    0.3186549  83.57  0.002511202    3.505    0.715
       288  -9.7507     39.8121    148.0452   1.1374732870e+02   4.0481206965e+01    0.4674777     0.165083  61.09  0.001747608    3.039    0.671
       289  -8.3721    198.8625    149.0788   8.0402428617e+01   1.4859302036e+01    0.1771514    0.1681399  60.63 0.0005447537    1.333    0.250
       290  -7.5085    228.6978    148.6876   7.5402510512e+01   9.5156137451e+00    0.1288026   0.08072016  16.21  0.000225745    1.611    0.379
       291 -10.2547    149.1952    145.0963   8.9026604134e+01   2.4697732210e+01    0.5311729    0.3556765  80.80  0.001755654    2.549    0.608
       292 -10.3482    106.7551    144.3851   9.8001567465e+01   3.2214154470e+01     0.728263    0.4250955  80.02  0.002651063    2.765    0.638
       293  -8.2363    109.2655    137.7391   9.6366696279e+01   3.3068441460e+01    0.3047854     0.126646  34.35  0.001202566    2.951    0.661
       294 -10.6636     54.8189    143.3355   1.0983780556e+02   3.9748826921e+01    0.8800286    0.4538126 -88.12  0.003298057    2.053    0.513
       295  -8.1834    223.2956    146.9533   7.5913842762e+01   1.0669660233e+01    0.1697339    0.1406268   2.98 0.0003893633    1.097    0.089
       296  -8.2396    175.7040    146.5375   8.4102400650e+01   1.9530306692e+01    0.1985342     0.161985 -68.46  0.001060864    1.705    0.413
       297 -10.0672    132.1929    131.1377   9.0017782103e+01   3.0271177958e+01    0.6071072    0.3952212 -89.19   0.00158074    2.652    0.623
       298  -9.9887    139.1246    144.9819   9.1084426548e+01   2.6550440796e+01    0.5131997    0.2745331 -65.83  0.001015024    3.133    0.681
       299  -9.2810    139.8690    137.3860   8.9541549468e+01   2.7730669188e+01    0.3194492    0.2064537  28.69  0.001047053    1.840    0.456
       300  -9.3493     13.0199    145.7890   1.1966155851e+02   4.3468455376e+01    0.3595126    0.1325189  66.62   0.00162689    2.432    0.589
       301  -7.9041    206.7691    146.3411   7.8510606631e+01   1.3749751416e+01    0.1617844    0.1466364   3.05 0.0006142235    1.133    0.117
       302  -9.9112    125.1104    142.7642   9.3685846385e+01   2.9427161791e+01     0.483347    0.3144592 -89.66  0.001594999    2.424    0.587
       303  -7.7108    194.1915    144.1709   8.0262407019e+01   1.6379743923e+01    0.1592234     0.152642  74.13 0.0005296242    1.332    0.249
       304  -8.9915    165.3373    143.9040   8.5584998195e+01   2.1879126848e+01    0.2489383    0.2118787  71.87 0.0008390279    1.404    0.288
       305 -10.8505     69.2487    141.5539   1.0624445758e+02   3.8300879607e+01    0.6699913    0.4112109  84.19  0.003752171    1.735    0.424
       306  -9.4596     69.1668    134.6634   1.0539298406e+02   3.9724612127e+01    0.4222868    0.2954369   3.43  0.002146962    2.847    0.649
       307  -8.6875    243.1503    142.2012   7.1913954388e+01   7.6908509406e+00       0.3808    0.1829583  -7.50  0.001744628    2.612    0.617
       308  -9.5978      2.7099    141.7096   1.2178261554e+02   4.5100599845e+01    0.3665413    0.1303785  73.59   0.00164203    2.460    0.594
       309  -8.3991    181.9867    141.8190   8.2010360042e+01   1.9026227786e+01    0.2065943    0.1712644 -59.25 0.0006450774    1.582    0.368
       310  -8.6958     77.8975    147.0740   1.0492066462e+02   3.6027711230e+01    0.1991356    0.1375536  70.20 0.0005827196    1.374    0.272
       311  -8.5121     39.8201    141.4145   1.1317755530e+02   4.1826108351e+01    0.1415189    0.1100313  23.78 0.0009452645    1.715    0.417
       312  -9.9089     23.5537    138.2346   1.1676445477e+02   4.4081307589e+01    0.5010589    0.1836701  63.06  0.002128645    2.665    0.625
       313  -7.9229    218.5029    138.9064   7.5062320994e+01   1.2490814001e+01    0.1793424    0.1189822 -23.44 0.0004781336    1.517    0.341
       314  -8.5936    172.2229    138.3225   8.3158973958e+01   2.1423008759e+01    0.2565025     0.187786 -79.77 0.0008085007    2.330    0.571
       315  -8.1478    207.4878    138.0207   7.6709291914e+01   1.4671209359e+01    0.1802788    0.1223987 -31.22 0.0005689173    1.553    0.356
       316  -8.7819    197.5448    137.6035   7.8342553019e+01   1.6627960531e+01    0.2313165    0.2069295 -46.90 0.0007943267    1.387    0.279
       317  -8.5483    162.6290    136.5346   8.4681585026e+01   2.3557346592e+01    0.2029029    0.1595984 -67.42 0.0005408984    1.674    0.403
       318  -9.0586    151.2703    136.0612   8.6894431499e+01   2.5815479109e+01    0.4009581    0.1961194  30.06  0.001564976    2.949    0.661
       319  -9.4028     39.3815    136.2744   1.1281675564e+02   4.2935661831e+01    0.2958336    0.1456553  59.28  0.001056598    1.863    0.463
       320  -8.5082    246.9716    130.3203   6.8902881521e+01   8.2702707800e+00    0.2163158    0.1560454 -30.76  0.000599706    1.504    0.335
       321  -9.0625    248.4738    135.1293   6.9692969886e+01   7.5022942947e+00    0.2626771    0.1796929 -24.50  0.000735175    1.441    0.306
       322  -9.1584    250.8749    129.9057   6.8258661835e+01   7.6234434795e+00    0.4815456    0.1091864 -26.43  0.001703521    4.034    0.752
       323  -7.7080    188.2586    135.6562   7.9606062706e+01   1.8698488754e+01    0.1210098    0.1050016 -72.72  0.000225914    1.591    0.372
       324  -8.6007    179.5323    134.2945   8.0944219633e+01   2.0606201697e+01    0.2168122    0.1838407 -54.66 0.0007285984    1.446    0.309
       325 -10.4362     83.3287    132.6219   1.0166584776e+02   3.8162604251e+01    0.5542382    0.2869333 -74.89  0.001442461    2.266    0.559
       326  -8.5903     84.7420    122.8326   9.9777867668e+01   3.9985623037e+01    0.3571777    0.2400011  12.69   0.00168608    2.724    0.633
       327  -8.0052    237.5779    133.8052   7.1017878561e+01   9.5785437252e+00    0.1645925     0.108105 -32.55 0.0009316048    1.638    0.390
       328  -7.6968    231.3908    134.2070   7.2043711841e+01   1.0660383806e+01    0.1626956    0.1102097 -31.48 0.0003696886    1.567    0.362
       329  -9.1596    112.8628    133.4901   9.4816282060e+01   3.3278230560e+01    0.3445159    0.2258542  66.50  0.001186456    1.741    0.426
       330  -9.2694    143.0888    131.6006   8.7737409968e+01   2.8141266839e+01    0.3567203     0.229307 -60.56  0.001187141    1.945    0.486
       331 -10.4481     98.1966    130.2631   9.7706349179e+01   3.6352827927e+01     0.592919    0.2940623 -62.48  0.001658095    2.164    0.538
       332  -8.6894     98.8468    120.7785   9.5883931835e+01   3.8177643488e+01    0.6495257     0.332597  21.64  0.002034548    5.472    0.817
       333  -9.1049    168.3636    129.6672   8.2134433922e+01   2.3529004692e+01    0.2986099    0.2308882 -68.11 0.0007934897    1.776    0.437
       334  -9.5091    152.9042    129.1934   8.5175884635e+01   2.6662237052e+01    0.4081453    0.2472973 -57.79 0.0009305211    2.149    0.535
       335  -8.1645    153.4979    123.9799   8.3955921312e+01   2.7436238391e+01       0.2034    0.1726055  21.27  0.001154999    1.263    0.209
       336  -9.9972     73.0169    128.9391   1.0366272052e+02   4.0397157126e+01    0.4437259    0.2598192 -84.99  0.001521563    1.912    0.477
       337  -9.7097     71.3331    120.1699   1.0279140982e+02   4.2495304204e+01     0.511508     0.280543  84.29  0.001682571    2.492    0.599
       338 -10.0722     12.8551    128.8728   1.1870996093e+02   4.6947296589e+01    0.5438542    0.2135994  76.45  0.002492683    2.440    0.590
       339  -8.3752    220.5910    130.1589   7.2885548961e+01   1.3158656372e+01    0.1734576    0.1143657  -9.70 0.0005442126    1.566    0.361
       340  -8.4129    211.8205    129.4697   7.4174618589e+01   1.4934066913e+01    0.2454343    0.1601316 -45.99   0.00087303    1.976    0.494
       341  -7.9884    204.7517    130.5452   7.5603114601e+01   1.6173358197e+01    0.1690523    0.1238523  55.72  0.000925821    1.540    0.351
       342  -8.0776    192.9556    130.3127   7.7628237875e+01   1.8531291601e+01    0.1849761    0.1595546  34.88 0.0004703335    1.079    0.074
       343  -8.7724    161.7626    129.9658   8.3516578241e+01   2.4790285395e+01     0.170645    0.1146312 -38.37 0.0006680141    1.608    0.378
       344  -7.9266      1.6696    130.3255   1.2150370554e+02   4.7491058789e+01    0.1195607    0.0567683  63.26 0.0007050654    1.705    0.413
       345  -7.6361    186.3645    129.7037   7.8700119225e+01   1.9930279601e+01    0.1296351    0.1076716  86.53  0.000367168    1.717    0.418
       346 -10.4128     59.9306    125.0254   1.0643236047e+02   4.2954950962e+01     0.725074    0.3540809  75.12  0.002796252    2.840    0.648
       347  -8.8209     59.0712    115.3481   1.0531789382e+02   4.5166391084e+01    0.2983452    0.2081543  -7.64  0.001478986    2.875    0.652
       348 -10.6924     44.8460    123.6662   1.1015395339e+02   4.5027332629e+01    0.9788277    0.3990974  71.72  0.003786603    3.737    0.732
       349 -10.2077    118.1207    124.9322   9.2020233581e+01   3.4012132643e+01    0.5668187    0.4118081 -73.23  0.001898659    1.595    0.373
       350  -8.0188    228.4637    125.5110   7.0634114473e+01   1.2216184315e+01    0.1294223    0.1123931   8.51 0.0006566921    1.049    0.046
       351  -8.9910    179.2586    124.8208   7.8974866437e+01   2.2090955606e+01    0.2384801    0.2362973  58.32 0.0007268825    1.154    0.134
       352 -10.1392     28.4669    122.6110   1.1428834473e+02   4.6925979392e+01    0.6024861    0.2363435  72.61  0.002587125    3.093    0.677
       353  -9.0224     27.1443    113.8151   1.1380493995e+02   4.8969772207e+01    0.2783635    0.1962354 -16.35  0.001626549    2.492    0.599
       354  -7.7009    243.7108    124.3259   6.8089555027e+01   9.5026032638e+00    0.1154251   0.09678755 -45.14 0.0003211723    1.613    0.380
       355  -7.8002    188.5120    124.0112   7.7063350283e+01   2.0328590356e+01    0.1798146    0.1143885 -57.13 0.0007595117    2.404    0.584
       356  -9.3506    158.7484    121.6164   8.2347773581e+01   2.6781819990e+01    0.3518533    0.2526824 -77.21  0.001158278    2.172    0.540
       357  -7.8565    194.6529    121.8501   7.5465856303e+01   1.9387922149e+01    0.1895995    0.1186522 -42.64 0.0005334979    1.809    0.447
       358  -8.7847    171.8884    121.6367   7.9698572116e+01   2.4093768590e+01    0.2444313    0.1974643 -42.81 0.0004738667    1.345    0.257
       359 -10.1161    130.8549    118.6290   8.7789681356e+01   3.2852554225e+01    0.5209221    0.3531122 -86.24  0.001846471    2.302    0.566
       360 -10.4881    133.3741    109.4344   8.5176640704e+01   3.4103527448e+01    0.6375082    0.3428939 -52.00  0.002354312    2.014    0.503
       361 -10.0449    141.6016    118.6988   8.5381701288e+01   3.0739553856e+01    0.3972379    0.2771324 -68.38  0.001133775    1.891    0.471
       362  -9.5831      2.6962    117.2156   1.2056414049e+02   5.0175388330e+01    0.4735922    0.1579843  70.98  0.002163582    2.926    0.658
       363 -10.1058    109.3937    114.3651   9.2021153885e+01   3.7677249874e+01     0.534023    0.3274044 -75.53  0.001290871    2.248    0.555
       364  -9.1523    109.7549    107.2514   9.0426793212e+01   3.9066759365e+01    0.2998876      0.21953  20.04  0.001483459    1.914    0.478
       365  -7.3927    219.3248    116.6819   7.0101477775e+01   1.5078083678e+01    0.1254198    0.1064371 -62.78 0.0003072768    1.673    0.402
       366  -8.2243    185.5259    116.0415   7.5808976516e+01   2.2126879712e+01    0.1997191    0.1344441 -33.26 0.0004476572    1.530    0.346
       367  -8.2632    250.1063    115.1698   6.5166701552e+01   9.3178597941e+00    0.2008121    0.1480607  17.61 0.0008847143    1.227    0.185
       368  -8.1876    193.0471    115.3231   7.4261352133e+01   2.0656896990e+01    0.1843195    0.1720448  35.72 0.0005021985    1.106    0.096
       369 -10.1789     92.7300    112.4792   9.5879110260e+01   4.0918287993e+01    0.5128454    0.3185608 -81.46  0.001426334    2.058    0.514
       370  -8.9305     93.4634    104.8425   9.4157875020e+01   4.2425682152e+01    0.4014974    0.2721846  -2.30  0.001630836    3.403    0.706
       371 -10.0303     78.8894    112.5824   9.9547348867e+01   4.3053548345e+01    0.5370982    0.3134862  87.47  0.001861131    2.359    0.576
       372  -8.7265     78.0472    105.8853   9.8557296423e+01   4.4642160960e+01    0.2658299    0.2071177 -39.17    0.0014193    1.591    0.372
       373  -7.6496    167.4557    114.4841   7.8954454197e+01   2.6171249266e+01    0.1380248    0.1322766  36.85 0.0001433256    1.044    0.042
       374  -8.6630    174.7796    112.1039   7.6939964205e+01   2.5007321719e+01     0.266735      0.18645 -49.22  0.000774996    1.648    0.393
       375  -9.8077    121.9842    112.4785   8.8550404053e+01   3.5735568153e+01    0.3696685    0.2736698  83.95  0.001251482    1.715    0.417
       376  -9.7936    118.9312    106.5177   8.7969188811e+01   3.7500780173e+01    0.3780906    0.3095787 -71.68  0.002077859    1.304    0.233
       377 -10.6253    109.2469     99.0882   8.8707459322e+01   4.0846454547e+01    0.7831691    0.4296069  67.02  0.002486825    2.916    0.657
       378  -9.1246    107.6825     92.1471   8.7439904493e+01   4.2585625325e+01    0.4305348    0.3094988  31.33  0.002142734    1.653    0.395
       379  -9.8802     14.1422    111.3644   1.1712671414e+02   5.0608820333e+01    0.3707412    0.1557379  64.65  0.001318954    2.310    0.567
       380  -8.5094    159.1765    111.7996   8.0028298557e+01   2.8362451353e+01    0.2331732    0.1867665 -51.60 0.0004986848    1.374    0.272
       381 -10.1660     66.1630    109.8311   1.0253100036e+02   4.5460123473e+01    0.5472293    0.2871805 -71.97  0.001860543    1.894    0.472
       382  -8.1397    211.2637    110.3255   6.9934213433e+01   1.7544797509e+01    0.1825579    0.1253968  56.99 0.0006894211    1.635    0.389
       383  -9.9239    248.6584    108.1450   6.3777172865e+01   1.0349433115e+01    0.3211067     0.279675   1.30  0.001833603    1.081    0.075
       384 -10.2160    248.7143    103.1388   6.2612036688e+01   1.0887348173e+01     0.371576    0.2632439   7.54  0.002071328    1.339    0.253
       385  -9.2251     43.2101    109.5348   1.0887658153e+02   4.8318579903e+01    0.2717464    0.1256059  28.01  0.001302322    2.655    0.623
       386  -8.2053    189.2016    108.2048   7.3269785163e+01   2.2518983174e+01    0.1854647     0.167869 -64.43 0.0005724205    1.353    0.261
       387  -9.7608    139.8750    104.4104   8.2490988925e+01   3.3725916308e+01     0.437251     0.291835 -58.27  0.001182477    1.743    0.426
       388 -10.5444     45.6585    102.5172   1.0721012061e+02   4.9631006405e+01    0.7468374    0.3371509  70.18  0.002874215    3.280    0.695
       389  -9.1706     45.7609     92.8830   1.0569098502e+02   5.1822045902e+01    0.4169621    0.2523687   9.12  0.001986866    2.967    0.663
       390 -10.6505     22.8526    102.5852   1.1386844886e+02   5.1854987237e+01    0.7229803    0.2952611  71.82  0.003152736    2.950    0.661
       391  -9.5988    150.5731    103.1254   7.9779235282e+01   3.1706148637e+01     0.426252    0.2701607 -60.64  0.001175828    2.101    0.524
       392  -8.5276    166.7744    104.1122   7.6600187318e+01   2.8033478207e+01    0.2139827    0.1913999 -66.74 0.0005727976    1.296    0.228
       393  -9.4676      6.7097    102.7884   1.1853106538e+02   5.3045884811e+01    0.3489923     0.161866  78.29  0.001709321    1.926    0.481
       394 -10.0948    128.4216    102.2269   8.4652213063e+01   3.6485891888e+01    0.3857118    0.2539427 -51.94   0.00108806    1.572    0.364
       395  -8.0854    175.7468    102.5556   7.4422238735e+01   2.6321555509e+01    0.1915238    0.1383494  61.64 0.0007427112    1.555    0.357
       396  -8.1526    159.8170    101.0486   7.7273254911e+01   3.0071076825e+01    0.2279091     0.157891 -63.17 0.0005080793    1.942    0.485
       397  -9.3527     81.9537     99.9538   9.6304253943e+01   4.5351143947e+01    0.3652444    0.2376662 -82.45 0.0009066231    1.803    0.445
       398 -10.2190     63.9106     95.9052   1.0072278898e+02   4.8886902136e+01    0.6492102    0.3500938 -80.40  0.001787192    2.202    0.546
       399  -9.2102     64.8124     87.7807   9.8835818070e+01   5.0611981819e+01    0.7085244    0.3340542  20.60  0.002462094    4.626    0.784
       400  -9.3522     94.9727     97.2599   9.2103701720e+01   4.3798841662e+01    0.3018745    0.2501345 -74.08 0.0006683276    1.184    0.156
       401  -7.2982    184.0000     96.9807   7.1424839655e+01   2.5360843559e+01    0.2229888    0.0807691 -32.89 0.0003645513    2.770    0.639
       402  -8.6790    151.2705     95.4371   7.7670114448e+01   3.2930154847e+01    0.3193833    0.1981107  19.47  0.001246536    2.648    0.622
       403  -8.2952    164.8722     94.1349   7.4432718745e+01   3.0125659385e+01    0.2225393    0.1951942 -65.32 0.0004940166    1.312    0.238
       404  -9.3108    139.0605     92.6304   7.9699770613e+01   3.6105211862e+01    0.3682713    0.2662287 -74.23 0.0007085357    1.886    0.470
       405 -10.2478    247.2251     91.9791   6.0158445602e+01   1.2414646924e+01    0.3525448    0.2306975 -19.79   0.00191094    1.355    0.262
       406  -8.1512    176.2264     93.2318   7.1924532332e+01   2.7702811092e+01    0.1961356    0.1707746 -64.27 0.0005706988    1.357    0.263
       407 -10.6649    123.9575     90.9335   8.2909768075e+01   3.9617114289e+01    0.6621047    0.5322469 -18.58  0.001978952    1.541    0.351
       408  -9.4376      5.0447     92.2371   1.1819181516e+02   5.5517470486e+01    0.3561113     0.143424  60.23  0.001360662    2.455    0.593
       409  -8.6806    157.4191     90.4172   7.5000478808e+01   3.2443382030e+01    0.4545675    0.1973652 -48.15  0.001635048    2.703    0.630
       410  -9.7314     34.8495     89.9125   1.0863613228e+02   5.3655496951e+01    0.4511108    0.2227214  87.54  0.001413884    2.320    0.569
       411  -9.0307     23.0435     90.1761   1.1239875402e+02   5.4667256550e+01    0.2495919    0.1949298  36.21  0.001527199    1.491    0.329
       412  -7.9023    151.1410     89.2218   7.6038739567e+01   3.4068620869e+01    0.1997405    0.1722799 -75.19 0.0004080006    1.349    0.259
       413 -10.0270     86.3457     86.5928   9.2057111033e+01   4.7589133216e+01    0.5156548    0.4190377 -88.99  0.001127859    1.295    0.228
       414  -9.0523     86.3463     81.3052   9.0738271928e+01   4.8752838356e+01     0.627942    0.3259976  21.91   0.00205701    4.550    0.780
       415  -9.8152     48.2823     83.9310   1.0331673718e+02   5.3603401794e+01    0.5549583    0.3067619 -85.12  0.002131395    2.047    0.511
       416  -7.2835    179.3116     85.6714   6.9290305960e+01   2.8185810626e+01     0.148672    0.1157567 -66.85 0.0007042226    1.667    0.400
       417  -9.7417    104.8894     83.4422   8.5947502382e+01   4.4940873516e+01    0.4262332    0.2935945 -77.45 0.0008972407    1.917    0.478
       418  -8.9179    104.8148     77.7580   8.4399744360e+01   4.6145501617e+01    0.3873644    0.2639085   0.37  0.001537247    2.938    0.660
       419  -8.4456    157.8958     84.1081   7.3154833839e+01   3.3425598134e+01    0.2233819    0.2000685 -70.82 0.0004440707    1.259    0.206
       420  -8.9914    140.8777     82.7853   7.6573307227e+01   3.7541368317e+01    0.4126533    0.1982242 -47.53  0.001040855    2.206    0.547
       421  -7.5467    185.3033     82.6620   6.7345355613e+01   2.7246142425e+01    0.1494222    0.1143535 -62.80 0.0007038684    1.670    0.401
       422  -9.7450     24.6430     80.6363   1.1060426364e+02   5.6742765738e+01    0.4547007    0.2190823  82.83  0.001300949    2.386    0.581
       423  -9.4304     10.0302     81.0580   1.1554714434e+02   5.7745019231e+01    0.3639074    0.1543981  53.78  0.001319192    2.447    0.591
       424  -8.4494    150.0497     80.4911   7.3826615092e+01   3.5870070386e+01      0.29197    0.1992916 -52.94 0.0008293195    1.633    0.388
       425  -8.8638    119.3647     80.6014   8.1263793487e+01   4.2627154681e+01    0.3049359    0.2290879 -84.37 0.0007428421    1.748    0.428
       426  -9.0137     74.5604     80.1906   9.4075981097e+01   5.0909746360e+01    0.3579477    0.2156812 -72.43  0.001362221    1.866    0.464
       427  -8.2595    166.9162     79.5647   6.9989714660e+01   3.2078071571e+01    0.2285255    0.1903248 -32.82 0.0003296128    1.189    0.159
       428  -7.9900    183.6722     78.2075   6.6389681541e+01   2.8305152008e+01    0.2102237    0.1352695 -18.26 0.0005976428    1.683    0.406
       429  -9.9356     63.4861     74.0009   9.6144100157e+01   5.3946480163e+01    0.6338788    0.2840786 -71.21  0.002381222    2.974    0.664
       430  -9.2587    128.1174     75.3714   7.7495012446e+01   4.1775693066e+01     0.368771    0.2470476 -61.03 0.0006461575    1.795    0.443
       431  -8.5207    140.4570     75.5514   7.4557656703e+01   3.8966904147e+01    0.2889348    0.1921822 -64.45 0.0007760497    2.021    0.505
       432  -9.8449     82.4093     72.5016   8.9599042969e+01   5.1356497002e+01    0.5467678    0.2904705 -65.02 0.0009361172    2.213    0.548
       433  -9.1004     84.4472     64.5411   8.6627122604e+01   5.2741208087e+01    0.4491672    0.2606056  11.50  0.001279426    6.092    0.836
       434  -9.7076    114.7804     71.1509   7.9693082288e+01   4.5476118589e+01    0.4772011    0.2762437 -58.17  0.001535085    2.051    0.513
       435  -7.6976    151.4455     73.4945   7.1447065474e+01   3.6771458336e+01    0.1491512    0.1460662 -40.32 0.0008079335    1.031    0.030
       436  -8.6253     42.6928     72.5230   1.0295320198e+02   5.6891770167e+01    0.3159797    0.1595337 -76.23  0.001403356    2.017    0.504
       437  -7.8813    175.4892     72.4953   6.6248331939e+01   3.1149345409e+01    0.1500328    0.1440029  -0.38 0.0002034549    1.003    0.003
       438  -9.1391    105.8867     71.6126   8.2300370535e+01   4.7208154156e+01    0.2889205    0.2013595 -56.40 0.0006960786    1.457    0.314
       439  -9.2831     94.9799     70.9126   8.5274258402e+01   4.9465130003e+01    0.4153018    0.2241795 -60.19 0.0009259217    2.116    0.527
       440  -8.5026     95.1848     65.2091   8.3475318360e+01   5.0630179033e+01    0.3072449    0.1970243 -28.75  0.001355235    1.993    0.498
       441  -9.2056     31.0807     69.3694   1.0649037302e+02   5.8808409479e+01    0.4234977    0.2260256 -20.77   0.00171096    4.171    0.760
       442  -9.4943     51.3829     69.6148   9.9245382628e+01   5.6554511079e+01    0.4188661     0.218286 -78.45   0.00142396    2.364    0.577
       443  -9.0054     16.7535     70.0657   1.1182173319e+02   5.9832152680e+01    0.2875842    0.1531985  88.45 0.0009926194    1.808    0.447
       444  -7.7830    157.2532     76.6442   7.1136074001e+01   3.4855026722e+01    0.1520787    0.1144935 -61.93 0.0005876445    1.606    0.377
       445  -7.7757    157.2931     69.6916   6.9028692128e+01   3.6020013549e+01    0.1521085    0.1182382 -67.45 0.0002103594    1.584    0.369
       446  -8.7833    147.0422     68.1907   7.0786838187e+01   3.8740435107e+01    0.3205025    0.2058543 -41.36 0.0005253917    1.536    0.349
       447  -8.7185    138.5264     66.2432   7.2125743365e+01   4.1101909360e+01    0.3484935     0.220224 -57.74 0.0008720823    1.957    0.489
       448  -8.9654    121.6743     66.0442   7.6250771088e+01   4.4988131345e+01    0.3446761    0.2302124 -56.45 0.0008586494    1.665    0.400
       449  -8.8381     64.5370     63.5428   9.3035196805e+01   5.6172179942e+01    0.4015844      0.25032 -18.60  0.001633107    3.199    0.687
       450  -8.8931     37.3035     64.3920   1.0318092287e+02   5.9365070581e+01    0.3209197    0.1915219  89.22  0.001021295    1.952    0.488
       451  -9.1307    110.1457     63.6252   7.8591035940e+01   4.7949873504e+01    0.3284456    0.2434118 -59.05  0.000806075    1.442    0.307
       452  -7.8472    158.1962     62.1225   6.6457741016e+01   3.7046431541e+01    0.2081172    0.1721351 -55.95 0.0003316506    1.318    0.241
       453  -9.5649     97.6642     60.3370   8.1151397567e+01   5.1159211555e+01      0.39298    0.3116938 -45.83    0.0016084    1.187    0.157
       454  -9.6462     73.3038     59.6096   8.8816650236e+01   5.5697684382e+01    0.4013628    0.2287552 -62.57  0.001105561    1.861    0.463
       455  -8.2553    163.4079     73.2667   6.8849266819e+01   3.3950776696e+01    0.2607567    0.1777165 -41.98 0.0006752224    1.479    0.324
       456  -9.8167     23.3605     56.5044   1.0693584551e+02   6.2500630089e+01    0.4645549    0.2404831  81.68  0.002138759    2.558    0.609
       457  -9.5887      7.4996     57.2411   1.1345520932e+02   6.3437294134e+01    0.3063474    0.1680058  77.54 0.0008773389    1.887    0.470
       458  -8.4126    130.7230     57.8711   7.1236274159e+01   4.4439015882e+01    0.2824724    0.1935964 -53.09 0.0006610889    1.591    0.371
       459  -9.4489    119.2166     55.5509   7.3375853267e+01   4.7519744320e+01    0.4793004     0.229047 -50.61  0.001295333    2.387    0.581
       460  -9.5242     54.2409     55.5222   9.4492604281e+01   5.9421744166e+01    0.3804416    0.2254099 -73.21  0.001112458    1.935    0.483
       461  -8.7403    139.9017     55.9654   6.8397763491e+01   4.2573994074e+01    0.2870197    0.1978139 -41.30 0.0006570729    1.422    0.297
       462  -8.9994     43.9107     54.9186   9.8326251385e+01   6.0843213031e+01    0.3885219    0.1704857 -68.32  0.001483824    2.355    0.575
       463  -8.7048    105.7597     53.2564   7.6304711675e+01   5.0910772584e+01    0.2650412    0.2165336 -79.73 0.0007393513    1.485    0.327
       464  -8.4163     74.5730     52.1746   8.5952646327e+01   5.7098571291e+01    0.3746913    0.2356182   1.14  0.001356789    3.867    0.741
       465  -9.4226     92.3688     50.4890   7.9382698066e+01   5.4197695773e+01    0.4590132    0.2311018 -54.23  0.001187152    2.215    0.549
       466  -8.2889    144.5579     49.0281   6.4933682368e+01   4.2572617427e+01    0.2367508    0.1480662 -31.37 0.0005271088    1.557    0.358
       467  -8.4002    129.8238     49.1879   6.8396779899e+01   4.6176296203e+01    0.2086788    0.1790939   9.16 0.0004628101    1.300    0.231
       468  -8.7316    120.9075     47.6039   7.0062388308e+01   4.8569165178e+01    0.2458047    0.2019867 -24.32 0.0004542485    1.230    0.187
       469  -8.2242    112.2031     46.9779   7.2167437474e+01   5.0679093816e+01    0.2293915    0.1911491 -62.12 0.0005738167    1.317    0.241
       470  -8.9196     82.0611     46.3080   8.1247701605e+01   5.7003674876e+01    0.2926995    0.1908111 -51.61 0.0007087939    1.466    0.318
       471  -8.5458     45.0015     44.8200   9.4911235209e+01   6.3009859139e+01    0.2285651    0.1667889 -59.38 0.0005361859    1.174    0.148
       472  -8.8682     16.7628     44.7286   1.0722719858e+02   6.5756100579e+01    0.2438333    0.1435909 -80.96 0.0006599793    1.574    0.365
       473  -8.9683    132.8832     43.2306   6.5462736371e+01   4.6424275925e+01    0.3638337     0.194029 -42.55 0.0008779335    1.868    0.465
       474  -8.6453     92.7924     42.9388   7.6398397838e+01   5.5593215316e+01    0.3187994    0.1948592 -29.04  0.001404768    1.799    0.444
       475  -9.5043      5.2979     42.3104   1.1193449042e+02   6.7036666867e+01    0.3705526    0.1743799  86.99  0.001363992    2.340    0.573
       476  -9.2685     69.5402     41.2529   8.3827699243e+01   6.0238884236e+01    0.5276293    0.2489041 -57.11   0.00165684    2.414    0.586
       477  -8.9885     57.9754     42.2390   8.8695324302e+01   6.1842020180e+01    0.3675557    0.1863858 -63.74  0.001355078    2.379    0.580
       478  -8.7761    106.0077     41.3194   7.1735796809e+01   5.3086433826e+01    0.3335909    0.1916883 -45.87 0.0009875309    1.728    0.421
       479  -7.9451    140.4289     41.5383   6.3116110776e+01   4.4800560903e+01    0.1535016    0.1465757 -38.35 0.0002322993    1.044    0.042
       480  -8.4141     36.8080     41.0644   9.7255630125e+01   6.4796236937e+01    0.1965698     0.157142 -74.15  0.000530219    1.217    0.178
       481  -8.6388     95.3885     38.0270   7.3603561900e+01   5.5978316797e+01    0.3032394    0.2029832 -54.86 0.0007727681    1.666    0.400
       482  -8.0505     80.6228     36.7681   7.7990689357e+01   5.9163498791e+01      0.20199    0.1237142 -50.14  0.000383012    1.606    0.377
       483  -9.6222     26.0844     35.3290   1.0041396001e+02   6.7159297113e+01     0.366994    0.1963482 -68.32  0.001007733    1.689    0.408
       484  -7.9790    133.3928     36.1943   6.2648546350e+01   4.7408122708e+01    0.2255076    0.1336446 -40.25 0.0006083164    1.653    0.395
       485  -8.4097    125.9810     35.5315   6.4123772664e+01   4.9364343895e+01    0.2394245    0.1958749 -30.13 0.0005270196    1.177    0.150
       486  -8.4504    111.8983     34.6674   6.7381849132e+01   5.2894557593e+01    0.3022446    0.1779702 -48.87 0.0007002122    1.848    0.459
       487  -8.9416     48.5238     33.4848   8.9376141338e+01   6.5041214932e+01    0.2523746     0.210697 -75.84 0.0007295274    1.342    0.255
       488  -8.9491    118.9728     32.5116   6.4629243997e+01   5.1557241998e+01    0.3738777    0.1705507 -39.31  0.001235866    2.095    0.523
       489  -8.6780     60.7924     32.6805   8.3821374858e+01   6.3415370852e+01    0.2638734    0.1762882 -51.79 0.0006078214    1.379    0.275
       490  -8.7601     72.0594     31.2961   7.8782505574e+01   6.1791247098e+01    0.2370672    0.1834257 -61.67 0.0006325624    1.463    0.317
       491  -8.8738     12.8667     30.4912   1.0557281678e+02   6.9303172464e+01    0.2825399    0.1533135 -78.15  0.001325767    1.779    0.438
       492  -8.5724    101.6403     29.5228   6.8081332194e+01   5.6101943935e+01    0.2452326    0.1662405 -51.75  0.000701027    1.636    0.389
       493  -8.4627     42.0122     30.2927   9.1074768002e+01   6.6562659353e+01    0.1790198    0.1588001 -48.00 0.0004927714    1.055    0.052
       494  -8.9909     81.3941     27.4386   7.3643274513e+01   6.0748322332e+01    0.3211368    0.2208061 -55.20 0.0008854924    1.656    0.396
       495  -8.7047      3.6089     27.7126   1.0971152269e+02   7.0483963914e+01    0.2500069    0.1465042  83.33  0.001087203    1.924    0.480
       496  -9.0111     91.6322     26.0890   6.9595917713e+01   5.8872915246e+01    0.3818946    0.2162192 -44.34 0.0009691454    1.753    0.430
       497  -7.7007    145.6129     25.8268   5.6000937906e+01   4.5706573713e+01    0.2228658    0.1317865 -37.29 0.0005145601    1.643    0.391
       498  -8.5689    104.3081     22.9623   6.4366267451e+01   5.6532628179e+01    0.2167052    0.1789591 -28.10  0.000508415    1.143    0.125
       499  -7.9578     34.7716     23.5437   9.1843645842e+01   6.8858061557e+01    0.1627161    0.1196367  49.53 0.0009462663    1.727    0.421
       500  -9.0094     63.5702     21.0698   7.7384235901e+01   6.5201099146e+01     0.313907    0.2118144 -60.37 0.0009080915    1.883    0.469
       501  -8.9691     48.3363     21.7120   8.4399189697e+01   6.7486683190e+01    0.2583577    0.2063483 -57.12 0.0007289834    1.276    0.216
       502  -7.8199    120.8140     21.0294   5.9261586010e+01   5.2797701360e+01    0.2550152    0.1498351 -49.27 0.0009280593    1.945    0.486
       503  -7.8111    112.2622     21.6490   6.1637490285e+01   5.4830199952e+01     0.153558    0.1095777 -53.80 0.0002429779    1.612    0.380
       504  -8.2331     19.5226     21.5139   9.9134768447e+01   7.0808015344e+01     0.124404    0.1007241 -58.83 -3.314726e-05    1.052    0.050
       505  -8.9086     73.9808     19.3315   7.2428097770e+01   6.3606375825e+01    0.3259715    0.1722047 -45.51 0.0007774271    1.886    0.470
       506  -8.3721     87.9945     17.9881   6.6882143164e+01   6.0962929811e+01    0.2227986    0.1675448 -59.06 0.0004623501    1.639    0.390
       507  -8.2803     38.7022     18.1803   8.7434672152e+01   6.9490174242e+01    0.2044412    0.1461685 -59.89  0.001161928    1.433    0.302
       508  -7.9106    112.8268     16.7940   5.9268483581e+01   5.5368201476e+01    0.2018263     0.169805 -53.23  0.000396275    1.304    0.233
       509  -8.0002     29.7996     15.9411   9.1104922328e+01   7.0998076679e+01    0.1954086    0.1340746 -73.98 0.0007989922    1.881    0.468
       510  -9.4859    176.3142    245.7293   9.8106047952e+01   7.5226544435e+00    0.3715153    0.2526641 -12.89  0.002139984    2.156    0.536
       511  -8.0297     17.1684     14.1807   9.7596740921e+01   7.2589374213e+01    0.1625986    0.1285632 -74.12 0.0004693455    1.341    0.254
       512  -8.7879    156.5779    248.3094   1.0134825159e+02   9.9029388883e+00    0.2272847    0.1184835  56.83  0.001286026    2.299    0.565
       513  -8.9573    132.5754    248.0898   1.0500875881e+02   1.3073073900e+01    0.2402827    0.1221359  57.62  0.001048026    2.091    0.522
       514  -8.2040    112.9996    248.6716   1.0808416070e+02   1.5502314392e+01    0.1476598    0.1053335  77.90 0.0009249823    1.687    0.407
       515  -9.2870    103.8627    246.8186   1.0937003992e+02   1.6857214942e+01    0.2985315     0.161653  88.76  0.001968944    3.050    0.672
       516  -9.1055    243.0419    246.5293   8.8606450075e+01  -1.2584856446e+00    0.2520504    0.1283596 -16.17  0.001885227    2.304    0.566
       517  -9.0584    233.0777    246.7039   8.9996376561e+01  -1.7779005339e-02    0.2575473    0.1395966 -11.28  0.001849219    2.235    0.553
       518  -8.1819     97.1729     15.1657   6.2671577669e+01   5.9335347677e+01    0.2073523    0.1589827 -45.03 0.0005174976    1.367    0.268
       519  -8.4213    218.5172    248.0726   9.2197914576e+01   1.7463393017e+00    0.1142278   0.08827517 -11.31  0.001026468    1.587    0.370
       520  -9.3501    211.0610    246.7472   9.3107288322e+01   2.8185149049e+00    0.1528152    0.1382438 -49.10 0.0009012475    1.969    0.492
       521  -8.2254     63.9846    248.7549   1.1566555482e+02   2.1279506736e+01     0.128186   0.05535052  41.70 0.0007878382    1.635    0.389
       522  -9.9391    223.9793    244.1368   9.0960260113e+01   1.3364863597e+00    0.2950965    0.1813308 -38.65  0.002260876    2.603    0.616
       523  -9.6633    147.2943    245.2695   1.0248677524e+02   1.1447290415e+01    0.2735447    0.1899941 -44.24  0.001493648    2.088    0.521
       524  -8.7794    193.4896    244.7623   9.5441949704e+01   5.3094593702e+00    0.2371969    0.1175717  24.06  0.001371311    2.170    0.539
