#   1 NUMBER                 Running object number                                     
#   2 MAG_AUTO               Kron-like elliptical aperture magnitude                    [mag]
#   3 X_IMAGE                Object position along x                                    [pixel]
#   4 Y_IMAGE                Object position along y                                    [pixel]
#   5 X_WORLD                Barycenter position along world x axis                     [deg]
#   6 Y_WORLD                Barycenter position along world y axis                     [deg]
#   7 A_WORLD                Profile RMS along major axis (world units)                 [deg]
#   8 B_WORLD                Profile RMS along minor axis (world units)                 [deg]
#   9 THETA_WORLD            Position angle (CCW/world-x)                               [deg]
#  10 FWHM_WORLD             FWHM assuming a gaussian core                              [deg]
#  11 ELONGATION             A_IMAGE/B_IMAGE                                           
#  12 ELLIPTICITY            1 - B_IMAGE/A_IMAGE                                       
         1 -14.8360    198.7950     70.0173   1.1685265862e+01   2.6036108283e+01     2.362251    0.9866561  45.37  0.008789008    3.412    0.707
         2 -14.6403    100.9207     49.7326   2.4458139529e+01   5.3209277236e+01     1.436566     1.080202  38.96  0.005165094    1.369    0.269
         3 -15.2287    122.6902     36.8167   1.4127782015e+01   4.9683869506e+01      2.24324      1.21263  51.86  0.009781853    1.780    0.438
         4 -14.6682     60.1900     58.8917   4.2985997228e+01   6.0202405725e+01     3.217792     2.092585  -4.73    0.0133402    2.367    0.578
         5 -13.1988    140.4145     21.1891   5.5033135740e+00   4.6996370916e+01    0.7294461    0.3703052  69.58  0.001088512    1.799    0.444
         6 -15.0028      6.7672     71.5815   7.3536419409e+01   6.3417204809e+01     1.245122    0.7792013 -56.17   0.00509927    1.323    0.244
         7 -14.8700    166.8309     29.3791   4.6203445318e+00   3.9346153149e+01     1.088462    0.8866416  85.11  0.003687009    1.143    0.125
         8 -15.5331    217.8821     17.1724   3.5685775358e+02   2.8937066784e+01      2.05981     1.008854 -32.80   0.01081502    1.875    0.467
         9 -12.3032    232.5310      2.2011   3.5275101625e+02   2.7517403890e+01    0.4079172    0.2291366  65.72  0.002010653    2.073    0.518
        10 -15.0247    212.3263     40.7156   2.8592777180e+00   2.7280433012e+01     2.165803    0.7096581  78.02  0.007733839    4.118    0.757
        11 -15.0328    190.2368     24.4053   7.7397750021e-01   3.4280366676e+01     1.564211    0.8810252 -54.90    0.0069874    1.577    0.366
        12 -12.9857      7.7019      2.5228   4.4710577596e+01   7.8022828746e+01    0.5668553    0.4507299  24.84  0.003883899    1.360    0.265
        13 -16.0434     11.6600     22.6429   5.4232579300e+01   7.4175843302e+01     2.181176     1.162032 -26.55   0.01105926    1.907    0.475
        14 -14.0279     26.5797     13.2982   3.7972727059e+01   7.3892805202e+01    0.7788438    0.4271008  19.13  0.003818931    2.103    0.524
        15 -13.7259    187.9214     11.7743   3.5765579243e+02   3.6211339257e+01    0.6594692     0.494008 -41.21  0.003219819    1.284    0.221
        16 -13.8228    242.3174     34.1660   3.5899812306e+02   2.2009018900e+01    0.7717904    0.5629095 -74.59  0.003277069    1.279    0.218
        17 -14.9403    147.8046     29.5452   7.2032766664e+00   4.4137554770e+01     1.552408     0.806475  73.31  0.004997046    1.873    0.466
        18 -15.4951     99.5848     11.8961   8.9761863777e+00   5.8414024135e+01     1.668569    0.9241684  58.25  0.003212186    1.563    0.360
        19 -11.9290     71.0752     16.1811   1.8574026941e+01   6.4875443302e+01    0.3928109    0.2391317 -18.17  0.001584932    1.822    0.451
        20 -12.0087     74.5535     10.2387   1.4388736325e+01   6.4677676085e+01    0.4130135    0.2562283 -14.06   0.00184545    1.818    0.450
        21 -12.2962     60.1146     15.4488   2.2126765352e+01   6.7383011212e+01    0.5604735    0.2790118  39.29  0.002565416    1.923    0.480
        22 -10.8882    152.9755     14.7231   1.7877362888e+00   4.4459635036e+01    0.2550631    0.1511008 -47.68  0.001276173    1.619    0.382
        23 -12.0448     46.6906     12.8052   2.6355038117e+01   7.0445661713e+01    0.3484892    0.2529681  58.21   0.00143627    1.604    0.376
        24 -12.1886    153.1152      8.2587   3.5975170627e+02   4.5050145894e+01    0.3002468    0.2725735  52.06  0.001156788    1.268    0.212
        25 -12.6900     85.4746     13.8061   1.3139590039e+01   6.1726913541e+01    0.4593307    0.3645683  25.48  0.001841264    1.316    0.240
        26 -10.7770    176.6009      4.3178   3.5652917212e+02   3.9630268422e+01    0.1524815    0.1236122 -19.78 0.0009314232    1.498    0.332
        27 -12.2876    119.9908      3.0206   1.8919569485e+00   5.3959034357e+01    0.5585259    0.2512411 -84.80  0.002176597    2.823    0.646
        28 -11.2886     67.7261      2.6537   1.2333614678e+01   6.6927774269e+01    0.3042578    0.1718009  35.06  0.001525581    1.744    0.426
        29 -14.1878     41.4940      5.1572   2.3941227466e+01   7.2320327382e+01     1.024626    0.6158267  16.54  0.005002505    1.865    0.464
        30 -12.0241     80.4711      1.7598   8.4850267429e+00   6.3980657655e+01     0.686531   0.08297879  61.09  0.002059728    4.287    0.767
        31 -11.4801     61.3342      1.4981   1.3658393349e+01   6.8476704685e+01    0.3828911    0.1186253  62.78  0.001433497    3.038    0.671
        32 -13.7469     84.7617    179.5688   6.3658529805e+01   2.5696574325e+01     1.177838    0.3627714  47.65  0.003544523    3.754    0.734
        33 -14.8921     95.0933    234.9281   6.8033608903e+01   1.2167757843e+01     1.613696    0.8681196  63.80  0.007396022    2.658    0.624
        34 -12.3385    109.2672    243.1496   6.5805401476e+01   8.7497154671e+00    0.3747576    0.2435641  37.59  0.002191453    1.261    0.207
        35 -13.1901     57.0956    246.9362   7.7418709762e+01   1.4718544515e+01    0.5247051     0.312916  28.51  0.002772448    1.558    0.358
        36 -11.7767     41.5840    249.8070   8.0862468559e+01   1.5957806876e+01    0.2696078    0.1717165  56.89  0.001715543    1.288    0.224
        37 -11.5417     40.5300    245.4898   8.0832687236e+01   1.6897820653e+01    0.2118413    0.1616037  85.70  0.001442791    1.348    0.258
        38 -14.1144     28.0835    246.5716   8.3481094473e+01   1.8033823530e+01     1.416812    0.6632869  71.15  0.007619841    2.124    0.529
        39 -12.1874      2.7933    249.5332   8.8659382214e+01   1.9955710868e+01     0.356404     0.187452  44.90   0.00178873    1.380    0.275
        40 -14.2884      9.4184    245.5638   8.7227094928e+01   2.0095482651e+01     1.175756    0.7191929  84.03   0.00773589    1.530    0.346
        41 -14.4477     26.7392    225.8235   8.2696861166e+01   2.2365955529e+01     1.343627    0.6332512  86.75  0.006773366    2.210    0.548
        42 -14.0394     20.8820    224.4688   8.3924323874e+01   2.3253212679e+01    0.7971758    0.4979527 -73.08  0.004233337    1.691    0.409
        43 -13.6019    197.2297    179.1899   3.7055822233e+01   7.0757714929e+00    0.6716817    0.4729713 -71.06  0.003028353    3.069    0.674
        44 -12.3328    131.3465    173.2020   5.0342452896e+01   1.9439012310e+01    0.3177424    0.2787091 -69.91  0.001693919    1.299    0.230
        45 -13.3136    124.9926    167.9845   5.0952638520e+01   2.1743196844e+01    0.8360625    0.2991397 -52.52  0.002823077    2.897    0.655
        46 -11.2923      2.1080    159.3660   8.5046769503e+01   4.0392828866e+01    0.2558637    0.1983658 -73.46  0.001391147    1.228    0.186
        47 -12.0354     27.2712    158.4836   7.7591783873e+01   3.8504217031e+01    0.3934566    0.1975415  43.09  0.001776219    1.877    0.467
        48 -13.8643     85.5421    152.7339   5.9011468314e+01   3.2340748832e+01     1.098019     0.687366  40.42  0.004823526    1.562    0.360
        49 -12.5357     77.1848    156.9899   6.2259309403e+01   3.2566123678e+01    0.5393435    0.3899994  37.09  0.001630907    1.365    0.267
        50 -13.9206     74.0298    153.4968   6.2619625133e+01   3.3965214774e+01    0.8384859    0.6010455  40.32  0.002621241    1.370    0.270
        51 -11.1731    155.0293    157.1770   4.1402611996e+01   1.8596045836e+01    0.2455029    0.1777831  67.92  0.001091627    2.018    0.505
        52 -12.8676    111.7461    155.5309   5.2022758796e+01   2.7078879871e+01    0.6070703    0.3978214  78.60  0.002334206    2.498    0.600
        53 -12.8934    208.5162    154.0091   2.9889647214e+01   9.6292385075e+00    0.6297102    0.4607711  30.86  0.003532982    1.491    0.329
        54 -13.0228    122.6647    153.7838   4.8710465032e+01   2.5478904741e+01    0.7042946    0.3632604 -46.55  0.002773315    1.950    0.487
        55 -12.2796     55.7607    155.4482   6.8527997031e+01   3.6043974104e+01     0.437935    0.2663122 -32.57  0.001810626    2.336    0.572
        56 -12.5191      8.1245    148.3659   8.2517471979e+01   4.2837883706e+01    0.5926761    0.4029719  77.96  0.003205574    1.313    0.239
        57 -10.9833     12.6665    148.6709   8.1143827976e+01   4.2410651719e+01    0.2192086    0.2005857 -19.90  0.001271571    1.354    0.261
        58 -12.0409    103.6459    149.6310   5.3101879346e+01   3.0004459836e+01    0.4393498    0.3174314 -32.67  0.001501465    1.628    0.386
        59 -11.6203     13.7646    152.0148   8.1086983147e+01   4.1433463099e+01    0.2711389     0.163787  46.47 0.0005934127    1.591    0.372
        60 -12.4379     62.6149    145.8114   6.4882605192e+01   3.7693762915e+01    0.3197218     0.219612  72.28  0.001434115    1.662    0.398
        61 -10.5574     38.2045    145.7951   7.2741454678e+01   4.0777607693e+01    0.1979591    0.1623648 -45.26 0.0004906175    1.345    0.257
        62 -12.5761     42.3070    138.5724   7.0393016206e+01   4.2285536292e+01    0.4466151    0.2355813  39.29  0.001919611    1.881    0.468
        63 -12.8267    246.5645    132.9399   1.9627740450e+01   7.0167412603e+00    0.4700597    0.3030781 -39.96  0.002612002    1.283    0.220
        64 -14.8092    230.1488    127.6620   2.0803676837e+01   1.0466336410e+01     1.225962     1.014275 -50.61  0.007640515    1.273    0.214
        65 -10.6008     10.9075    133.9060   8.0388211804e+01   4.6512287674e+01    0.1846038    0.1416143  63.22 0.0004128208    1.262    0.208
        66 -12.6293    136.5521    131.9406   4.0128377944e+01   2.7830318939e+01    0.7677698    0.3581338  42.49  0.002818476    2.196    0.545
        67 -12.0840    133.6358    126.2564   3.9474600974e+01   2.9742195742e+01    0.6030865      0.24463 -36.26  0.001831366    3.195    0.687
        68 -15.0327    104.6796    121.7560   4.6467752468e+01   3.6803762748e+01     2.055433     1.356176  34.58   0.00872463    1.607    0.378
        69 -15.3662    105.7677    105.2479   4.1733487695e+01   4.0613420935e+01     1.765749     1.497579  60.18  0.008155813    1.255    0.203
        70 -12.4969    180.9068    120.1668   2.7309194934e+01   2.1024168974e+01     0.282839    0.2280458  40.37  0.001164763    1.359    0.264
        71 -12.3606      4.2779    119.4141   8.1293717583e+01   5.0869547346e+01    0.5311503    0.2861117   4.35  0.002474594    2.384    0.581
        72 -12.7148     78.9950    110.5059   5.1967889789e+01   4.4531261392e+01    0.4419903    0.3529634 -75.84  0.001649284    1.366    0.268
        73 -13.4047     84.9374    115.1514   5.1108760669e+01   4.2261082552e+01     1.044574    0.5950991  20.50  0.003471268    2.516    0.603
        74 -12.7464     88.2188    109.1664   4.8457622331e+01   4.3179390813e+01    0.6544509    0.4316975 -67.65  0.002434362    1.757    0.431
        75 -11.3567    186.0339    116.0091   2.5327743351e+01   2.0762082159e+01    0.2286473    0.1754961 -71.85 0.0005583486    1.645    0.392
        76 -12.0881     42.7446     90.0980   6.0833783133e+01   5.5391231984e+01    0.4423591    0.2754088 -62.85 0.0007971195    1.519    0.342
        77 -14.3372     18.3276    110.7072   7.4984122935e+01   5.2283309661e+01     1.103404     0.724628 -50.39  0.003952033    1.451    0.311
        78 -13.1439     21.5975     86.1015   6.9339505547e+01   5.8637516792e+01    0.8147042    0.5780208  -3.61  0.003341088    1.647    0.393
        79 -14.4231     11.2873    102.3617   7.6605595789e+01   5.5052458364e+01    0.9516868    0.8351663 -64.08  0.004790401    1.051    0.049
        80 -13.7927      2.3803     96.9819   7.9567654316e+01   5.7004911141e+01     1.023591    0.3443347 -76.51  0.003533756    2.554    0.608
        81 -12.6326     36.8293     92.8208   6.4045648356e+01   5.5375781523e+01    0.5135915    0.3923591   5.69  0.001766287    1.511    0.338
        82 -14.3578     23.5846     95.2820   7.0280573738e+01   5.6032330598e+01     1.385217    0.6727943  18.85  0.005577954    2.332    0.571
        83 -12.5828     29.8256     89.4779   6.6353489116e+01   5.6997993775e+01    0.4929554    0.3327784  87.69  0.001959443    1.785    0.440
        84 -13.2799    121.3045    111.2810   3.8869111931e+01   3.5853396494e+01    0.5736964    0.4047598 -67.76  0.001651033    1.730    0.422
        85 -11.5686     45.9431    110.1679   6.4117915281e+01   4.9640089949e+01      0.59763    0.3021883 -38.78  0.002274611    2.375    0.579
        86 -10.9219     43.1180    106.8562   6.4533358733e+01   5.0884744857e+01    0.2922228    0.1863235 -48.34  0.001010357    1.506    0.336
        87 -12.0199    176.9153    110.3276   2.5627906826e+01   2.3764804116e+01    0.3995963    0.2935513 -28.39  0.001936052    1.401    0.286
        88 -12.0046     62.9695    110.5263   5.7744692416e+01   4.7176330417e+01     1.015165    0.4210722 -67.61  0.003254791    2.979    0.664
        89 -11.2519     64.5357    101.5327   5.4929539348e+01   4.9302427345e+01    0.3716242     0.300398   0.62  0.000942873    1.486    0.327
        90 -12.3190     62.0466     98.3119   5.5043602952e+01   5.0532674111e+01    0.5784873    0.3975735  57.03  0.001874326    1.742    0.426
        91 -11.6679     47.4058    132.5504   6.7721225108e+01   4.3327537050e+01    0.5253607    0.1956271 -69.64  0.001792623    2.665    0.625
        92 -12.9408    136.0358    102.7058   3.2576952580e+01   3.4481542164e+01    0.6833657    0.4000685  45.68   0.00173712    1.768    0.435
        93 -13.3686    137.3567     95.1658   3.0084051645e+01   3.5777540384e+01    0.5780876    0.4762424 -72.01  0.001356781    1.351    0.260
        94 -13.8724    120.1537    102.4038   3.6702303852e+01   3.8144395054e+01    0.7141232    0.4532769  43.26   0.00298674    1.622    0.384
        95 -12.8278     50.2330     98.6556   5.9830119038e+01   5.2171046205e+01    0.8361215    0.5794482  -5.35  0.003327675    1.929    0.481
        96 -12.1598     48.9900     92.8152   5.8875888335e+01   5.3871751824e+01    0.4470859    0.3418468  73.43 0.0009869406    1.615    0.381
        97 -13.3484    248.2567     94.6293   1.1420570687e+01   1.2589546594e+01    0.8942096    0.2972986 -45.40  0.003757502    2.524    0.604
        98 -11.9104     89.6110     98.0896   4.4893865080e+01   4.5659155801e+01    0.5552948    0.2639625 -39.92  0.001942092    2.345    0.574
        99 -10.5715     75.2294    100.6275   5.0692816429e+01   4.7734190447e+01    0.2056943    0.1526674  23.97 0.0004535173    1.516    0.340
       100 -12.4623    163.5705     97.4595   2.4880676491e+01   2.9222013260e+01    0.4043318    0.3193698  64.83 0.0008038859    1.382    0.277
       101 -12.1807    129.3128     96.0780   3.2383971521e+01   3.7456704657e+01    0.3184678    0.2424049  60.38  0.001451938    1.410    0.291
       102 -13.4765     32.4130    112.0651   6.9722537030e+01   5.0650521343e+01    0.8189261    0.3817725 -59.25  0.003384411    1.851    0.460
       103 -14.8156    214.1553     76.8471   1.1396967985e+01   2.1694568699e+01     4.325271     1.572574  72.78   0.01315236    5.668    0.824
       104 -13.5342    188.7502     83.8494   1.6715281621e+01   2.5997063930e+01    0.6996695    0.5690343  42.46  0.002288903    1.448    0.309
       105 -11.6739    209.2126    249.6096   4.6741261391e+01  -5.0235054386e+00    0.1629561   0.08410717  18.22 0.0009543555    1.693    0.409
       106 -14.7070    169.4662     76.9340   1.8059631261e+01   3.1630364438e+01    0.9620315    0.8378429  13.69  0.003451813    1.448    0.309
       107 -12.9926     28.4728    122.0025   7.2797478977e+01   4.8306889345e+01    0.5969917    0.3467086 -56.05  0.002615522    1.581    0.367
       108 -15.3100    160.6221     80.7765   2.0791364708e+01   3.3055024477e+01     2.322966     1.634698  -2.47  0.005472939    2.288    0.563
       109 -12.8106    132.5038     85.5811   2.8413133916e+01   3.8895943351e+01    0.2918651    0.2793571 -58.61  0.001036808    1.015    0.015
       110 -10.9064     35.1438     86.1625   6.3197134630e+01   5.7308616139e+01    0.2273927    0.1837469 -37.74 0.0006664915    1.207    0.172
       111 -12.0395     98.0511     84.0643   3.7742025978e+01   4.7169443947e+01    0.2941114    0.2429965 -35.70  0.001028965    1.236    0.191
       112 -13.1895    242.0053     83.5086   9.7107166566e+00   1.5330990700e+01    0.3913595     0.225596  77.46  0.002028329    2.463    0.594
       113 -13.5709    237.9277     79.8413   9.3433477128e+00   1.6613624118e+01    0.6765921    0.4078636  85.35  0.003510615    2.354    0.575
       114 -13.5934    157.2615     43.5341   1.0214702160e+01   3.9907395181e+01    0.9524258     0.656292  27.05  0.004384742    2.136    0.532
       115 -14.5517    170.3787    242.2722   5.2958618963e+01   6.9173275043e-01      1.01588    0.6472255  11.33  0.006044366    1.481    0.325
       116 -13.4071    237.3944    231.0364   3.9086932034e+01  -5.8239622990e+00    0.5350484    0.3635698 -37.69   0.00365135    1.798    0.444
       117 -12.9592    135.7824     51.2560   1.6532358707e+01   4.4240315940e+01    0.7536086    0.5564932 -30.06  0.002094858    1.442    0.306
       118 -13.0852    147.5395    238.8731   5.7125324852e+01   4.2593596274e+00    0.5243911    0.3340711  63.30  0.002498944    3.095    0.677
       119 -14.1963     67.0116    222.7027   7.3245433724e+01   1.8334103225e+01     0.860841      0.65678  30.75  0.005166281    1.255    0.203
       120 -13.6709     70.7537     75.4651   4.4662209587e+01   5.4647166072e+01     1.140542     0.630145  21.59  0.003612971    2.648    0.622
       121 -14.1195     87.6546     64.8678   3.4530703459e+01   5.3501197332e+01     1.434358    0.9427027   4.90  0.005195976    2.676    0.626
       122 -13.2985     55.4081     80.7191   5.2731155934e+01   5.6007355816e+01    0.6427056    0.4401916 -32.50   0.00175667    1.582    0.368
       123 -13.8401     61.1775     76.0845   4.8791582710e+01   5.6194733754e+01    0.8424242      0.53983 -40.83  0.001715229    1.542    0.351
       124 -12.3549    114.0807     80.0107   3.1539657656e+01   4.4405586744e+01    0.4748696     0.401129 -61.63 0.0007778026    1.244    0.196
       125 -11.8127     42.5106     79.4935   5.8076159534e+01   5.8132520740e+01    0.4218092    0.2984222 -63.73  0.001950977    1.406    0.289
       126 -11.4322     41.5425     75.9670   5.7489969283e+01   5.9134162396e+01     0.387649    0.2068218 -55.74  0.001018583    1.718    0.418
       127 -13.1875    135.3247     79.0774   2.5712791673e+01   3.9500941282e+01    0.8535362    0.4535391  54.98  0.003162494    1.924    0.480
       128 -11.0003     59.0080    125.0249   6.2311134483e+01   4.3847982964e+01    0.1927081    0.1655409 -67.61 0.0004191881    1.098    0.090
       129 -13.5621     57.5608    201.8709   7.3554874820e+01   2.4150667050e+01     1.665632    0.4840241 -67.24  0.006029247    3.425    0.708
       130 -14.2292      5.5195     63.4643   7.2490827251e+01   6.5520888207e+01    0.6872094    0.6408007 -42.10  0.003547882    1.110    0.099
       131 -11.6041     27.5673     76.3748   6.4260863438e+01   6.0611730749e+01    0.3362316    0.2471939  82.24  0.001181277    1.718    0.418
       132 -12.6045    242.0763     71.1982   7.0241442061e+00   1.7112645477e+01    0.4565812     0.242079 -63.07  0.002270119    2.186    0.543
       133 -13.4103    133.6956     66.0684   2.1922145140e+01   4.2310942081e+01     1.003381    0.7816985  15.27  0.003925791    1.735    0.424
       134 -11.0727    118.5873     71.2323   2.7374152316e+01   4.5079973894e+01    0.2211086    0.1513742 -27.60 0.0009513177    1.664    0.399
       135 -12.4395    100.4795     64.0222   3.0022352501e+01   5.0769713396e+01    0.4885951    0.4087223  -4.36  0.002409589    1.415    0.293
       136 -13.1332     78.8658     59.8084   3.5756443831e+01   5.6385687925e+01    0.7774258    0.5193532 -48.46  0.003576812    1.569    0.363
       137 -12.1812     83.5867     53.5531   3.1542985338e+01   5.6558566150e+01    0.8454062    0.4071456 -22.05  0.002632897    3.883    0.742
       138 -14.3284    178.0035     56.4411   1.0929627576e+01   3.2919403758e+01     1.023076    0.5909255 -47.83  0.003206069    1.592    0.372
       139 -11.5955     39.0949     59.9307   5.3426451356e+01   6.3263971494e+01    0.3692357    0.2449369  68.96  0.001565662    2.695    0.629
       140 -11.6767     34.4485     60.4753   5.6012067453e+01   6.3728893405e+01    0.4518023    0.2286546 -45.44  0.001997572    1.791    0.442
       141 -12.4414     36.0302     54.4797   5.3005655961e+01   6.4888213608e+01    0.6678845    0.3316585 -28.17  0.002589375    2.711    0.631
       142 -12.0958     24.7426     59.4502   6.0849138825e+01   6.5039428460e+01    0.4807214      0.23262 -46.11  0.001614521    1.812    0.448
       143 -12.8881    247.9233     53.8028   2.7620216430e+00   1.8445389090e+01     0.584743    0.2937865 -43.77  0.002946277    1.490    0.329
       144 -12.1317    249.1984     48.5938   1.5617405809e+00   1.8897566786e+01    0.2733339    0.2183073  88.29  0.001720152    1.390    0.281
       145 -13.4758     94.3038    218.4539   6.6370357953e+01   1.5531810748e+01    0.4083228    0.2932976  32.63  0.001575961    1.236    0.191
       146 -11.4804     17.4902     54.8558   6.3458926368e+01   6.6785481059e+01    0.3177443     0.203058 -66.48  0.001630732    1.589    0.371
       147 -12.0394    231.0034     54.8080   4.4359108128e+00   2.1523897424e+01    0.3573186    0.2216342  75.24  0.002021698    1.827    0.453
       148 -10.5057     23.5447     49.9432   5.8271758220e+01   6.7347611916e+01     0.196104    0.1207699 -52.89 0.0004422767    1.478    0.323
       149 -12.0990    201.7743     46.6739   5.3810267894e+00   2.8804799249e+01    0.2375206    0.1748577 -47.24 0.0008519231    1.169    0.144
       150 -11.3329     38.8154     46.1724   4.8146080069e+01   6.6279706448e+01    0.1983682    0.1921739 -19.20  0.001216094    1.160    0.138
       151 -14.1625     64.1305    214.4266   7.3152228138e+01   2.0480033025e+01    0.5446985    0.4341395  35.67  0.002363451    1.176    0.150
       152 -10.5191      5.4868    219.4981   8.7092974434e+01   2.5784777949e+01    0.1219976    0.0933127  62.31 -1.946919e-06    1.005    0.005
       153 -12.4866     85.6074    215.6115   6.8109587411e+01   1.7345461209e+01    0.2746983    0.2140092  53.81  0.001593295    1.195    0.163
       154 -12.6583    144.3815    233.3585   5.7039679948e+01   5.6037564790e+00    0.4835654    0.2435196 -39.67  0.002420513    2.274    0.560
       155 -11.4334    136.4617    210.7898   5.5512035186e+01   1.0810707177e+01         0.23    0.1371785 -56.04  0.001092983    2.003    0.501
       156 -11.4938     40.5979    211.1683   7.8543094441e+01   2.4058553438e+01    0.1847914    0.1590545  39.61  0.001171693    1.185    0.156
       157 -12.9813     46.3191    209.6632   7.7042752709e+01   2.3736597929e+01    0.4721191    0.1459875  47.23  0.001829936    2.738    0.635
       158 -12.2213      5.3592    209.4636   8.6718707238e+01   2.7998441173e+01    0.2448498    0.1838288 -35.26  0.001495772    1.982    0.496
       159 -12.9356     45.9480     32.8315   3.8056674755e+01   6.7660976270e+01    0.5912348    0.5264192 -24.87  0.003587736    1.138    0.121
       160 -12.3197     36.7456     34.1315   4.3694311569e+01   6.8918906630e+01    0.6088476    0.2807746  17.32  0.002082277    3.978    0.749
       161 -12.2381     40.4847     40.2752   4.4595626803e+01   6.7201955857e+01    0.5766655    0.2889046  33.78  0.002604233    2.011    0.503
       162 -13.1095     32.8349     40.3187   4.8895511080e+01   6.8291814544e+01     0.401691    0.2999735   3.19 0.0006708458    1.378    0.274
       163 -13.3737      6.4156     42.8809   6.6411705046e+01   7.0357545374e+01    0.9349207    0.4240236  14.93  0.004419162    2.363    0.577
       164 -12.9333     76.0136     37.1085   2.7138891276e+01   6.1000056132e+01    0.5650005    0.3453937  46.45  0.001151885    1.547    0.353
       165 -11.7916     70.9588     36.0000   2.8500598099e+01   6.2272934898e+01    0.3421508     0.220225  54.45  0.001260457    1.608    0.378
       166 -11.1881     50.3689     38.9259   3.8862798737e+01   6.5827000419e+01    0.2076914    0.1840501  39.44 0.0002834949    1.221    0.181
       167 -11.9622     80.6091    208.4688   6.8507336753e+01   1.9583514151e+01    0.2999221    0.2084269  63.47  0.001447964    1.506    0.336
       168 -14.7618    119.6644     54.3567   2.1210600784e+01   4.7827332316e+01     1.062682    0.7264546  47.32  0.002054431    1.474    0.322
       169 -13.3877     56.6569     27.0479   2.9908081874e+01   6.6581709607e+01    0.8971285    0.3305032  47.99  0.002044614    2.603    0.616
       170 -11.8518     64.4866     24.5148   2.5314836987e+01   6.5318721396e+01    0.3183219     0.258324  -5.44  0.001361404    1.275    0.216
       171 -13.2501     59.4722    212.5385   7.4100400934e+01   2.1488684104e+01    0.5034919    0.3108246 -23.93  0.001282185    3.027    0.670
       172 -11.1233     98.2946     26.9978   1.5810038823e+01   5.7122003061e+01    0.2673094    0.1902556  60.65 0.0008054351    1.305    0.234
       173 -12.4349     30.7605     25.2004   4.2513863587e+01   7.1382402213e+01    0.3827993    0.2389233  21.75  0.001554865    1.623    0.384
       174 -11.9812     35.8716     23.1056   3.8269781667e+01   7.0941589189e+01    0.3290737    0.2321442 -10.64  0.001602079    1.472    0.320
       175 -13.4428     16.3348    197.1037   8.3507305777e+01   2.9840231094e+01    0.8332365    0.2587648 -59.44  0.003249257    3.455    0.711
       176 -12.4967     48.5144     19.8713   2.9697996047e+01   6.9185074112e+01    0.7884262    0.2193319  49.10  0.002718474    3.576    0.720
       177 -11.0790    151.6837    206.0119   5.1349434656e+01   9.3744845145e+00    0.2841028    0.1604542   8.88  0.001171784    2.648    0.622
       178 -13.7832     39.9406    195.7795   7.7479983667e+01   2.7705269168e+01    0.8327469    0.4487382  63.87  0.003940318    1.841    0.457
       179 -14.2119     30.1128    169.0505   7.7770329151e+01   3.5447035475e+01     1.111007    0.9286587 -17.72  0.004549603    1.569    0.363
       180 -13.6976     22.3001    180.9748   8.0921854272e+01   3.3189493301e+01    0.8259937    0.4547588 -60.84  0.003388626    1.867    0.464
       181 -12.5201    105.5513     33.6050   1.6756039492e+01   5.4469385268e+01    0.7890853    0.4298902 -18.24  0.003275599    2.345    0.574
       182 -15.2014      8.3581    183.2138   8.4727794871e+01   3.3896685559e+01     1.286583     1.102277  82.06  0.008346722    1.096    0.087
       183 -10.6486    124.2789     11.4006   4.4071443971e+00   5.2143650843e+01    0.1950887    0.1201728  85.06 0.0009443098    1.601    0.375
       184 -15.2572     15.3866    174.8725   8.2350114040e+01   3.5364455405e+01     2.137754    0.9300104  53.06  0.009556479    2.094    0.523
       185 -11.4561    212.8691    199.8747   3.8021790619e+01   1.4406121588e+00    0.2059136    0.1448188  -6.73  0.001241615    1.297    0.229
       186 -13.4541    164.3852    194.2226   4.6558297625e+01   9.5763724054e+00    0.6519619    0.4084798 -62.63  0.002947351    2.534    0.605
       187 -12.1464    201.0896    191.2203   3.8605810241e+01   4.4679805037e+00    0.3248726     0.229397  -3.64  0.001340683    1.410    0.291
       188 -12.1304    180.1394    196.4935   4.3665394170e+01   6.7112271794e+00    0.2615063    0.1844966 -57.52   0.00136033    2.006    0.501
       189 -12.4667     48.5660    181.3579   7.3826941441e+01   3.0227392726e+01    0.5553361    0.3232875 -52.29   0.00261017    1.912    0.477
       190 -12.4347     89.8061    169.9755   6.0773399734e+01   2.7270771711e+01    0.3705355    0.2196779  29.43   0.00149826    1.737    0.424
