#   1 NUMBER                 Running object number                                     
#   2 MAG_AUTO               Kron-like elliptical aperture magnitude                    [mag]
#   3 X_IMAGE                Object position along x                                    [pixel]
#   4 Y_IMAGE                Object position along y                                    [pixel]
#   5 X_WORLD                Barycenter position along world x axis                     [deg]
#   6 Y_WORLD                Barycenter position along world y axis                     [deg]
#   7 A_WORLD                Profile RMS along major axis (world units)                 [deg]
#   8 B_WORLD                Profile RMS along minor axis (world units)                 [deg]
#   9 THETA_WORLD            Position angle (CCW/world-x)                               [deg]
#  10 FWHM_WORLD             FWHM assuming a gaussian core                              [deg]
#  11 ELONGATION             A_IMAGE/B_IMAGE                                           
#  12 ELLIPTICITY            1 - B_IMAGE/A_IMAGE                                       
         1 -14.1654     26.0084     58.9047   9.4644526251e+01   6.2631965629e+01     1.302536    0.9260992  82.82  0.002113834    2.539    0.606
         2 -12.6287     74.5070     41.3565   6.8840678608e+01   5.9037591142e+01    0.6720382    0.4152872 -56.57  0.003128549    2.512    0.602
         3 -14.5974     40.3563     38.4871   8.1276375350e+01   6.4850547974e+01    0.5882489    0.4245427 -19.10  0.001653261    1.290    0.225
         4 -12.9216     90.6460     18.6405   5.4973074428e+01   5.8803125499e+01     0.277438    0.2440089  60.81 0.0005693854    1.196    0.164
         5 -12.9357    216.4781     13.9677   3.3966496395e+01   3.0227411334e+01    0.4293514    0.3470834 -81.75  0.001403053    1.052    0.050
         6 -11.4550    130.4341     14.8991   4.4827196201e+01   5.0218458260e+01    0.3001582    0.1863631  52.95 0.0006899774    1.436    0.304
         7 -11.8031    204.8218     10.4468   3.4201526687e+01   3.3192182329e+01    0.4018299    0.2241744 -73.07   0.00215677    1.729    0.422
         8 -13.3785     64.5943     10.6941   5.9651597349e+01   6.4795456372e+01    0.3644358    0.2451736  36.63 0.0008172934    1.278    0.217
         9 -12.4408     46.5257     11.5525   6.6928048940e+01   6.7799252075e+01    0.2177612    0.1776002  14.34 0.0002361632    1.019    0.019
        10 -11.4425     36.6493     11.1031   7.1067516393e+01   6.9334781210e+01    0.2009708    0.1565635  21.93 0.0002990616    1.154    0.134
        11 -13.3355    193.6106      8.9625   3.4894248100e+01   3.5887725990e+01    0.3709612    0.2335912  63.46 0.0009541464    1.531    0.347
        12 -13.3813     55.1396      5.3452   6.0579047535e+01   6.7033274601e+01    0.7875927    0.3299977  52.94  0.003755557    2.509    0.601
        13 -11.0533    114.8697      7.0871   4.5107508355e+01   5.4572942763e+01    0.2075007    0.1585003  63.73  0.000336397    1.141    0.123
        14 -12.1186    102.4016      2.9436   4.6147593639e+01   5.7737342009e+01    0.2421484    0.1873644  61.55  0.000393875    1.141    0.123
        15 -10.2357     55.8330    223.4945   1.1235501154e+02   2.0230939098e+01    0.2067757    0.1401498  69.36 0.0005151059    1.340    0.254
        16 -11.7213    219.2611    247.2856   8.1757134064e+01  -8.1422560131e+00    0.2923338    0.2433158 -63.81  0.001902474    2.168    0.539
        17 -11.0747    229.2479    248.5709   8.0172606593e+01  -9.5861277322e+00    0.2299274     0.170335  26.04 0.0007465438    1.298    0.229
        18 -10.7446    224.2818    249.5830   8.1212280062e+01  -9.0962269635e+00     0.195795    0.1653686  21.15  0.001422088    1.289    0.224
        19 -12.3114     37.6233    245.3666   1.1777123211e+02   1.7943882951e+01    0.4192896    0.2607076 -80.02  0.002060524    1.570    0.363
        20 -11.0805     38.0310    238.3369   1.1721212431e+02   1.9308705081e+01    0.4796493    0.1437389  56.23   0.00191191    3.313    0.698
        21 -11.3477     35.7195    223.0281   1.1656728582e+02   2.2788176548e+01      0.30721    0.1858104  74.59 0.0009375644    1.499    0.333
        22 -11.0527    174.0940    221.8528   8.6421935446e+01   2.3889195412e+00    0.3049398    0.2004605 -49.13  0.001629942    1.723    0.420
        23 -12.1961    239.2679    215.9370   7.3012836184e+01  -6.3189870548e+00    0.4909305    0.1789922 -43.68  0.002146886    2.967    0.663
        24 -10.5148    107.0434    221.5384   1.0087841927e+02   1.3286241319e+01    0.2031186   0.09217268  54.07 0.0008089657    2.510    0.602
        25 -11.7272     23.1544    218.1695   1.1882286047e+02   2.5233084314e+01    0.3186925    0.2493014  67.90  0.001391406    1.047    0.045
        26 -10.1348    221.7124    217.8723   7.6467593406e+01  -4.1924005556e+00    0.2074905    0.1411701 -16.54  0.001208831    1.436    0.303
        27 -10.6666    227.9550    218.0000   7.5360672461e+01  -5.0883013455e+00    0.1945183   0.06478164  36.46 0.0008079086    2.980    0.664
        28 -10.8909    179.8766    216.5943   8.4363944943e+01   2.3903113393e+00    0.2427586    0.1820389 -64.94  0.001306537    1.884    0.469
        29 -11.1485    234.9763    215.5470   7.3690686216e+01  -5.6835818174e+00    0.2214097    0.1651249 -44.88  0.001375946    1.620    0.383
        30 -10.6309     97.5925    221.2090   1.0294100506e+02   1.4815992285e+01    0.1722059    0.1239704 -52.85 0.0005917342    1.571    0.363
        31 -10.7536    176.8614    210.5324   8.3954716699e+01   3.9720056182e+00    0.2534955    0.1847383 -65.72  0.001307056    1.940    0.484
        32 -10.2458    192.7929    209.9948   8.0615999306e+01   1.4763265669e+00     0.200829    0.1612006 -79.57  0.001080334    2.030    0.507
        33  -9.8204     94.0641    205.2192   1.0168313177e+02   1.8836860748e+01    0.1833575    0.1068152  36.39 0.0005484111    1.645    0.392
        34 -10.3085    112.3371    197.6856   9.6276546553e+01   1.7579236528e+01    0.1506383    0.1041747  67.60 0.0004360183    1.694    0.410
        35 -11.3708    161.6942    193.2670   8.4147152052e+01   9.9030281834e+00     0.425146     0.316472  33.67  0.002213184    1.299    0.230
        36 -10.8106    173.3120    191.4861   8.1295746017e+01   8.1971690265e+00    0.3129846    0.2535682 -79.12  0.001632606    1.699    0.412
        37 -11.1457    226.3771    188.1844   7.0235168796e+01  -8.6705991296e-02     0.185021    0.1127852 -46.46  0.000948794    1.733    0.423
        38 -10.3275     33.5273    185.8947   1.1388296605e+02   3.1508201508e+01    0.1953221    0.1137237 -76.79 0.0007530527    1.536    0.349
        39 -10.5435    183.3166    184.1930   7.7797731959e+01   7.8483750524e+00    0.3515329    0.1239233 -53.14   0.00109158    4.041    0.753
        40 -10.9589     42.4698    183.9713   1.1151841975e+02   3.0961563979e+01    0.1912915   0.09710232  78.70 0.0004607275    2.371    0.578
        41 -10.8217    147.5909    178.5746   8.4608181594e+01   1.5567904560e+01    0.4261376    0.1433587 -49.97  0.001417011    3.044    0.671
        42 -10.8235     94.5472    178.5858   9.7649405947e+01   2.4968725815e+01     0.352726    0.2301301 -20.00  0.001411961    2.785    0.641
        43 -10.6462    191.7913    177.4683   7.4737972972e+01   7.6364048945e+00    0.3497292    0.1851192 -46.72  0.001538899    1.906    0.475
        44  -9.8098    217.6716    175.6584   6.9387904355e+01   3.4832120408e+00    0.1419873   0.09899178  -6.33  0.000705137    1.741    0.425
        45 -10.2818    159.1797    175.1880   8.1287750628e+01   1.4126290283e+01    0.2076215    0.1793488 -89.29 0.0009771566    1.401    0.286
        46 -11.1036     38.7016    174.9481   1.1147511290e+02   3.3591869203e+01    0.1945933    0.1544453 -82.96 0.0005112584    1.104    0.094
        47 -10.6275     53.6588    173.8176   1.0750974492e+02   3.2086549287e+01    0.2995805    0.1466964  57.02  0.001259004    2.283    0.562
        48 -11.4011     11.6128    172.4401   1.1796376918e+02   3.6881279908e+01    0.3837053    0.1585156 -64.99  0.001570177    2.059    0.514
        49 -11.5769     44.2096    170.5003   1.0954813214e+02   3.4059184327e+01    0.2705221    0.1735319 -73.94 0.0009881102    1.411    0.291
        50 -10.5722     58.8884    176.4147   1.0649597902e+02   3.0769642464e+01     0.270719    0.1745148  88.38  0.001003901    1.645    0.392
        51 -10.5009    121.3088    169.6559   8.9285657124e+01   2.2466835568e+01     0.157076    0.1163209  77.81 0.0006710255    1.697    0.411
        52 -12.2063     96.0420    163.8271   9.4762170278e+01   2.8319410790e+01    0.5392899     0.351521  60.03 0.0004137493    1.733    0.423
        53 -12.8303    118.5337    157.7472   8.7682083066e+01   2.5806875088e+01    0.6717526    0.4193945  47.67  0.001929104    1.621    0.383
        54 -10.3904    105.6145    158.3146   9.1191623731e+01   2.8020621766e+01    0.1645002    0.1137503  71.22 0.0007017899    1.825    0.452
        55 -10.4259    218.4996    156.4460   6.5355632965e+01   6.8189125783e+00    0.2831576    0.1248461 -40.44  0.001179704    2.060    0.515
        56 -10.8390    234.0078    154.2859   6.2253646688e+01   4.5235435839e+00    0.1880286     0.170585 -24.64  0.001177389    1.053    0.050
        57 -11.4639    167.6992    156.3021   7.5484082489e+01   1.6513274926e+01    0.4661529    0.3924971 -65.59  0.002394163    1.315    0.240
        58 -10.7364    189.9055    149.7839   6.9364398773e+01   1.3461470787e+01    0.2932426    0.1930443 -67.00   0.00125072    2.174    0.540
        59 -11.5452    125.1090    154.6914   8.5362069813e+01   2.5291946272e+01    0.3859944    0.2919145 -34.78  0.001062487    1.489    0.328
        60 -10.4378    250.1006    144.7430   5.7807587898e+01   3.5040365080e+00    0.2207105     0.186707 -82.92  0.001181765    1.595    0.373
        61 -10.5972    148.5745    144.8320   7.7385715517e+01   2.2904588223e+01    0.2258602    0.1460212 -59.84 0.0009508869    1.732    0.423
        62 -10.4980     55.3286    145.6473   1.0300655336e+02   3.8964471261e+01    0.1529834    0.1012019  71.68  0.000704708    1.771    0.435
        63 -10.3016     99.1814    143.6328   9.0026119140e+01   3.2771710188e+01    0.2153995    0.1901177 -85.66 0.0007644537    1.161    0.139
        64 -12.1337     20.8900    159.1972   1.1437997675e+02   3.9288598470e+01    0.4393705    0.2847552  71.66  0.001691697    1.522    0.343
        65 -10.1140    181.7856    142.1840   6.9349149838e+01   1.6635431733e+01    0.2482819    0.1652108 -83.96  0.000944173    2.791    0.642
        66 -11.4040     21.5519    139.9079   1.1200434732e+02   4.4025131076e+01    0.3169646     0.250545  38.06 0.0009821487    1.414    0.293
        67 -11.1129     68.7919    136.0896   9.7348603982e+01   3.9561578008e+01    0.3193504    0.2953483  30.02  0.001464238    1.187    0.158
        68  -9.9279    124.6497    136.6649   8.1560977987e+01   2.9651947383e+01    0.1619569    0.1252482  -9.35 -2.542618e-06    1.783    0.439
        69 -10.7599     82.4153    131.2371   9.2289471425e+01   3.8694664993e+01     0.220096    0.1408892 -69.82 0.0009570454    1.708    0.414
        70 -11.5768     97.9739    126.8370   8.6715997040e+01   3.7111743975e+01    0.5163844    0.3224187 -76.94  0.001519084    2.293    0.564
        71 -10.6027    118.2048    125.9715   8.0790291188e+01   3.3459648795e+01    0.3358822    0.1926408  64.55  0.001187657    2.706    0.630
        72 -11.4540     42.9724    122.4967   1.0284568907e+02   4.6287818203e+01    0.7609524    0.3015384 -77.59  0.002381582    4.078    0.755
        73 -10.8604    189.2983    123.9592   6.3663662993e+01   1.8764713744e+01    0.2601517    0.2210654  41.95 0.0006337614    1.267    0.211
        74 -10.4277     58.8168    124.2170   9.8122310207e+01   4.3929945876e+01    0.2473074    0.1425138  70.58 0.0009475273    2.805    0.643
        75 -10.6006     28.3306    122.6571   1.0754422444e+02   4.7727786168e+01    0.1401434   0.09384595  70.45    0.0007051    1.750    0.429
        76 -11.3676    155.2098    116.0722   6.8982802354e+01   2.7814562796e+01    0.4221255    0.2517415  54.34  0.001045601    1.785    0.440
        77 -11.0554    108.8436    116.3832   8.1061452532e+01   3.7559766285e+01    0.3999177    0.3049437 -60.42  0.000856081    1.353    0.261
        78 -12.2914    108.0394    110.2256   7.9727616282e+01   3.9143265146e+01    0.3440249    0.2914918 -49.94 0.0003226022    1.156    0.135
        79 -11.3430     78.7269    112.5496   8.9237810085e+01   4.3878037525e+01    0.4227215    0.2441881 -79.48  0.001515884    3.017    0.669
        80 -11.1004     24.5638    113.0491   1.0722437605e+02   5.0433682412e+01     0.262875    0.1923166 -45.62 0.0007686897    1.305    0.234
        81 -11.4447    162.1093    112.5504   6.6541907591e+01   2.7019904454e+01    0.5624161    0.3428118  63.97   0.00229663    2.024    0.506
        82 -11.1656     91.8114    111.1956   8.4814642081e+01   4.1972859512e+01    0.7178782     0.259265 -59.63  0.002108158    3.772    0.735
        83 -12.5297    139.5858    109.8913   7.1149008242e+01   3.2591026414e+01    0.9656415    0.5560792  37.55  0.003194346    1.949    0.487
        84 -12.6332    143.7791    103.3153   6.8394900056e+01   3.3055948717e+01     1.094396    0.7191226 -83.26  0.004156252    2.577    0.612
        85 -12.0868     16.9843    106.5826   1.0871333061e+02   5.2611695853e+01    0.7965815    0.4150726 -28.12  0.003714937    2.473    0.596
        86 -12.7321    125.6112    101.7486   7.2586507525e+01   3.7394447876e+01    0.7670788    0.6181897 -51.61  0.003779536    1.241    0.194
        87 -10.6702    129.4121     92.7609   6.9109726334e+01   3.8450950054e+01    0.3729511    0.2285076 -46.62  0.001404163    1.636    0.389
        88 -11.3051     57.2828    105.3151   9.4610214492e+01   4.8777924994e+01    0.3537159    0.2740467  10.41  0.001870282    1.511    0.338
        89 -12.7011    112.1789    102.4005   7.6468005038e+01   4.0075776583e+01      0.65978    0.3411517  49.75  0.002583138    2.058    0.514
        90 -11.4236    107.3865     98.2552   7.6718893057e+01   4.1959820862e+01    0.7937003    0.3414814 -60.43  0.002316048    4.042    0.753
        91 -11.9000    155.9869    102.1564   6.5245340840e+01   3.0532781308e+01    0.5254865     0.314322 -65.78  0.002007829    2.374    0.579
        92 -11.9577     64.2809    102.6728   9.1608201678e+01   4.8443556891e+01     0.356802    0.3075413 -82.65  0.001351811    1.293    0.226
        93 -10.6189     36.0367    102.8871   1.0144318306e+02   5.1840746307e+01     0.208552    0.1799752 -43.06  0.001051625    1.099    0.090
        94 -11.1086    163.8577    106.1967   6.4552974531e+01   2.7928004222e+01    0.5809026    0.2083713  53.25  0.001601739    3.016    0.668
        95 -10.4036     81.7868    100.1936   8.5158551400e+01   4.6284047496e+01    0.2507263    0.1636807  79.55 0.0009563579    2.840    0.648
        96  -9.8410     69.6752     99.7321   8.9052508856e+01   4.8338048327e+01    0.1436255    0.1091794 -17.59  0.000169382    1.570    0.363
        97 -10.5165    133.0441    106.0261   7.1788594322e+01   3.4859220243e+01    0.2302582    0.2273306 -75.32 0.0004321164    1.014    0.014
        98 -11.3641    159.7915     96.1670   6.2834386433e+01   3.0856623682e+01    0.2889785    0.2511394 -27.37 0.0007256971    1.264    0.209
        99  -9.7571     77.0252     97.2500   8.5945531411e+01   4.7751587636e+01    0.1746967    0.1256481  33.82  0.000217976    1.458    0.314
       100 -11.4271     41.6540     97.1004   9.8218177238e+01   5.2630301176e+01    0.3538933    0.1674062 -75.47  0.001290198    3.241    0.691
       101 -10.3404    188.9699     92.9617   5.6271847569e+01   2.4780624680e+01    0.2422126    0.1699962 -71.64  0.001107741    1.689    0.408
       102 -11.8854    127.8881     97.1565   7.0728975837e+01   3.7875480840e+01    0.3567665    0.2888212  46.18 0.0002427023    1.242    0.195
       103 -10.3017    233.0989     90.4382   4.8874619775e+01   1.5802507702e+01    0.1776162    0.1308815  64.23 0.0003418005    1.509    0.337
       104 -11.4053     87.0847     87.2909   7.9870791008e+01   4.8229343855e+01    0.4316783    0.2680587  74.47  0.001509554    3.588    0.721
       105  -9.8734     74.1894     87.8334   8.4329777474e+01   5.0327109606e+01    0.1902406    0.1602504  -9.91 0.0003488057    1.291    0.225
       106 -10.2376     44.1564     86.6145   9.4818374707e+01   5.4781175737e+01    0.1790595    0.1265064   4.46 0.0006543401    1.674    0.403
       107 -11.5561    104.2194     82.2812   7.3057258425e+01   4.5970373214e+01    0.7161092    0.2984931 -52.80  0.002456896    2.942    0.660
       108 -11.1320    140.7600     83.0544   6.3554363779e+01   3.7796096168e+01    0.4552729    0.1951037 -44.44  0.001670557    2.346    0.574
       109 -11.9973     44.9072     82.3524   9.3442981935e+01   5.5652896843e+01    0.4152773    0.2755789  53.29  0.000476705    2.014    0.503
       110 -10.7077     37.0080     83.5673   9.6770205856e+01   5.6257044252e+01    0.2285305    0.1756569 -84.92  0.001252577    1.635    0.388
       111 -11.1075     23.7145     79.1646   1.0090164447e+02   5.8497734274e+01    0.3612663    0.1997204 -78.87  0.001648333    2.491    0.599
       112 -10.1300    211.9312     80.4985   4.9580531218e+01   2.1865027193e+01    0.1908549    0.1348834  64.44  0.000343248    1.490    0.329
       113  -9.7441     96.5185     79.4584   7.4542400312e+01   4.8080439770e+01    0.1461765    0.1390784  -1.58 0.0001095381    1.046    0.044
       114 -11.4205     62.3188     70.1732   8.3336025712e+01   5.5920049621e+01    0.2762102    0.1224073 -44.26   0.00115487    2.128    0.530
       115 -11.4986     81.8101     72.5653   7.7161857803e+01   5.2221000768e+01    0.4093668    0.2893286 -75.90  0.001472152    2.301    0.565
       116 -10.4821    249.3327     73.3176   4.3295941471e+01   1.5366250520e+01    0.1145521    0.1002668   2.78 0.0004520647    1.691    0.409
       117 -11.3288     51.3264     69.6578   8.7377032586e+01   5.7580523652e+01    0.4243958    0.2583293 -72.82  0.001807015    2.859    0.650
       118 -11.0060     45.7073     60.6768   8.6821111302e+01   6.0119455404e+01    0.5086187    0.2384576 -36.71  0.001852677    2.148    0.534
       119 -11.1184     40.8530     51.4014   8.5774105891e+01   6.2502010967e+01    0.3294883    0.1615489 -41.31  0.001442001    1.854    0.461
       120 -13.3787      9.3982     49.2857   9.9411359745e+01   6.5883189261e+01    0.4976153     0.288236 -15.99  0.002112727    1.816    0.449
       121 -12.7495     40.6616     65.6580   9.0439602705e+01   5.9727255502e+01    0.6059622     0.429361  51.52  0.002392202    1.917    0.478
       122 -12.5536     36.2875     56.9718   8.9586198203e+01   6.1969250971e+01    0.4870627    0.3897822 -13.84  0.001509226    1.175    0.149
       123 -12.1072      8.1047     65.7904   1.0423235917e+02   6.2556649494e+01    0.4546579    0.2518183  24.69  0.001774793    2.056    0.514
       124  -9.4792    100.5100     65.4666   6.8911891084e+01   4.9951876471e+01    0.1434059     0.135422  15.22 0.0008093714    1.037    0.036
       125  -9.8595    145.4793     64.0144   5.6988452210e+01   4.0080698485e+01    0.1919932    0.1178516 -62.90 0.0003143108    2.126    0.530
       126 -11.1049     61.2590    248.3671   1.1337511141e+02   1.4426477468e+01    0.2498015    0.2061951  12.96 0.0009313113    1.734    0.423
       127 -10.9407    130.3980     58.5335   5.8722868610e+01   4.4530753717e+01    0.2505876    0.2252818  55.12 0.0005823372    1.063    0.059
       128 -10.2851     88.9938     59.2029   7.0399337131e+01   5.3374225055e+01    0.2014688    0.1551534 -59.39  0.000864495    1.611    0.379
       129 -10.4085     72.4380     58.1805   7.5672833833e+01   5.6593110199e+01    0.3203971    0.1259273 -51.21  0.001147926    3.295    0.697
       130  -9.7793    186.3202     53.6709   4.6814279120e+01   3.1946884175e+01    0.1487112   0.09696677 -70.07 0.0007048115    1.689    0.408
       131 -10.8540    232.3763     49.8012   4.0177187542e+01   2.2235504671e+01    0.1746132    0.1149142 -31.50 0.0009544846    1.713    0.416
       132 -10.6150    111.7689     48.4649   6.0095867241e+01   5.0353698849e+01    0.3370331    0.1803811 -53.51  0.001382703    2.548    0.607
       133 -10.2526     95.7836     49.6608   6.4991840623e+01   5.3602120092e+01    0.1885816    0.1248601  55.72 0.0003685751    1.597    0.374
       134 -10.5016     15.3211    249.3302   1.2217140602e+02   1.9646961904e+01   0.09637763   0.08349969 -55.45 0.0004389063    1.693    0.409
       135 -11.5702    145.1324     35.8366   4.8671918121e+01   4.4317590913e+01    0.3364908     0.321874 -39.26  0.002083981    1.158    0.137
       136 -10.3211     81.3025     37.6565   6.5140176599e+01   5.8306944284e+01    0.1256032    0.1065977 -77.14 0.0005097718    1.681    0.405
       137 -10.2971    155.1365     36.1848   4.7014160179e+01   4.1860235653e+01    0.1931529    0.1703428  60.97 0.0002869511    1.111    0.100
       138  -9.6929    126.4898     35.4221   5.2251595746e+01   4.8805662587e+01     0.136625    0.1239762  65.26 9.649077e-05    1.036    0.034
       139  -9.6666    188.6339     33.7370   4.1465131712e+01   3.4162268563e+01    0.1295933    0.0952827  45.79 0.0004941123    1.646    0.393
       140 -11.1611     23.3099    247.9570   1.2063426762e+02   1.9057554337e+01    0.1618266    0.1216438  70.79 0.0006586319    1.045    0.043
       141 -12.4149      1.9488     29.6126   9.6999437839e+01   7.0066070458e+01    0.3593573    0.1503976 -51.14   0.00123007    1.954    0.488
       142 -10.5143    195.9447     30.4862   3.9785005892e+01   3.2873315099e+01    0.2318363     0.113106  65.44  0.001093549    1.900    0.474
       143 -10.4243    176.7884     26.4052   4.1112138756e+01   3.7870092604e+01    0.2435522    0.1182725  73.93 0.0006988773    1.980    0.495
       144  -9.4058    113.2741     25.6722   5.1905575148e+01   5.3051340960e+01    0.1280671    0.1002964 -70.44 0.0002603276    1.587    0.370
       145 -11.4717    204.4752     21.9342   3.6849943376e+01   3.1967922534e+01    0.3539401      0.18734  88.92  0.001754805    1.935    0.483
       146 -10.2062    123.6590     23.2766   4.8851346566e+01   5.0926595800e+01    0.1321693   0.09841137 -80.62 0.0002450798    1.619    0.382
       147 -10.5751     26.4087     22.0647   8.1108963931e+01   6.9152789668e+01    0.1863013      0.13528   4.46 0.0003731607    1.229    0.187
       148 -13.3309     18.8544    236.0235   1.2079631577e+02   2.1923085809e+01    0.6335396    0.2266711  48.06  0.001563212    2.152    0.535
       149 -10.4639    210.2713     19.2890   3.5688621338e+01   3.0981029657e+01    0.2860354    0.1296953  76.31  0.001379124    2.081    0.520
       150 -10.8844    196.5339     18.9239   3.6956487187e+01   3.4125942716e+01    0.1932184    0.1479788  86.07 0.0003679825    1.134    0.118
       151 -11.0314     37.6542     18.2835   7.3983135690e+01   6.8269212455e+01    0.2253473    0.1898353 -21.98 0.0008976641    1.250    0.200
       152 -11.1151    209.4024    237.0637   8.1952714539e+01  -5.3632327297e+00    0.2731012    0.2201064 -61.70  0.001691289    2.005    0.501
       153 -10.3411      3.0090    235.0038   1.2372672614e+02   2.3727624469e+01    0.1834145    0.0920688  61.89 0.0004073344    1.567    0.362
       154 -10.3510    123.3843    232.4175   9.8733443483e+01   8.5496227964e+00    0.2449854     0.101977 -42.22 0.0009599593    3.350    0.701
       155  -9.5241    114.6827     12.2794   4.6943743359e+01   5.4140035468e+01    0.1242173   0.09482882 -79.23 0.0002527193    1.576    0.365
       156 -10.5601    108.7343    232.9879   1.0195442329e+02   1.0709993811e+01     0.177926    0.1605654  55.00 0.0005696287    1.051    0.048
       157 -10.8377     62.7348    233.0982   1.1176586566e+02   1.7299197844e+01    0.3646752    0.1708062  31.19  0.001102245    2.257    0.557
       158 -11.7159     72.5108    229.8419   1.0938961860e+02   1.6654162123e+01    0.4299326    0.2569633  64.14  0.002279485    1.659    0.397
       159 -10.5575    152.0197    229.4789   9.2217833755e+01   4.5543991168e+00    0.2322583    0.1888896 -78.16  0.001172456    1.638    0.390
       160 -10.3265    127.4981    230.5382   9.7598034372e+01   8.2625811063e+00    0.1330935    0.1159645  43.84 5.528706e-05    1.017    0.016
       161 -11.4331    149.6604    221.8384   9.1564545889e+01   6.3501762340e+00    0.5425291    0.2517342 -49.03  0.002414923    2.363    0.577
