#   1 NUMBER                 Running object number                                     
#   2 MAG_AUTO               Kron-like elliptical aperture magnitude                    [mag]
#   3 X_IMAGE                Object position along x                                    [pixel]
#   4 Y_IMAGE                Object position along y                                    [pixel]
#   5 X_WORLD                Barycenter position along world x axis                     [deg]
#   6 Y_WORLD                Barycenter position along world y axis                     [deg]
#   7 A_WORLD                Profile RMS along major axis (world units)                 [deg]
#   8 B_WORLD                Profile RMS along minor axis (world units)                 [deg]
#   9 THETA_WORLD            Position angle (CCW/world-x)                               [deg]
#  10 FWHM_WORLD             FWHM assuming a gaussian core                              [deg]
#  11 ELONGATION             A_IMAGE/B_IMAGE                                           
#  12 ELLIPTICITY            1 - B_IMAGE/A_IMAGE                                       
         1 -13.2871    211.3814      2.5353   5.9684967584e+01   3.1725994453e+01     1.829681    0.6884007  69.24  0.004532327    2.335    0.572
         2 -14.1032    188.0544     25.7723   6.8626095778e+01   3.5168856368e+01     1.773593     1.450878 -20.90  0.006099358    1.378    0.275
         3 -13.7810    195.6512     19.4597   6.5855536715e+01   3.3929410699e+01     1.252057    0.8816995 -79.58  0.004060862    1.440    0.306
         4 -12.9975    201.4520     11.1555   6.2912549255e+01   3.3346166991e+01    0.7098143    0.5977711  59.36  0.001444382    1.237    0.191
         5 -10.9518     32.6119      2.7969   1.0046713033e+02   7.1601248510e+01    0.3184025   0.09567723 -31.11  0.001341849    3.225    0.690
         6 -10.4509    228.2349    204.4979   1.0524534967e+02  -2.3387886288e+00    0.2262986    0.2013192 -51.17 0.0007067794    1.590    0.371
         7 -11.8459    197.9816    247.5680   1.1753643648e+02  -3.0251441743e+00     0.351613    0.2660704   3.03  0.002399673    1.454    0.312
         8 -13.5460     84.6669    238.8108   1.3711367600e+02   1.6048958692e+01     1.272612    0.5349269  66.71  0.005616664    3.203    0.688
         9 -13.7001     73.5080    226.9870   1.3813111390e+02   1.9729774101e+01    0.7400315    0.2948604  63.52  0.002776993    2.943    0.660
        10 -14.4324     33.5898    246.5302   1.4646668356e+02   2.1250732517e+01     2.124266    0.8204936  42.83   0.01118059    2.075    0.518
        11 -16.2513     57.4621    211.9460   1.3988520019e+02   2.4743798265e+01     11.46229     4.041975  60.15   0.04859992    3.090    0.676
        12 -10.8798    192.7578    194.4636   1.1002013032e+02   5.4047155901e+00    0.7620453     0.386702 -62.15  0.002337859    6.053    0.835
        13 -11.9327     72.7143    192.2378   1.3487565730e+02   2.6709340642e+01    0.3828659    0.2464155 -47.32   0.00207138    2.113    0.527
        14 -11.8795     77.1738    185.5820   1.3314497864e+02   2.7487239673e+01    0.2873694    0.2313507 -59.71 0.0006749197    1.409    0.290
        15  -8.7474    181.5223    192.4221   1.1186737476e+02   7.8399453735e+00    0.1371336    0.1198839  31.91 5.642878e-05    1.025    0.024
        16 -11.6516     69.0413    134.6378   1.2781589589e+02   4.0276462007e+01    0.3480389    0.2755836  37.80  0.001158795    1.400    0.286
        17 -13.4291     57.6829    130.1124   1.3015002536e+02   4.2851676680e+01     2.466644    0.7544465 -73.50  0.006162775    6.714    0.851
        18 -13.4462     73.1652    171.1405   1.3223996345e+02   3.1231635983e+01    0.4684708    0.2806244 -46.20  0.001862336    2.158    0.537
        19 -16.3270      8.6540    240.5165   1.5019236824e+02   2.4955177354e+01     17.61176     1.174206 -77.64   0.04909371   11.345    0.912
        20 -13.9551     49.2626    231.9880   1.4292701008e+02   2.1973834961e+01     1.881023    0.2404975  47.48  0.007095809    4.198    0.762
        21 -12.6605     46.3069    146.9151   1.3558516724e+02   4.0247028519e+01    0.6397345    0.3205284 -85.15  0.002965249    2.144    0.534
        22 -10.2444    103.1504    149.1334   1.2151549315e+02   3.1500911700e+01    0.3160326    0.2605398 -53.01 0.0008178735    1.264    0.209
        23  -9.6567    105.5888    145.1871   1.2015738240e+02   3.1976535528e+01    0.2832921    0.2141596 -29.62  0.001380445    1.778    0.437
        24 -12.3036     92.0240    148.6310   1.2423159847e+02   3.3499354987e+01    0.2784359     0.259811 -50.05 0.0005037153    1.224    0.183
        25  -9.7669    133.4914    141.9766   1.1254728128e+02   2.7360431785e+01     0.461833    0.1459278 -56.11  0.001274278    4.350    0.770
        26 -13.2494     90.8701    165.9441   1.2734711711e+02   2.9727265316e+01     3.404017    0.6367779  47.78   0.00137128    6.093    0.836
        27 -11.8470     36.9162    141.7040   1.3730858156e+02   4.2479742902e+01    0.4257289    0.2059311  84.65  0.001882818    2.535    0.606
        28 -13.7938     68.1437    145.0752   1.2975548478e+02   3.7933552816e+01     1.616942    0.8058507  84.19  0.005759389    3.642    0.725
        29 -10.0714    112.8434    135.2583   1.1629163316e+02   3.2927239886e+01    0.3378764    0.2587569 -18.88 0.0009132628    1.873    0.466
        30 -10.8767    100.4535    132.2981   1.1892104467e+02   3.5873008587e+01    0.3028352    0.2362859 -34.22  0.000837567    1.543    0.352
        31 -13.5009     42.5914    126.2775   1.3371312292e+02   4.5509750209e+01     1.097175    0.4644993 -81.98  0.004225317    3.090    0.676
        32  -9.6303    108.9447    122.7581   1.1456276751e+02   3.6536653748e+01     0.204071    0.1964319  19.12 0.0003258043    1.164    0.141
        33 -11.0394    168.3071    113.0925   9.7411021092e+01   2.5788902095e+01    0.3897865     0.313044 -83.66 0.0009399175    1.544    0.352
        34 -11.5892     85.2566    173.8465   1.2981083567e+02   2.8841836497e+01    0.2721797     0.243001 -84.26 0.0004800291    1.119    0.107
        35 -14.5319     11.9306    206.8312   1.4807208809e+02   3.0871774452e+01     1.356982    0.8390052  66.91  0.007563498    1.215    0.177
        36  -9.5097    205.5960    110.2680   8.9124957446e+01   1.7538638272e+01    0.2672048    0.1814146  31.83 0.0009020394    1.751    0.429
        37  -9.6872     15.8797     91.8270   1.3636075900e+02   5.5887269128e+01    0.1760966    0.1376751 -55.34 0.0003739365    1.149    0.129
        38  -9.8665    154.7065     76.0423   9.0025948261e+01   3.6254861887e+01     0.224352    0.2076497 -40.33 0.0006408549    1.087    0.080
        39 -11.9488    175.1536    220.9065   1.1781800204e+02   4.3996234236e+00    0.4068292    0.2418026  27.47  0.002109146    1.789    0.441
        40 -10.3953    126.8514     53.4757   8.9378372197e+01   4.6952427479e+01     0.359333    0.2587525  85.48  0.001167969    1.990    0.498
        41 -11.3957    244.7261    249.5032   1.0988267168e+02  -1.0151590198e+01    0.3070896    0.1409201  40.95  0.001759245    1.968    0.492
        42 -13.1082     49.5052    225.2955   1.4241553099e+02   2.3180729857e+01    0.3836203    0.3164218 -58.58 0.0008393255    1.715    0.417
        43  -9.6414    172.3065    245.6721   1.2185088018e+02   1.2976936307e+00     0.114627   0.08338603  61.90 0.0007037115    1.654    0.395
        44 -10.0074    230.3224    247.3264   1.1193909740e+02  -7.8815304245e+00    0.1183719   0.07071707  13.91 0.0003831401    1.687    0.407
