#   1 NUMBER                 Running object number                                     
#   2 MAG_AUTO               Kron-like elliptical aperture magnitude                    [mag]
#   3 X_IMAGE                Object position along x                                    [pixel]
#   4 Y_IMAGE                Object position along y                                    [pixel]
#   5 X_WORLD                Barycenter position along world x axis                     [deg]
#   6 Y_WORLD                Barycenter position along world y axis                     [deg]
#   7 A_WORLD                Profile RMS along major axis (world units)                 [deg]
#   8 B_WORLD                Profile RMS along minor axis (world units)                 [deg]
#   9 THETA_WORLD            Position angle (CCW/world-x)                               [deg]
#  10 FWHM_WORLD             FWHM assuming a gaussian core                              [deg]
#  11 ELONGATION             A_IMAGE/B_IMAGE                                           
#  12 ELLIPTICITY            1 - B_IMAGE/A_IMAGE                                       
         1 -11.0293    216.7818     37.3360   3.3259416215e+01   2.6270307677e+01    0.9215029    0.6252969 -56.84  0.004921767    1.430    0.301
         2 -10.9646    236.7504     19.1098   2.6910601570e+01   2.3891537784e+01    0.6858063    0.5125636 -56.21  0.002732325    1.165    0.142
         3  -7.5260     43.7817     22.4050   6.7169298078e+01   6.7573425518e+01    0.1628208    0.1128158  21.49 0.0004035117    1.532    0.347
         4 -12.1399     39.9878    248.8674   1.0829152580e+02   2.0281323352e+01     2.119248     0.644006  40.17   0.01107014    2.351    0.575
         5 -11.7214     19.9359    232.3204   1.1095824162e+02   2.5192533340e+01    0.6750956    0.4856934 -59.40  0.004210208    1.902    0.474
         6 -12.4129     29.1577    248.5311   1.1012017630e+02   2.1497457517e+01     1.235398     0.304177  40.72  0.006420867    2.640    0.621
         7 -12.1240      1.9951    208.5506   1.1317825078e+02   3.1227708193e+01    0.8993806    0.5257597 -66.70  0.006116883    1.894    0.472
         8 -12.3509      3.5332    248.4313   1.1436685924e+02   2.4040231286e+01    0.5863919    0.2456526  42.97  0.003888346    1.751    0.429
         9 -11.5890      1.8540    230.4146   1.1404014115e+02   2.7249000611e+01    0.2502941    0.1582536  79.99 0.0008029384    1.276    0.216
        10 -13.6665      2.7991    222.1172   1.1357014725e+02   2.8642047466e+01     1.253852      0.94104  36.19    0.0089052    1.529    0.346
        11 -12.0921     13.1965    244.1548   1.1262132076e+02   2.3832087329e+01     0.305865    0.3017917  56.69  0.002228631    1.628    0.386
        12 -13.4899      3.5083    238.2782   1.1403267273e+02   2.5738726487e+01    0.5715334     0.277495  73.50  0.003126895    1.656    0.396
        13 -13.7518      9.0096    235.2454   1.1298695033e+02   2.5746518738e+01     1.312409    0.4537665  76.84  0.006882347    2.917    0.657
        14  -8.4838     92.9742    241.0561   9.8292188431e+01   1.5091267668e+01    0.1582631    0.1328556   4.12 0.0007330313    1.739    0.425
        15  -9.7164    204.1766    237.7940   7.8026116929e+01  -2.1588775740e-01    0.1889936    0.1535482  13.37 0.0002929488    1.085    0.079
        16  -8.2380     63.5427    237.1023   1.0337239249e+02   1.9507221018e+01    0.3139745    0.1791918 -74.74  0.001326967    1.930    0.482
        17  -8.3520     38.2823    238.5246   1.0802397107e+02   2.2193337268e+01    0.1859895     0.181085 -17.56  0.001576483    1.628    0.386
        18  -7.9208    114.0205    238.5221   9.4171132270e+01   1.2608505703e+01    0.1817384   0.09096483  39.96  0.001031271    1.589    0.371
        19  -8.8252     49.1480    235.5937   1.0589584392e+02   2.1473457810e+01    0.2352908    0.1886564 -29.74  0.001658324    2.208    0.547
        20  -9.9044    100.7267    233.9835   9.6191673181e+01   1.5177646494e+01    0.4120153    0.1897601  59.79  0.002001852    2.677    0.626
        21 -10.1680     33.3598    232.7593   1.0858405074e+02   2.3723279569e+01    0.7676282    0.2451013  41.59  0.004125742    2.267    0.559
        22 -10.4047     30.4148    210.8465   1.0785513697e+02   2.8043537377e+01    0.7531928    0.5219979   2.28  0.004438277    2.873    0.652
        23 -10.0992     37.2688    224.3466   1.0737907203e+02   2.4795925676e+01    0.4213715    0.3950933  55.95  0.002330482    1.387    0.279
        24 -10.4394     31.6520    217.9624   1.0805090009e+02   2.6573382851e+01    0.4697713    0.3626298  52.31  0.002444808    1.176    0.149
        25 -10.0182     28.2780    181.4021   1.0627250977e+02   3.4181249557e+01    0.4214261    0.3502933  31.60  0.001554015    1.459    0.315
        26 -10.6983     24.7023    205.0760   1.0862376294e+02   2.9747431892e+01    0.3261653    0.2953182  28.00 0.0006973469    1.509    0.337
        27 -10.4975     23.3506    199.4205   1.0854866072e+02   3.0994797619e+01     0.328379     0.240323  85.81  0.000676543    1.175    0.149
        28  -9.3734     28.6876    198.8718   1.0742972257e+02   3.0558451269e+01    0.2462145     0.196254  77.81  0.001038266    1.079    0.073
        29 -12.2370     35.2284    195.6055   1.0585076164e+02   3.0518366051e+01      1.04565    0.8037829  71.11  0.007367593    1.036    0.035
        30  -9.1679     84.2505    232.6171   9.9162613541e+01   1.7630193942e+01    0.2672946     0.156445  26.85  0.001053796    2.054    0.513
        31  -8.0654     43.1736    232.7397   1.0680397924e+02   2.2648210150e+01    0.1880555    0.1464008  24.49  0.001366038    1.714    0.416
        32  -7.9902    121.4659    232.5501   9.2145590048e+01   1.2476546384e+01    0.1167137   0.09378279  44.64 0.0001954121    1.003    0.003
        33 -10.0867    112.0876    231.1066   9.3755344461e+01   1.4049443421e+01    0.2818345    0.1867575  43.54  0.001078118    1.215    0.177
        34  -9.1647     91.7925    229.8555   9.7481696850e+01   1.7083424663e+01     0.267219    0.1507269  26.36  0.001456306    2.184    0.542
        35  -9.7157    111.7663    223.8652   9.3026606693e+01   1.5278635432e+01     0.304933     0.193141  28.71  0.001788387    1.670    0.401
        36  -7.8445     55.9262    225.1878   1.0391936644e+02   2.2501514023e+01     0.157152    0.1266303  12.68 0.0008928426    1.870    0.465
        37  -9.1259    116.7805    224.3857   9.2117088063e+01   1.4462778218e+01    0.2432633   0.09837523  33.41  0.001083084    2.452    0.592
        38  -8.8344    140.1476    221.2203   8.7243260347e+01   1.1476320163e+01    0.1809494    0.1712383 -76.22 0.0003638351    1.270    0.213
        39  -8.1065     61.6429    221.8718   1.0257003900e+02   2.2402194302e+01    0.2088728    0.1537242  24.55 0.0009719664    1.726    0.421
        40  -7.6824     52.5184    222.0803   1.0434143298e+02   2.3467858125e+01    0.1534373   0.09843574 -87.47   0.00100444    1.551    0.355
        41  -8.1242     54.6116    217.2978   1.0357786196e+02   2.4095028786e+01    0.3321621   0.09483058  33.43 0.0009122038    3.455    0.711
        42  -7.5685     38.2790    214.3365   1.0654888205e+02   2.6532140647e+01   0.09595669   0.08379022 -52.41 0.0003540818    1.614    0.381
        43  -7.3807    152.6622    213.3163   8.3776162424e+01   1.0773531535e+01    0.1214145   0.08897651  63.30 0.0006812701    1.700    0.412
        44  -7.7937     76.0012    212.3461   9.8901178229e+01   2.2307762464e+01    0.2349934    0.1508709 -82.25  0.001426476    1.693    0.409
        45  -8.2294     84.3209    211.5483   9.7141422038e+01   2.1330557993e+01    0.2422582    0.1728625   4.80 0.0008188338    2.493    0.599
        46  -8.4776     95.9117    210.3139   9.4658014248e+01   1.9928054940e+01    0.2917823    0.1599535 -62.67  0.001606076    2.049    0.512
        47  -8.2002    172.9018    232.5289   8.2697348480e+01   4.9161741170e+00    0.1560507    0.1388931  17.08 0.0003272706    1.134    0.118
        48  -8.0635    188.9766    210.0646   7.6523658452e+01   5.5455739906e+00    0.1443615    0.1228623  18.28 0.0003395042    1.029    0.028
        49  -7.7743    118.3080    208.5733   8.9907550155e+01   1.6914479096e+01      0.15994    0.1069648  33.13 0.0003960339    1.436    0.304
        50  -7.7736     63.9851    208.5131   1.0097898251e+02   2.4588982543e+01    0.1425624    0.1035265   6.44 0.0008079925    2.378    0.579
        51  -9.1213     46.5843    207.0660   1.0438482863e+02   2.6978903083e+01    0.2569762    0.2352116 -62.92  0.001107628    1.434    0.302
        52  -7.3988    163.2963    207.7031   8.0920904411e+01   9.9561436585e+00    0.1158272   0.09226023  63.62 0.0003740233    1.568    0.362
        53  -7.2507    128.6670    207.3097   8.7655207044e+01   1.5530244280e+01    0.1268696   0.08762018  63.97 0.0007042538    1.673    0.402
        54  -7.3801    123.4663    206.7606   8.8629854601e+01   1.6436036957e+01    0.1623027    0.1156304 -38.00   0.00094536    1.778    0.438
        55  -7.5291     63.5795    204.5479   1.0070312929e+02   2.5402000390e+01    0.1189308   0.09608173  64.78 8.782354e-05    1.013    0.012
        56  -7.9440     79.1805    199.8952   9.6982323889e+01   2.4242868453e+01    0.3182076    0.1580498 -62.51  0.001659572    2.136    0.532
        57  -8.3853     83.2294    197.3050   9.5839061980e+01   2.4185104209e+01    0.2351546    0.2001325  43.15  0.001244657    1.181    0.153
        58  -7.3710    113.3764    200.2308   8.9838549139e+01   1.9167744579e+01    0.1548331    0.1170418 -78.96 0.0003885547    1.548    0.354
        59  -8.9073     47.3540    199.8785   1.0365874631e+02   2.8297322847e+01    0.3296632    0.1793229  32.46  0.001117339    1.923    0.480
        60  -8.0539    193.3633    198.1324   7.3787023735e+01   6.5385141807e+00    0.2546405    0.1879833 -52.34  0.001517214    1.828    0.453
        61  -7.9311    109.1578    198.1329   9.0445705719e+01   2.0205728663e+01    0.1720877    0.1599634  33.23 0.0003690833    1.176    0.150
        62  -8.5249     88.9140    197.2254   9.4619112517e+01   2.3392977307e+01    0.2873825    0.1911144  22.90  0.000994432    1.936    0.484
        63  -7.5584     97.5748    196.0271   9.2629087781e+01   2.2357211295e+01    0.1686767    0.1206764 -67.74 0.0003102343    1.518    0.341
        64  -8.8183     15.6381    194.3437   1.0981005831e+02   3.2760233502e+01    0.1904075    0.1668893 -18.50  0.001265063    1.817    0.450
        65  -8.5756     11.5761    192.7711   1.1054905499e+02   3.3454450154e+01    0.2757621    0.1175679  76.71  0.001446928    2.226    0.551
        66  -9.9324      2.2912    193.2643   1.1244717078e+02   3.4176418890e+01    0.3778333    0.2424263 -74.04  0.002622565    1.527    0.345
        67  -9.0526      8.4152    188.0009   1.1093704084e+02   3.4705388573e+01    0.2736373    0.1867091  -1.77  0.001563777    2.746    0.636
        68  -7.2372    130.2092    194.0120   8.5465965894e+01   1.7623458805e+01    0.1509523    0.1042538 -53.17 0.0004941022    1.627    0.385
        69  -7.8220     57.3204    193.4121   1.0098482289e+02   2.8394394246e+01    0.2291656    0.1252865 -57.32  0.001186514    2.041    0.510
        70  -8.0304     71.8299    191.6730   9.7671617713e+01   2.6871032308e+01    0.1732304    0.1354581  62.45  0.001063911    1.103    0.093
        71  -7.6371     64.5051    191.5036   9.9245706382e+01   2.7871164135e+01    0.1225061    0.1032548  67.29 0.0008105939    1.019    0.018
        72  -7.6108     64.7558    188.5368   9.8884663149e+01   2.8444362264e+01    0.1776549    0.1239203  71.24 0.0004401185    1.346    0.257
        73  -7.5013     60.4785    190.5039   1.0002051951e+02   2.8590159151e+01    0.1213517    0.1030299  68.89 6.192172e-05    1.036    0.035
        74  -9.2909     20.4420    189.0929   1.0849556831e+02   3.3364780241e+01    0.2747701    0.2097782  80.59  0.001399968    1.074    0.069
        75  -8.0972     16.2990    188.9815   1.0935596273e+02   3.3784489987e+01    0.1688918    0.1314925  57.77 0.0008236212    1.155    0.134
        76  -8.3862    121.0157    188.3994   8.6576982674e+01   2.0156084843e+01    0.2013771     0.179076 -83.56 0.0002301505    1.220    0.181
        77  -7.6181     80.6125    188.2219   9.5358401954e+01   2.6360299429e+01    0.1561463    0.1130607 -57.77 0.0002757897    1.523    0.343
        78  -7.2379     87.5766    185.4541   9.3478758438e+01   2.5921626429e+01     0.127439    0.1100401  65.38 0.0001434082    1.019    0.019
        79  -8.1455     10.6681    183.3421   1.1020320916e+02   3.5462154312e+01    0.2076407    0.1224671  74.80  0.001310827    1.404    0.288
        80  -9.4334      8.0024    180.5179   1.1060627413e+02   3.6283531426e+01    0.2259911    0.1921455  31.15 0.0008696247    1.488    0.328
        81  -7.9862     78.0546    182.0238   9.5185219805e+01   2.7991171812e+01    0.1691549    0.1645408  64.82  0.000298785    1.208    0.172
        82  -8.5111     80.9596    179.3527   9.4194820672e+01   2.8134804706e+01    0.2017682    0.1702357 -77.29 0.0002052932    1.191    0.160
        83 -10.6186     53.1718    179.2686   1.0051605048e+02   3.1842622663e+01    0.6385182    0.4357128  10.92  0.002598512    2.364    0.577
        84  -7.5447     89.4891    233.5120   9.8258170370e+01   1.6783585025e+01    0.1148487   0.09025852  52.87 -8.48213e-05    1.001    0.001
        85  -8.8246     37.1184    178.6214   1.0408242238e+02   3.3835999730e+01    0.3479494    0.2085244 -44.12  0.001459795    2.449    0.592
        86  -7.2153    116.7848    177.9886   8.5922162150e+01   2.2857919285e+01     0.161512    0.1077185 -56.22 0.0003821103    1.614    0.381
        87  -6.8160     86.6528    178.6851   9.2811447464e+01   2.7446454781e+01    0.1228962    0.1027477 -15.26 0.0007047464    1.720    0.419
        88  -8.1864     23.1649    177.4452   1.0710464381e+02   3.5530983153e+01    0.2089259    0.1390077 -86.81  1.77567e-05    1.299    0.230
        89  -7.1488     62.3095    181.2982   9.8659258675e+01   3.0266068492e+01    0.1118488   0.09720381 -32.13 0.0002444498    1.597    0.374
        90  -9.7766      2.3228    175.3409   1.1153615137e+02   3.7844834843e+01     0.332603    0.1915863 -79.28  0.002117096    1.494    0.331
        91  -7.2041    147.9549    176.8026   7.8986409383e+01   1.7733926611e+01    0.1744023   0.09778231  40.27 0.0003504155    1.648    0.393
        92  -9.6129     60.7746    172.9066   9.8077240625e+01   3.2254900722e+01    0.2766235    0.2248688 -59.30 0.0004791483    1.363    0.267
        93 -10.1613     17.6684    172.1732   1.0795104220e+02   3.7182441180e+01      0.48573    0.2276886  71.58  0.002523622    2.076    0.518
        94  -9.2815    175.4037    172.3598   7.2598416213e+01   1.3613501264e+01    0.2681154    0.2409396  25.94 0.0007821819    1.027    0.027
        95  -7.9363     46.4538    171.7664   1.0130110941e+02   3.4259508570e+01    0.3197378    0.1590875  82.07  0.001358563    2.402    0.584
        96  -7.5709     42.9578    169.0058   1.0184299323e+02   3.5265415714e+01    0.1865109     0.137423  66.60 0.0003565845    1.195    0.163
        97  -8.4825     29.7904    171.4985   1.0513878112e+02   3.6144534870e+01    0.3572615    0.1761631  65.98  0.001840605    2.009    0.502
        98  -9.9041     23.6446    156.4797   1.0529435483e+02   4.0070847359e+01    0.3127356    0.2655601  42.02  0.001532232    1.319    0.242
        99  -9.7246     24.0930    170.5372   1.0636807456e+02   3.6923871913e+01    0.3372242     0.306617 -84.81  0.001888495    1.241    0.194
       100  -9.3124     26.5201    163.4323   1.0521269237e+02   3.8241928905e+01    0.5067167    0.2310159 -57.80  0.002562079    2.266    0.559
       101  -7.1221    137.4890    172.4663   8.0465614166e+01   2.0386063915e+01    0.1343536    0.1246375  41.43 8.924596e-05    1.014    0.014
       102  -7.7955     72.8094    169.8749   9.4875220108e+01   3.1301017929e+01    0.1815312    0.1284457  60.44  0.000420194    1.332    0.249
       103  -7.9977      7.0278    170.5362   1.1022651379e+02   3.8473811771e+01    0.1540472   0.09985142  41.11 0.0006553267    1.528    0.345
       104  -8.3331     41.5946    165.3764   1.0180049984e+02   3.6219321774e+01    0.4769712    0.2614374 -27.62  0.001749707    5.324    0.812
       105  -8.4712     90.2049    164.3201   8.9951655107e+01   2.9953009878e+01    0.3587073    0.2251812  12.66  0.001230756    2.898    0.655
       106  -9.0636     71.7722    163.4451   9.4275865654e+01   3.2850266113e+01    0.2332659    0.2019525  87.71 0.0003615654    1.062    0.058
       107  -8.9345    153.2111    162.9615   7.5353891440e+01   1.9333297448e+01     0.213529    0.1838785  43.04 0.0003023323    1.108    0.098
       108  -8.2322     97.1531    163.5935   8.8180317552e+01   2.9019339343e+01    0.3060173    0.1292498  34.91  0.001235923    2.491    0.599
       109 -10.0680     57.6742    160.3851   9.7330629172e+01   3.5408557234e+01    0.4675987    0.2895719 -45.56   0.00151749    2.027    0.507
       110  -9.1772     35.5345    160.6993   1.0279182661e+02   3.7924111644e+01    0.5086395    0.2592804 -89.89  0.001020821    2.016    0.504
       111  -9.9818     13.3829    160.8278   1.0811395348e+02   4.0038550034e+01    0.2896718    0.2639615  -2.80  0.001643358    1.563    0.360
       112  -7.7090    171.8215    158.8254   7.0689891165e+01   1.6602967027e+01     0.176984    0.1608395  78.03 0.0003984483    1.330    0.248
       113  -9.9412     79.7567    156.1660   9.1270668575e+01   3.3319027757e+01    0.5484864    0.3971995 -34.80  0.002886975    1.866    0.464
       114  -8.6967    122.2861    157.7913   8.1265679964e+01   2.5990956904e+01    0.2209644    0.2109261 -78.91 0.0009306434    1.072    0.067
       115  -8.6430     52.0284    156.1924   9.8218019443e+01   3.7055823264e+01    0.2792381    0.1810357 -49.99 0.0008316471    1.767    0.434
       116  -7.1510    128.4125    153.5085   7.9044920454e+01   2.5764305815e+01    0.1382813     0.131637  70.06 9.341801e-05    1.041    0.039
       117  -7.6341     13.2959    148.3483   1.0715691209e+02   4.2834207786e+01      0.15931    0.1358971 -84.75 0.0005932076    1.131    0.116
       118  -9.0501     18.4840    152.5177   1.0621715641e+02   4.1440331189e+01    0.2434784    0.1418171  48.48  0.001420765    1.619    0.382
       119  -9.1021     14.5696    152.1069   1.0714968959e+02   4.1877654854e+01    0.2810325    0.2145339 -42.75  0.001823244    1.713    0.416
       120 -10.6567     68.5142    145.2010   9.2470993676e+01   3.7417400134e+01    0.7343627    0.4699449  81.52  0.003271401    1.846    0.458
       121  -8.5588      8.8324    154.9979   1.0877011424e+02   4.1713468488e+01    0.1782273    0.1423883  66.29 0.0003946921    1.132    0.117
       122  -7.8557     50.6838    150.9650   9.7909571445e+01   3.8409725003e+01    0.1856876    0.1446209 -82.98 0.0005192213    1.156    0.135
       123  -8.6594    115.9172    148.3724   8.1016813327e+01   2.9099896880e+01    0.2271992     0.193868 -53.69 0.0003584758    1.202    0.168
       124  -8.4288     22.8611    148.5334   1.0475916234e+02   4.1943175984e+01    0.2335812    0.1500453 -55.06 0.0003117691    1.674    0.403
       125  -7.9352    247.9885    144.3385   5.4423138685e+01   5.0981964020e+00    0.2031083   0.08284032  28.60 0.0007051657    4.394    0.772
       126  -8.8617     96.9330    142.4404   8.4619790607e+01   3.3684416928e+01    0.3469394    0.2843787 -25.76  0.001460125    1.556    0.357
       127  -8.4424    241.6656    142.3241   5.4942436024e+01   6.4363623684e+00    0.1209574    0.0978945 -58.44 0.0007050919    1.711    0.416
       128  -8.4297     82.0154    142.0614   8.8416603585e+01   3.6161509770e+01    0.2012625    0.1894017 -83.49 0.0003554271    1.061    0.058
       129  -7.6717     16.0092    142.0427   1.0591370221e+02   4.4041033892e+01    0.1490888    0.1192113  88.76 0.0005371309    1.016    0.016
       130  -7.9617     78.1678    139.9051   8.9061146537e+01   3.7239025744e+01    0.2062033    0.1718556  70.95 0.0007933951    1.178    0.151
       131  -8.3339      5.9871    138.0151   1.0817500973e+02   4.5767332226e+01    0.1399167    0.1184716  75.85  0.000468263    1.111    0.100
       132  -8.2033     15.8309    138.1956   1.0560106404e+02   4.4941659284e+01    0.1636309    0.1250485 -59.79 0.0005004974    1.356    0.263
       133  -7.5427     61.6620    136.2688   9.2912490283e+01   4.0423902231e+01    0.1382895   0.09341156  67.43 0.0001786638    1.598    0.374
       134  -8.4216     28.9040    133.7178   1.0158746573e+02   4.4798285155e+01    0.1955725    0.1519965 -69.03 0.0003482325    1.182    0.154
       135  -9.5979      9.7705    132.2661   1.0667023400e+02   4.6801991589e+01    0.2955286      0.17284  86.89 0.0008807365    1.517    0.341
       136  -7.7810    107.9959    131.0320   7.9515318739e+01   3.4295326699e+01    0.2234834    0.1803794 -12.38 0.0008899655    1.665    0.400
       137  -8.6218    245.4813    130.4721   5.1878346253e+01   7.4326825091e+00    0.1286167    0.1097325 -16.30   0.00023509    1.003    0.003
       138  -7.9628     67.1411    129.8566   9.0328753464e+01   4.1177312173e+01    0.2106981    0.1748198  74.16 0.0008721111    1.196    0.164
       139  -9.1744    249.8830    128.1756   5.0764521115e+01   6.9889460208e+00    0.3469639    0.1104425 -38.29  0.001376822    2.797    0.642
       140  -7.6398     15.3875    128.8715   1.0479500586e+02   4.7144710518e+01     0.182235   0.08886216 -63.59 0.0009393215    1.763    0.433
       141  -8.7898     65.8712    124.8680   8.9801030995e+01   4.2528447270e+01    0.2159559    0.1947672 -80.68 0.0003005538    1.008    0.008
       142  -7.1284      1.3516    125.3083   1.0835808597e+02   4.9017016219e+01    0.1190733   0.07648981 -49.82 0.0005463382    1.715    0.417
       143  -8.1582    244.6830    123.6746   5.0526403191e+01   8.5259633712e+00    0.1322763   0.09248785   4.17 0.0005303167    1.672    0.402
       144  -7.3509     21.7216    122.3493   1.0225874655e+02   4.8140916807e+01    0.1309288   0.08162246  73.30 0.0001947079    1.641    0.391
       145  -8.2629      5.7608    119.2841   1.0655430481e+02   5.0115537763e+01    0.3340185     0.084865 -65.75  0.001011683    2.838    0.648
       146  -9.9066    248.9001    116.6075   4.8399331666e+01   8.7630197407e+00    0.3348151    0.1861064 -38.94  0.001726714    1.631    0.387
       147  -7.4106     37.3862    117.7754   9.6992039788e+01   4.7716537227e+01    0.1830232    0.1031807 -59.15  0.000357382    1.577    0.366
       148  -7.7570     65.5097    116.8657   8.8402534116e+01   4.4467815949e+01    0.2076311    0.1255356 -59.28   0.00100494    1.522    0.343
       149  -8.4892     32.8973    115.3472   9.7983324383e+01   4.8757622382e+01    0.2219051     0.160027 -69.12 0.0002933909    1.197    0.165
       150  -8.1137     59.3392    110.2355   8.8959960932e+01   4.6885977860e+01     0.229357    0.1594559 -73.99   0.00068014    1.425    0.298
       151  -9.0210    249.7099    107.7686   4.6342004211e+01   9.8455410933e+00    0.2789955    0.1068166 -25.71  0.001090419    2.753    0.637
       152  -8.0198     13.3314    107.3097   1.0292340601e+02   5.2385092441e+01    0.1261713   0.08018978 -46.37 0.0007041919    1.669    0.401
       153  -7.5426     22.5488    106.4953   9.9896500877e+01   5.1833402562e+01    0.1276757    0.1065175 -78.53 0.0006231712    1.014    0.014
       154  -8.4475     58.6077    102.5320   8.7597306186e+01   4.8806354752e+01    0.2224913    0.2096864 -86.46 0.0003411006    1.063    0.060
       155  -8.4394     83.9167     99.6604   7.9034224378e+01   4.5619532537e+01    0.2214762    0.1854625 -45.09 0.0002833582    1.176    0.149
       156  -7.4189     24.8068     96.8465   9.7646404199e+01   5.3931290942e+01    0.1725777     0.134939  80.54 0.0005235019    1.307    0.235
       157  -7.2015     73.3920     96.4984   8.1502250864e+01   4.8059000344e+01    0.1414506    0.1282609 -63.84  0.000156674    1.033    0.032
       158  -7.4906     41.4969     96.0203   9.1857046267e+01   5.2457664545e+01    0.1915213    0.1169291 -63.63 0.0009801388    1.437    0.304
       159  -7.3068    120.3897     93.8862   6.7150941120e+01   3.9890087103e+01    0.1977118    0.1396812 -32.09 0.0001494937    1.540    0.351
       160  -8.8363     87.6808     91.2937   7.5704799251e+01   4.6843706823e+01    0.2447756    0.2343444 -79.18 0.0003315346    1.058    0.055
       161  -7.4399     42.4358     92.4375   9.0799338317e+01   5.3198728631e+01    0.1327126    0.1164362 -65.04 9.407754e-05    1.002    0.002
       162  -7.2710     52.2883     89.6509   8.6797902737e+01   5.2660108673e+01    0.1375962    0.1015394  83.10 0.0007024353    1.662    0.398
       163  -7.2591     21.6903     85.2998   9.6697531459e+01   5.6928791321e+01     0.124957   0.08929216  73.16  0.000329171    1.600    0.375
       164  -7.5105    132.8123     79.8973   5.9930215109e+01   3.9930842394e+01    0.2025185    0.1736019 -70.51            0    1.299    0.230
       165  -8.2734     19.1055     74.9690   9.5646041376e+01   5.9549300137e+01    0.1870854    0.1534772  82.20 0.0006005246    1.327    0.247
       166  -7.4799     15.3033     61.6330   9.4252256263e+01   6.2886401689e+01    0.1233383   0.08893225  78.01 0.0007034907    1.742    0.426
       167 -11.2013    208.2899     43.4398   3.5820400256e+01   2.7481370162e+01    0.6046168    0.5140098 -36.44  0.003185289    1.119    0.106
       168 -10.0557     71.3684    244.9714   1.0253221574e+02   1.7243620270e+01    0.3454542    0.2789042   9.73  0.002003373    1.918    0.479
       169 -10.2852    223.1448     31.1842   3.1042049585e+01   2.5552992576e+01    0.5022466    0.3316602  37.35  0.001645176    2.017    0.504
       170  -7.7853    117.7192     44.0868   5.1667885293e+01   4.9626298814e+01    0.1998345      0.17765 -24.85 0.0003923244    1.128    0.114
       171  -8.1960     14.1683     26.1607   8.3816895733e+01   7.0427518775e+01    0.1790303    0.1332309 -30.03 0.0005113013    1.170    0.145
       172  -7.9830    183.8087    243.4727   8.2251294921e+01   1.9542482899e+00    0.1621026    0.1412318  51.63  0.001096709    1.462    0.316
