#   1 NUMBER                 Running object number                                     
#   2 MAG_AUTO               Kron-like elliptical aperture magnitude                    [mag]
#   3 X_IMAGE                Object position along x                                    [pixel]
#   4 Y_IMAGE                Object position along y                                    [pixel]
#   5 X_WORLD                Barycenter position along world x axis                     [deg]
#   6 Y_WORLD                Barycenter position along world y axis                     [deg]
#   7 A_WORLD                Profile RMS along major axis (world units)                 [deg]
#   8 B_WORLD                Profile RMS along minor axis (world units)                 [deg]
#   9 THETA_WORLD            Position angle (CCW/world-x)                               [deg]
#  10 FWHM_WORLD             FWHM assuming a gaussian core                              [deg]
#  11 ELONGATION             A_IMAGE/B_IMAGE                                           
#  12 ELLIPTICITY            1 - B_IMAGE/A_IMAGE                                       
         1 -13.5089    204.6102     30.5934   1.6600807190e+01   3.0354095312e+01    0.8622941    0.5066779 -27.45  0.004127316    1.907    0.476
         2 -13.5631    198.4801     30.8258   1.7447269690e+01   3.1850163065e+01    0.9052929     0.573626 -25.54  0.004063693    1.810    0.447
         3 -12.5208     71.0807      7.3933   3.6319785568e+01   6.4255532614e+01    0.6155552    0.2241112  56.36  0.002354269    3.783    0.736
         4 -10.4335      6.9009      4.8042   6.4340919023e+01   7.2969277957e+01    0.1953779    0.1176548   9.25 0.0008268471    1.621    0.383
         5 -10.7629     66.5544    249.6892   9.0862021504e+01   1.5186897141e+01    0.1257384   0.08723148 -41.78 0.0007435482    2.626    0.619
         6 -13.7063    247.4651    243.4100   5.6583906671e+01  -1.1501698473e+01     1.138967    0.4992636 -27.05  0.006095751    2.410    0.585
         7 -12.7504    133.7241    145.6843   6.1709642607e+01   2.5950400179e+01     1.567245    0.3704741 -54.77  0.003448644    6.587    0.848
         8 -10.4437    129.5926    141.2089   6.1773849617e+01   2.7805011879e+01    0.2725818    0.2381656 -25.21  0.000791064    1.304    0.233
         9 -10.4313    124.6201    156.7941   6.6278822767e+01   2.5211024983e+01    0.2132467    0.1408893 -66.20 0.0005734822    1.708    0.415
        10  -9.9205     81.0938    229.4560   8.6421554088e+01   1.6900611659e+01    0.2077804    0.1217696  47.84  0.001190567    1.414    0.293
        11 -10.8989    143.4346    145.0292   5.9165103277e+01   2.4102228876e+01    0.2918345    0.2085298 -61.07  0.001321193    1.546    0.353
        12 -13.0157     72.4137    225.0457   8.7689163674e+01   1.8981469118e+01    0.2585717    0.1987726 -67.40 0.0009385401    1.455    0.313
        13 -11.9001    135.8767    127.4941   5.7002033336e+01   2.9628785040e+01    0.6539491     0.220917 -50.53    0.0020054    3.128    0.680
        14 -15.3876     69.0134    144.0828   7.8356269060e+01   3.7506078772e+01     1.499812    0.9737006  71.21  0.004639007    1.822    0.451
        15 -10.9784    117.0783    125.0800   6.1380506653e+01   3.4024976862e+01      0.23576    0.2092977 -12.73 0.0006276859    1.310    0.237
        16  -9.0197    218.3206    124.6880   3.8228394301e+01   1.1832285647e+01    0.1476335      0.11563 -72.15 0.0007037531    1.650    0.394
        17 -11.3329    105.5290    119.2732   6.3195839464e+01   3.7584755783e+01    0.3246984    0.2548685 -34.70 0.0005718229    1.382    0.276
        18 -10.0573    111.8893    115.1336   6.0400159824e+01   3.7340526092e+01    0.2240631    0.2030778  86.92 0.0003240736    1.186    0.157
        19 -12.5251    119.0919    110.5916   5.7241470634e+01   3.6945199579e+01    0.7371873     0.516405  83.44  0.003022705    2.216    0.549
        20 -12.6181    118.3469    104.0980   5.5734023330e+01   3.8550714313e+01     0.763907    0.4764279  70.78  0.002707963    2.694    0.629
        21 -12.4281     84.9095    110.1334   6.7037193694e+01   4.3309505777e+01    0.4353164    0.3414502  38.74  0.001439366    1.359    0.264
        22 -10.7865    160.6414    199.2519   6.5812350640e+01   9.4230329838e+00    0.2344113    0.2065861  66.37 0.0007817684    1.239    0.193
        23 -11.3921    151.7367    200.0477   6.7855522785e+01   1.0918457936e+01    0.1876584    0.1855842 -77.43 0.0008369089    1.122    0.108
        24 -11.0542    136.4241     97.2022   4.8944983117e+01   3.6142989339e+01    0.2740023    0.2417518  71.66 0.0004772241    1.239    0.193
        25 -11.1944    109.3293     97.2663   5.6441710102e+01   4.1873616579e+01    0.3273027    0.2622438  73.13  0.000352864    1.555    0.357
        26 -10.9841     94.3323     89.2599   5.8707148133e+01   4.6452809852e+01     0.296628    0.2838965 -32.14  0.001279277    1.012    0.012
        27 -10.0938    210.9229    198.7825   5.5455724248e+01   3.0098788330e-01    0.2023757    0.1609247  14.14 0.0004830615    1.180    0.152
        28  -9.9810    152.1940     86.8652   4.2056333568e+01   3.4557387204e+01     0.216896    0.1889989   5.24 0.0007361975    1.321    0.243
        29 -10.6848    116.8434     86.5852   5.1210431927e+01   4.2627948598e+01    0.4079411    0.2587426  69.78   0.00157014    2.545    0.607
        30 -10.1909    110.1205     82.3179   5.1879129693e+01   4.4896523400e+01    0.2857253    0.2269804  81.90  0.001356598    1.721    0.419
        31 -10.3898    159.1344    189.8769   6.4491462890e+01   1.1500839161e+01    0.1916034    0.1670073  -8.83 0.0008589379    1.322    0.243
        32 -11.0091    178.4079     80.4216   3.4483698360e+01   2.9331172831e+01    0.3640358    0.2280862 -72.42  0.001372881    2.488    0.598
        33 -11.8279    160.3197     75.8046   3.6963507510e+01   3.4648702461e+01    0.3624608    0.2949189 -74.51 0.0007788274    1.434    0.303
        34 -10.9540    175.2249    179.4092   5.9032812525e+01   1.0412286804e+01    0.3287189    0.2564745  40.94  0.000930513    1.205    0.170
        35 -13.1685    165.5292     69.5525   3.4005162594e+01   3.4453749725e+01    0.5913301     0.522493  29.21 0.0009332648    1.230    0.187
        36 -13.0562    172.7255    173.9486   5.8493831677e+01   1.1971744360e+01    0.8413625    0.6152332  -4.42  0.001308673    1.867    0.464
        37 -11.9232    180.8789    168.6239   5.5643444895e+01   1.1372407798e+01    0.6609736    0.4276294 -62.19  0.002459905    2.154    0.536
        38 -11.0717    154.4924     70.7792   3.6767790663e+01   3.6981827434e+01    0.2743588    0.2133714  54.59 0.0007833084    1.260    0.206
        39 -11.5821      3.6753    179.3758   9.7745700140e+01   3.6304511875e+01    0.2361917    0.1280233  75.29  0.001104989    1.567    0.362
        40 -10.6541    137.0110     67.0327   3.9759382700e+01   4.1872198452e+01    0.2244592    0.2190281  63.42   0.00046776    1.050    0.048
        41 -13.8805    179.7060     56.8861   2.7570408411e+01   3.2943889013e+01     1.254801    0.9824873  26.70  0.003961859    1.570    0.363
        42 -12.3331    186.2254     50.3143   2.4586515962e+01   3.2282019658e+01    0.4450763    0.3934998  62.04 0.0008949206    1.109    0.099
        43 -11.3266    236.0000    176.0376   4.6297731360e+01  -4.7809111862e-01     0.279619    0.1710959 -34.46 0.0007510915    1.563    0.360
        44 -11.3007    235.2913    172.6718   4.5737609636e+01   1.8527699512e-01    0.2166011    0.1775625 -26.29 0.0005043984    1.156    0.135
        45 -11.7423      9.1556    175.7435   9.6369515962e+01   3.6637427713e+01    0.1992344    0.1577953 -67.42  0.001418944    1.355    0.262
        46 -12.4539    139.2150    172.4018   6.5774736814e+01   1.8928924784e+01    0.3956785    0.3563552 -79.30 0.0006841616    1.176    0.149
        47  -9.6054    132.8328     52.7797   3.6173186470e+01   4.5254933906e+01    0.1938078    0.1730884 -80.44  0.000352176    1.298    0.230
        48 -10.1937     82.5884     53.2578   5.1071482140e+01   5.5700577521e+01    0.1868061    0.1235061 -28.14 0.0004738985    1.505    0.336
        49 -10.8979     73.2397    250.5246   8.9740307093e+01   1.4138468647e+01    0.1758794   0.08514151  61.65 0.0009590446    1.878    0.468
        50 -10.0425    157.5526    244.0606   7.3234042159e+01   2.2852620090e+00    0.1570264    0.1252819 -48.00 0.0004410575    1.553    0.356
        51 -10.5286     85.8354    239.6132   8.6484261707e+01   1.4320181790e+01    0.1592844    0.1401779 -82.00 0.0006784245    1.307    0.235
        52 -10.5293      9.2839    166.8595   9.5681840182e+01   3.8591204050e+01    0.1606784    0.1057123 -79.55 0.0006766479    1.212    0.175
        53 -10.6552    189.5085     15.0111   1.4357586027e+01   3.5958756075e+01    0.1933513    0.1336837 -31.26 0.0007347194    1.579    0.367
        54 -19.2050     41.0511    146.5391   8.6066781532e+01   4.0322481042e+01     17.00798     6.077316 -74.32     0.066096    2.846    0.649
