#   1 NUMBER                 Running object number                                     
#   2 MAG_AUTO               Kron-like elliptical aperture magnitude                    [mag]
#   3 X_IMAGE                Object position along x                                    [pixel]
#   4 Y_IMAGE                Object position along y                                    [pixel]
#   5 X_WORLD                Barycenter position along world x axis                     [deg]
#   6 Y_WORLD                Barycenter position along world y axis                     [deg]
#   7 A_WORLD                Profile RMS along major axis (world units)                 [deg]
#   8 B_WORLD                Profile RMS along minor axis (world units)                 [deg]
#   9 THETA_WORLD            Position angle (CCW/world-x)                               [deg]
#  10 FWHM_WORLD             FWHM assuming a gaussian core                              [deg]
#  11 ELONGATION             A_IMAGE/B_IMAGE                                           
#  12 ELLIPTICITY            1 - B_IMAGE/A_IMAGE                                       
         1 -14.0229    226.2814      4.5451   3.6318252418e+01   2.8215641992e+01     1.885022     1.008092  52.91  0.005875664    2.153    0.536
         2 -13.9392    183.0830     48.4475   5.2955006775e+01   3.3338761106e+01     1.842965     1.207001  25.85  0.000980745    2.154    0.536
         3 -14.0180    194.2298     39.4015   4.8690002957e+01   3.1807344165e+01     1.314055     1.076204 -40.79  0.003347351    1.211    0.174
         4 -14.5913    202.7725     30.1257   4.5041827084e+01   3.0892637462e+01     1.568257     1.286788  30.55  0.001318833    1.506    0.336
         5 -12.9873     32.5003     13.4722   8.2902170342e+01   6.9452234914e+01    0.4962825    0.2230968 -32.54  0.002588626    1.939    0.484
         6 -12.2164     57.4937      3.5753   6.6947492105e+01   6.7071004565e+01    0.3381098    0.2049776  37.32  0.001973224    1.490    0.329
         7 -10.2705     62.0314    220.6441   1.1793818458e+02   2.0954316488e+01    0.3563078    0.2000486  64.77  0.002015575    1.665    0.400
         8 -12.2053    140.0149    249.7895   1.0600085834e+02   4.4851806542e+00    0.7239911    0.4276335  56.48  0.004085826    1.815    0.449
         9 -12.0161    140.5052    245.4788   1.0538723821e+02   5.0795805553e+00    0.3376091    0.2724015  72.98  0.001786623    1.466    0.318
        10 -13.9477     61.8112    187.5785   1.1470857390e+02   2.7922752212e+01     4.294515     2.281903  16.75   0.01054879    3.747    0.733
        11 -16.1746     53.1990    202.5521   1.1807130165e+02   2.5758328419e+01     8.199583     1.921419  52.25   0.02679949    4.877    0.795
        12 -12.6408    196.4468    198.1373   8.7016252731e+01   3.4791804808e+00     1.175819    0.9736417  83.78  0.006448513    1.963    0.490
        13 -11.6977    108.7412    203.2265   1.0635892024e+02   1.7741669025e+01    0.3659776    0.2199564  45.50  0.001673022    1.493    0.330
        14  -9.4786     96.4201    202.1778   1.0888177792e+02   1.9881845240e+01    0.1827557    0.1191577 -81.85 0.0009491793    1.748    0.428
        15 -12.7587    112.3802    197.4389   1.0475390117e+02   1.8340439492e+01    0.5416857    0.4274738  26.92  0.002783506    1.421    0.297
        16 -18.7237     12.5746    240.7984   1.2811581156e+02   2.2727716632e+01     15.67456     4.989129 -80.86   0.08240847    2.874    0.652
        17 -11.6275    207.4045    194.6445   8.4211171878e+01   2.1428763449e+00    0.3975757    0.2445302 -41.73  0.002030515    1.768    0.434
        18  -9.9206    151.7739    195.6076   9.5842716589e+01   1.1912906191e+01    0.2053331    0.1194733  47.87 0.0009555133    1.673    0.402
        19 -10.1258     81.8261    194.7802   1.1113415023e+02   2.3614226102e+01    0.2602298    0.2169308  54.50  0.001088427    1.118    0.106
        20  -9.3389     77.8181    192.6030   1.1175176796e+02   2.4657214689e+01    0.1816861    0.1032028  51.29 0.0004328738    1.641    0.390
        21  -9.1555     97.0140    190.9926   1.0726106670e+02   2.2156968092e+01    0.1585623    0.1423835  75.45            0    1.025    0.025
        22 -10.8735    107.4355    211.1234   1.0768146633e+02   1.6366133327e+01     0.418947    0.1665409  42.11  0.001822094    2.186    0.542
        23 -10.0615     94.6811    187.4465   1.0729406675e+02   2.3289138331e+01    0.2196892     0.191769 -77.66 0.0002722074    1.134    0.118
        24 -10.7391    175.3419    211.4220   9.3591627624e+01   4.9292871884e+00    0.2751543    0.1087992  29.01 0.0009626584    3.393    0.705
        25  -9.3172     97.2727    184.6002   1.0629502317e+02   2.3509740748e+01    0.1442494   0.09736146  77.67 0.0006983174    1.747    0.428
        26 -10.8922     99.2239    180.7671   1.0527578874e+02   2.4048735430e+01    0.2959223    0.2718647  -0.72 0.0006312129    1.368    0.269
        27 -11.2253    145.3607    180.8797   9.4659297723e+01   1.5998631080e+01    0.3327423    0.2711164 -39.14  0.000996375    1.320    0.243
        28 -11.5486    140.9784    173.7957   9.4347656475e+01   1.8286202142e+01    0.6212456    0.4255759  89.89  0.002390602    2.364    0.577
        29  -9.5543     43.0027    179.3932   1.1801946498e+02   3.2021244610e+01    0.1654732     0.139569  71.82  0.001092445    1.091    0.084
        30 -10.7309    188.4089    175.1344   8.4184856735e+01   8.9617466291e+00    0.5842575    0.2276246 -51.19  0.001945974    3.646    0.726
        31 -10.4203    204.5184    175.8061   8.1058429262e+01   5.8162140864e+00    0.3142231     0.290414  65.68  0.001195001    1.395    0.283
        32 -10.3090    196.6200    175.1924   8.2513562348e+01   7.3978069180e+00    0.3138084    0.2712964  70.75   0.00171761    1.556    0.357
        33 -12.3192     74.2200    173.7293   1.1015248736e+02   2.9394378610e+01    0.4216179    0.2903697 -38.09  0.002163923    1.956    0.489
        34 -12.2369     78.1280    169.0999   1.0856576084e+02   2.9912754907e+01    0.3208782    0.2832779 -41.86  0.001585896    1.347    0.257
        35 -11.3400     47.5741    173.1674   1.1632806653e+02   3.2919762740e+01    0.4641724    0.3455386  46.66  0.002284872    1.362    0.266
        36 -11.2477     53.3577    172.7399   1.1493885009e+02   3.2336539506e+01    0.3355539    0.2359812  81.12  0.000708311    1.346    0.257
        37 -11.7526     54.9622    167.1944   1.1389532735e+02   3.3429679416e+01    0.5825056    0.2655829 -44.12   0.00236909    3.160    0.683
        38 -10.0734    186.9818    165.9972   8.2587375065e+01   1.0939321173e+01    0.3604035    0.1908367 -52.49  0.001444952    2.378    0.579
        39 -10.8119    159.2469    162.4354   8.7900985062e+01   1.7138813441e+01    0.2992176    0.2648956 -66.13 0.0005791711    1.272    0.214
        40 -10.8440    230.5475    166.8693   7.4266740466e+01   2.5914231873e+00    0.3294848    0.1132551 -44.21   0.00115243    3.352    0.702
        41 -12.3126     92.5598    153.4290   1.0243376879e+02   3.1418321885e+01    0.6852686    0.4953135 -20.21  0.002099064    2.082    0.520
        42 -11.5256    133.8574    145.3973   9.0299509919e+01   2.5877437860e+01     1.272914    0.3348235 -54.77  0.003033129    5.666    0.824
        43 -10.3738    188.2136    152.4885   7.9387025886e+01   1.3274152647e+01    0.3453193    0.2283078 -74.85  0.001286639    3.113    0.679
        44 -10.8473    174.4686    148.8194   8.1518036177e+01   1.6833079462e+01    0.3113114    0.2784612  66.11  0.000852682    1.280    0.219
        45 -10.8213    143.5462    145.7419   8.7993600053e+01   2.3864878827e+01    0.3864548    0.1502833 -50.23  0.001306258    2.681    0.627
        46 -10.9674     86.4598    145.4943   1.0259991506e+02   3.4275527023e+01    0.3055769    0.2258463  62.77 0.0006588773    1.472    0.321
        47 -11.1892    105.0431    138.9649   9.6360019562e+01   3.2768302609e+01    0.5678406    0.3589262 -29.36  0.002358754    2.220    0.550
        48 -12.2777     92.7305    138.9725   9.9674848529e+01   3.4851084256e+01    0.2785906    0.2491439 -46.06 0.0004068851    1.149    0.130
        49 -10.9686    105.9412    130.7344   9.4343005945e+01   3.4563039976e+01    0.3840072    0.3166626 -65.80  0.001176508    1.221    0.181
        50 -11.3963    135.7372    127.9088   8.5790811326e+01   2.9440684073e+01    0.6327934    0.1926836 -49.80  0.001842864    3.451    0.710
        51 -10.8751    113.4294    129.7940   9.2098259164e+01   3.3412815030e+01    0.3608107     0.308259   1.86 0.0007091757    1.410    0.291
        52 -10.2864    160.5204    127.6452   7.9665187069e+01   2.4206982340e+01    0.3198841    0.2701173 -66.06  0.001491564    1.347    0.258
        53 -11.7189    119.5606    123.6585   8.8999158854e+01   3.3668402714e+01    0.6658303    0.4088722 -21.94  0.002463903    2.661    0.624
        54 -11.1394    100.7004    125.7710   9.4678116860e+01   3.6671379953e+01    0.2979623    0.2503731 -10.95 0.0008019246    1.451    0.311
        55 -10.0583    109.0285    118.9546   9.0746232421e+01   3.6775176471e+01    0.2197062    0.2135559 -55.85  0.000301139    1.015    0.015
        56  -9.9304    167.5629    112.3897   7.4136938061e+01   2.5801659766e+01    0.3477223      0.24763 -73.79  0.001434575    2.056    0.514
        57 -11.9809    118.4092    110.1784   8.5909663912e+01   3.6982542808e+01    0.6459813     0.495768  65.46  0.002753278    1.584    0.369
        58 -10.2290    205.5020    110.1474   6.5771032869e+01   1.7602210235e+01    0.3128769    0.2172296  39.76 0.0008819833    1.560    0.359
        59 -10.5279    134.6517    104.5560   8.0019068789e+01   3.4833866006e+01    0.5697746    0.1804057 -43.16  0.001719348    3.092    0.677
        60 -11.8254    114.2063    208.1736   1.0586037119e+02   1.5873923800e+01    0.4274765    0.2636011  74.22  0.001892672    2.242    0.554
        61  -9.5484     63.5509     99.1054   9.9675587715e+01   4.8775365596e+01    0.2331771    0.1845155  44.91 0.0007170595    1.437    0.304
        62 -15.6904     11.3884    206.4298   1.2655532326e+02   2.9435102618e+01    0.7593855    0.6278145  31.12  0.004090608    1.631    0.387
        63  -9.5164    102.7921    212.7639   1.0886081984e+02   1.6762912556e+01    0.2167685    0.1522576  59.41 0.0009124355    1.331    0.249
        64  -8.9508    161.6800     89.2775   6.9092699701e+01   3.1759814205e+01    0.1551583     0.124383 -80.32 0.0002708132    1.578    0.366
        65  -9.8691     39.9545     88.6753   1.0516752501e+02   5.3935402454e+01    0.1773057    0.1617883 -43.19 0.0005337449    1.100    0.091
        66  -9.4184    156.5370     81.5145   6.7987374667e+01   3.4458552567e+01    0.1545221    0.1511353  -7.74 0.0003209042    1.020    0.019
        67  -9.4782    184.5100     77.0437   6.0884458715e+01   2.8456136239e+01     0.232639    0.1474729 -34.95 0.0005348881    1.547    0.353
        68  -9.3126     63.3768     69.7669   9.1755725468e+01   5.5401741302e+01     0.198062    0.1134802 -40.90 0.0006972733    1.565    0.361
        69  -9.4095     90.5042    245.4960   1.1479129072e+02   1.2502713479e+01    0.1179017   0.09275539  57.11 -7.647041e-05    1.002    0.002
        70 -10.2795    169.0355    236.1267   9.8671103879e+01   2.0280099814e+00    0.1809654    0.1677466   4.42 0.0004189335    1.174    0.148
        71 -13.9340     74.5191    155.4478   1.0740526720e+02   3.3648646014e+01    0.7407587    0.5841846 -44.64  0.001729865    1.415    0.293
        72 -15.8355     68.3853    144.1336   1.0718545433e+02   3.7222158389e+01     6.424494     3.291935  61.89   0.02574607    2.739    0.635
        73 -11.1503    152.2942     55.4739   6.0888103437e+01   3.9987884228e+01    0.3965197    0.2806392 -78.72 0.0007183584    1.996    0.499
        74 -10.9422    154.7795     49.6399   5.8504326330e+01   4.0264722034e+01    0.3347882    0.2607348 -80.79  0.001046522    1.577    0.366
        75  -9.1326    132.4660     43.5211   6.1351415596e+01   4.6618582283e+01    0.1457843    0.1374516  28.33 3.160954e-05    1.010    0.010
        76  -8.8556    143.2742    209.3258   9.9873364885e+01   1.0815371386e+01    0.1271606    0.1023506  -1.88 0.0002785833    1.583    0.368
        77 -10.0548    189.7403     15.0075   4.2532515245e+01   3.5840341976e+01    0.2351427    0.1841307  73.55 0.0006422353    1.176    0.150
