#   1 NUMBER                 Running object number                                     
#   2 MAG_AUTO               Kron-like elliptical aperture magnitude                    [mag]
#   3 X_IMAGE                Object position along x                                    [pixel]
#   4 Y_IMAGE                Object position along y                                    [pixel]
#   5 X_WORLD                Barycenter position along world x axis                     [deg]
#   6 Y_WORLD                Barycenter position along world y axis                     [deg]
#   7 A_WORLD                Profile RMS along major axis (world units)                 [deg]
#   8 B_WORLD                Profile RMS along minor axis (world units)                 [deg]
#   9 THETA_WORLD            Position angle (CCW/world-x)                               [deg]
#  10 FWHM_WORLD             FWHM assuming a gaussian core                              [deg]
#  11 ELONGATION             A_IMAGE/B_IMAGE                                           
#  12 ELLIPTICITY            1 - B_IMAGE/A_IMAGE                                       
         1 -10.6833    245.8447     13.5659   5.6141116928e+01   2.3679999404e+01      0.59345    0.1902967  63.48  0.002685539    2.892    0.654
         2 -10.7771    249.2092      5.4134   5.4359867198e+01   2.3922551554e+01    0.6098055    0.3032862 -34.88  0.003393353    2.253    0.556
         3 -10.9205    250.0380     19.0499   5.6846955010e+01   2.2142588814e+01    0.8568649    0.1822909 -36.55  0.003158387    4.350    0.770
         4 -10.7010    244.5326     22.5926   5.7990182879e+01   2.2859629981e+01    0.3991922    0.3077419 -69.42  0.001642296    1.060    0.057
         5 -10.7416    239.4143     17.9223   5.7515807094e+01   2.4524209480e+01    0.5717364    0.3350623 -63.79  0.003310866    1.497    0.332
         6  -9.9681    234.3716     19.6903   5.8312006422e+01   2.5400714390e+01    0.3306931    0.2283991  44.10  0.001737714    2.151    0.535
         7 -10.9869    225.0527     22.9629   5.9864789949e+01   2.7059894663e+01    0.5821792    0.3349282 -86.08  0.003094841    1.696    0.410
         8 -10.7445    220.5258     15.4867   5.8730718202e+01   2.8962138592e+01    0.4853712    0.3939442  75.99  0.003210726    1.203    0.169
         9  -9.7491    231.9424      2.8782   5.5180612106e+01   2.7849680780e+01    0.3862362    0.1696148 -85.11  0.001487046    2.410    0.585
        10 -10.4752    238.1452      8.4919   5.5780090399e+01   2.5898017625e+01    0.4212137    0.2508149 -71.64  0.001736905    1.454    0.312
        11 -10.0230    233.0110     10.9486   5.6682371798e+01   2.6724448348e+01    0.2249837    0.2118317  29.76  0.000688445    1.619    0.382
        12  -8.4060    201.6953     11.7132   5.9797474236e+01   3.3680711640e+01    0.1921079     0.157205  56.75 0.0006409829    1.370    0.270
        13  -9.5611     68.4988     10.4811   8.4502524809e+01   6.3011972632e+01     0.205899    0.1558946  -7.33 0.0007187445    1.286    0.222
        14  -9.8966    192.7264     11.3188   6.0681890379e+01   3.5810065239e+01    0.2325666    0.1883901  68.72 0.0006466999    1.172    0.147
        15  -8.9034     58.4997     11.9773   8.8431509875e+01   6.4511784428e+01    0.1612002     0.103812 -21.48 0.0008955396    1.542    0.352
        16 -10.3449    212.8508      8.8397   5.8051118368e+01   3.1434003386e+01    0.4457185     0.269943 -46.61  0.002600358    1.623    0.384
        17  -9.3992    197.9718     10.0795   5.9822228701e+01   3.4717048418e+01    0.2617741    0.1912779 -19.73  0.001561802    1.870    0.465
        18  -9.3582     84.3045     10.3496   7.9780536564e+01   6.0167927284e+01    0.2153854     0.152227 -27.91  0.001025253    1.599    0.374
        19  -9.7043    222.8926      6.4628   5.6644117528e+01   2.9441403172e+01    0.3856858     0.210121  69.28  0.001796967    1.618    0.382
        20  -9.0681    206.4058      6.7185   5.8212507653e+01   3.3124738065e+01    0.2222336    0.1034576 -39.86  0.001134547    2.159    0.537
        21  -9.7764    116.5740      6.3240   7.0746629019e+01   5.3902195522e+01    0.2050187    0.1158122 -28.42 0.0008914105    2.029    0.507
        22  -9.0570    171.4924      5.8981   6.1882718060e+01   4.1334134635e+01    0.1669007    0.1266412 -29.99  0.001028202    1.578    0.366
        23  -9.9284    155.1225     10.2352   6.5266193408e+01   4.4782635470e+01    0.3315906    0.1996163 -15.60  0.001750186    2.209    0.547
        24  -9.2486     60.0985      5.3502   8.5116494648e+01   6.4894326170e+01    0.1949915    0.1379592  41.14 0.0008815214    1.329    0.248
        25 -10.1420     63.7092      2.3229   8.2672007119e+01   6.4560685269e+01    0.2298469    0.1770949  29.17 0.0008964612    1.065    0.061
        26  -8.9044     55.3038      5.3482   8.6748118059e+01   6.5661419505e+01    0.1212335   0.07053151  15.63 0.0007040722    1.695    0.410
        27  -9.8759    240.3821      2.2007   5.4405904549e+01   2.6121710977e+01    0.3009326    0.1687795  81.80  0.001200057    1.509    0.337
        28  -9.0542    190.2928      2.0399   5.8790436896e+01   3.7301563598e+01    0.1682056    0.1481445 -86.94  0.001153991    1.123    0.110
        29  -8.5040    220.5229      2.9950   5.6139577602e+01   3.0335302029e+01    0.2117463    0.1018294 -40.84  0.000707354    2.048    0.512
        30  -8.9239    235.8196    204.1230   9.7328450345e+01  -5.8852733187e+00    0.1873101    0.1798381 -29.73  0.000748524    1.259    0.205
        31  -8.2480    209.3402    250.3284   1.1055239562e+02  -8.8835588522e+00    0.1303057   0.08583292   6.70 0.0007051601    1.737    0.424
        32  -8.4158    198.6605    203.3158   1.0437424934e+02   6.9388111333e-01    0.1364835    0.1129953  79.96 0.0007048099    1.703    0.413
        33  -8.9446    249.7125    201.4533   9.4319127151e+01  -7.6499049698e+00    0.2219173    0.1408971 -43.15   0.00120096    1.627    0.385
        34  -9.3299    218.4423    202.2062   1.0023555080e+02  -2.6389734360e+00    0.1837743    0.1269153 -50.03 0.0009396016    1.669    0.401
        35  -8.8639    193.3147    202.6630   1.0534376548e+02   1.7997081105e+00     0.137898    0.1139682  84.32 0.0006388681    1.695    0.410
        36  -8.3713    160.2496    202.6159   1.1237287048e+02   8.0637191926e+00     0.143327     0.112535  89.82 0.0005089619    1.659    0.397
        37  -8.8424     16.0534    201.7025   1.4378620032e+02   3.0554711039e+01    0.1661833    0.1297104  80.59 0.0008037292    1.064    0.060
        38  -8.6120    203.5722    198.2015   1.0239306042e+02   7.4072069621e-01    0.1974644     0.128795 -29.28 0.0009301443    1.644    0.392
        39  -9.7968    231.0568    195.3255   9.6499664676e+01  -3.6115163493e+00    0.3095221    0.2117835 -30.96  0.001024775    1.384    0.278
        40  -9.3038    184.3450    196.3599   1.0600445483e+02   4.7035926691e+00     0.284051    0.1803478 -46.21  0.001333818    1.638    0.390
        41 -10.1657    248.3539    194.2533   9.3164061013e+01  -6.2713944967e+00    0.3784197    0.3101054  74.67  0.002154673    2.006    0.502
        42 -10.8883    237.8198    190.7767   9.4359235677e+01  -3.9706361253e+00    0.6934567    0.2653399 -45.21    0.0027356    2.717    0.632
        43  -8.8908    223.6771    191.3495   9.7100055684e+01  -1.6369802214e+00    0.1329917    0.1115752 -80.10 0.0007048864    1.747    0.428
        44  -8.9542    223.3053    188.2936   9.6559376708e+01  -1.0232505979e+00    0.1392817    0.1027481  -1.16 0.0002321009    1.579    0.367
        45  -8.7373    193.5202    188.4803   1.0252703566e+02   4.4896458949e+00    0.1435412    0.1374627   6.11 0.0002576799    1.004    0.004
        46  -9.3311    249.8929    185.2942   9.1133103041e+01  -5.0299280024e+00    0.3011151    0.1981359 -53.93  0.001543121    1.925    0.480
        47  -9.4851    224.8520    184.8051   9.5562622063e+01  -6.6972489691e-01    0.2661024    0.1982335 -44.35 0.0009850308    1.357    0.263
        48 -10.5803    227.1833    179.8249   9.4110640608e+01  -1.8474688758e-01    0.4317527    0.2981845  42.27  0.001869861    1.532    0.347
        49  -9.0733    106.3347    184.6717   1.2157469887e+02   2.2135596241e+01    0.1566784     0.107661  74.98 0.0007051886    1.723    0.419
        50  -8.5556    242.3342    182.3045   9.1858400017e+01  -3.2710169004e+00    0.4666806    0.2626061   0.42  0.001645175    4.067    0.754
        51 -10.6114    241.5151    179.4917   9.1436191409e+01  -2.6429818966e+00    0.5675325    0.2764128  26.48  0.002236845    3.078    0.675
        52  -9.8039    157.6664    179.1612   1.0846701878e+02   1.3569766990e+01    0.3395657    0.2287044 -35.74  0.001405492    1.682    0.405
        53  -8.8329    219.3085    178.8462   9.5399569906e+01   1.4379333099e+00    0.2377301    0.1906681  51.73 0.0009792013    1.412    0.292
        54  -8.6884    152.2715    178.3705   1.0954582486e+02   1.4833809457e+01    0.2087032    0.1383763  51.49 0.0004064277    1.532    0.347
        55  -8.7356    197.6999    177.3396   9.9383069736e+01   5.8786162659e+00    0.1454509    0.1182547 -83.69 0.0007035896    1.666    0.400
        56  -9.6478    233.5534    174.7273   9.1891005037e+01  -4.0445699593e-01    0.3154196    0.2353559 -51.51  0.001418736    1.462    0.316
        57 -10.0113    225.0587    172.2168   9.2935033605e+01   1.6054127357e+00    0.4869414    0.2544147 -47.88  0.002112247    1.975    0.494
        58  -8.3602      8.6797    172.6684   1.4279870640e+02   3.7800489837e+01    0.1195727   0.07685559 -52.32 0.0007048916    1.695    0.410
        59  -8.8709    237.5036    170.0762   9.0221558201e+01  -2.7065081265e-01    0.2137697    0.1251688 -40.72 0.0008270117    1.567    0.362
        60 -10.3533    212.4562    169.2779   9.4724218928e+01   4.5652673966e+00    0.4968328    0.2163274 -43.90  0.001603676    2.218    0.549
        61  -8.8374    169.8046    168.9940   1.0361603893e+02   1.3300984244e+01    0.2119025    0.1193374 -46.39 0.0007280986    1.784    0.439
        62  -9.6991    147.1828    168.2948   1.0868002629e+02   1.8139352643e+01    0.2707764    0.2421484 -67.55 0.0004512779    1.140    0.123
        63  -8.5600    249.5164    167.5478   8.7621614573e+01  -1.9212143549e+00    0.1342755    0.1188888 -32.03 0.0002623446    1.054    0.052
        64  -9.8601    193.0687    166.1783   9.7975745858e+01   9.0726582040e+00    0.3782163    0.2217034 -40.62  0.001631527    1.690    0.408
        65  -8.9585    234.2365    165.0330   8.9753650796e+01   1.2385284861e+00    0.2259698    0.1540611 -61.58  0.001069989    1.945    0.486
        66 -10.1553    246.8564    158.5095   8.6205468170e+01   1.4181460301e-01    0.4901181    0.2386437  44.26  0.002200855    2.296    0.565
        67  -8.6325     51.4981    159.5169   1.3108268900e+02   3.6525767234e+01     0.138003    0.1161385 -85.66 0.0008096695    1.062    0.059
        68  -9.6778    229.9190    148.4154   8.6979008005e+01   5.1568492346e+00    0.2836979    0.1863333 -53.71  0.001178703    1.609    0.378
        69  -9.0541    234.8900    147.8919   8.5996916628e+01   4.2932931454e+00    0.2732552    0.2042805 -30.33  0.001431799    1.302    0.232
        70  -9.0430    226.3918    157.1239   8.9491998489e+01   4.1920930172e+00     0.330956    0.2334381   1.71  0.001385691    2.039    0.509
        71  -9.2130    233.0286    152.7886   8.7372675698e+01   3.7347783712e+00    0.3027254    0.2236324 -21.76  0.001220007    1.470    0.320
        72  -9.2694    228.9987    152.7129   8.8071693234e+01   4.5233211579e+00    0.3080245    0.2583868 -28.45  0.001123928    1.147    0.128
        73  -9.8626    249.9001    151.2416   8.4189314252e+01   8.9901769929e-01    0.4694888    0.2118011 -47.52  0.001981564    2.156    0.536
        74  -9.6429    242.8125    153.3324   8.5802142236e+01   1.8049887797e+00    0.3032517    0.2828971 -24.19  0.001330112    1.059    0.056
        75 -10.9219    244.2919    148.9286   8.4625498199e+01   2.3340018525e+00    0.6066216    0.3611535 -42.88  0.002056263    1.501    0.334
        76  -9.3738    221.8057    153.4136   8.9532122200e+01   5.7979903089e+00    0.2834896    0.2246832 -67.40 0.0008414494    1.517    0.341
        77  -9.7325    213.4741    164.3223   9.3468902503e+01   5.3295658170e+00    0.2941405    0.2663488  43.50  0.001642952    1.168    0.144
        78  -8.8536    118.5023    153.5069   1.1263611490e+02   2.7347334014e+01    0.1552168    0.1458468 -88.15 -0.000153462    1.034    0.033
        79  -9.6598    197.0017    149.2863   9.3432405374e+01   1.1730831003e+01    0.2929718    0.1929548 -30.56  0.001285398    1.677    0.404
        80 -10.0894    224.0839    146.2590   8.7552130303e+01   6.7212907094e+00    0.3714673    0.3184748 -20.18  0.002029656    1.220    0.180
        81  -8.0222    174.6764    148.3434   9.7963631406e+01   1.6758164165e+01    0.1624494    0.1241445 -85.72  0.000705057    1.733    0.423
        82  -8.9713    111.9153    147.3234   1.1302373467e+02   3.0089625304e+01    0.2139299    0.2007448  54.71 0.0007828504    1.090    0.082
        83 -10.2712    230.6649    141.2759   8.5294502436e+01   6.3600364457e+00    0.3811965    0.2277244 -46.71  0.001079962    1.565    0.361
        84  -9.4774    249.9155    140.4647   8.1928033049e+01   2.8290454785e+00     0.277574    0.2312906  35.47  0.001209973    1.387    0.279
        85 -10.0414    249.0504    135.4904   8.1013973904e+01   3.8850418852e+00     0.382776    0.2445276 -48.19  0.001155918    1.432    0.302
        86 -10.2930    248.8861    130.8391   8.0053303699e+01   4.7542377395e+00     0.341713    0.2657475 -85.08  0.001711696    1.650    0.394
        87  -9.8332    225.3241    138.3148   8.5578611614e+01   7.9956207693e+00    0.4768463    0.2020346 -33.19  0.001698816    2.732    0.634
        88  -9.7273    218.7845    138.7832   8.6857307266e+01   9.2478459976e+00     0.296822    0.2065254  62.37  0.001169932    1.701    0.412
        89  -9.2479    209.7058    138.0483   8.8381068249e+01   1.1300352993e+01    0.2233866    0.1887867 -43.20   0.00116265    1.117    0.105
        90 -10.8356    242.1816    133.7023   8.1723505507e+01   5.5157517605e+00    0.4851949    0.3283484 -50.71  0.002478061    1.399    0.285
        91  -9.0164     52.9722    135.9677   1.2684830288e+02   4.2070252772e+01     0.163543    0.1475268 -68.35 0.0005229689    1.039    0.037
        92  -9.7967    233.8390    134.8804   8.3353220807e+01   6.9333006075e+00    0.2718437    0.1580011 -34.16  0.001134074    1.706    0.414
        93  -9.4282    169.8836    134.6231   9.5816753791e+01   2.0802083227e+01    0.2491512     0.215696 -31.66 0.0004949919    1.221    0.181
        94  -9.0450    140.3509    135.2547   1.0296697657e+02   2.7181449262e+01    0.1551091    0.1261374   8.09 0.0003236152    1.599    0.375
        95  -8.9888     86.9822    130.5766   1.1616184359e+02   3.8532907442e+01    0.3454457    0.2008141  86.28  0.001094266    4.093    0.756
        96  -9.2563    221.4997    129.8384   8.4359774744e+01   1.0413648487e+01    0.2882739    0.1984374  75.20   0.00128623    1.967    0.492
        97  -9.7276    189.2918    123.4491   8.8970308387e+01   1.8761311120e+01    0.4126731    0.2523192 -42.23  0.001770218    1.591    0.371
        98  -9.3002    206.1996    126.9017   8.6478169537e+01   1.4277463291e+01    0.2333802    0.1938084 -64.65  0.000567713    1.250    0.200
        99  -8.8370    114.1005    126.8838   1.0777910828e+02   3.4524316456e+01    0.2300582    0.2046436 -88.43   0.00042106    1.215    0.177
       100 -10.5669    241.3383    124.6625   7.9905080726e+01   7.3362064388e+00    0.3833458    0.3589443  84.63   0.00214354    1.164    0.141
       101  -9.2835    244.2832    119.7255   7.8381103642e+01   7.6509763220e+00     0.291751    0.2040359 -76.50  0.001432678    1.867    0.464
       102  -9.4054    229.0359    125.4797   8.2085098686e+01   9.6736953319e+00    0.3231552    0.2716162  31.21  0.001753927    1.413    0.292
       103  -9.6748    212.5135    124.5828   8.4770247105e+01   1.3353163937e+01    0.3464719    0.2808238   5.37  0.001709564    1.654    0.396
       104  -9.0509    161.4122    124.4218   9.5253833114e+01   2.4929422548e+01    0.2607578    0.2350675 -88.57 0.0004978681    1.174    0.148
       105  -9.2182    221.2826    121.0064   8.2396678776e+01   1.2151097739e+01    0.2121977    0.1803339 -46.86 0.0006562659    1.086    0.079
       106  -8.2070    125.0039    119.9883   1.0315245993e+02   3.3906447471e+01    0.1817389    0.1748308  52.86 0.0003443253    1.057    0.054
       107 -10.5872    230.4195    116.2584   7.9798121044e+01   1.1108870283e+01      0.54217    0.3520146  53.10  0.002650334    1.679    0.404
       108  -9.6428    217.4854    115.4974   8.1790059542e+01   1.4020270533e+01    0.4889469    0.1492519  54.07  0.001554469    3.594    0.722
       109  -9.6932    249.3357     98.6528   7.3132146321e+01   1.0368688721e+01      0.39408    0.2196172 -59.60  0.001408545    1.932    0.483
       110 -10.0114    245.3466     98.5501   7.3659643692e+01   1.1195488626e+01    0.4001548    0.1969105 -41.50  0.001683054    1.805    0.446
       111 -10.8134    248.1418    112.5304   7.6260806351e+01   8.1771900070e+00    0.5245094    0.3701319 -38.93  0.002813885    1.303    0.233
       112 -10.9597    248.6224    105.5617   7.4703007387e+01   9.3106312658e+00    0.6753539    0.3007478 -44.47  0.002925426    1.941    0.485
       113 -11.4135    241.7022    104.9703   7.5568722879e+01   1.0815283428e+01     1.473941    0.2889738 -47.26  0.003824065    5.364    0.814
       114  -8.8575    182.7965    116.3755   8.8575108646e+01   2.1698106625e+01    0.2243508    0.1433798  41.37 0.0009270777    1.717    0.418
       115 -10.0019    104.5748    111.4489   1.0657036507e+02   3.9887129565e+01    0.4139111    0.2559291 -45.94  0.001343519    1.559    0.359
       116  -9.6134     15.1683    112.0031   1.3361455638e+02   5.1343843865e+01    0.1845926    0.1690549 -51.31 0.0004859456    1.159    0.137
       117 -10.0230    213.2921    115.8959   8.2615890973e+01   1.4864686630e+01    0.4017899    0.2477119  33.49  0.001167827    2.253    0.556
       118  -9.2758    215.5162    107.9975   8.0389575401e+01   1.5871387506e+01    0.2793331    0.2080842  80.78  0.001087971    1.570    0.363
       119  -8.6688     52.3796    113.2443   1.2258185755e+02   4.7529609481e+01    0.1867165    0.1188153 -66.39 0.0004730737    1.554    0.357
       120  -8.7120    196.0595    103.5106   8.2791016397e+01   2.1157924008e+01    0.2253006    0.1488887  57.04 0.0007152918    1.552    0.356
       121  -8.8108    235.4886    102.0481   7.5845286564e+01   1.2627741385e+01    0.2202319    0.1263308 -43.08  0.001023776    1.568    0.362
       122  -9.0024    221.1135    100.4399   7.7710612727e+01   1.6026251300e+01    0.2515763    0.1617143 -48.88 0.0009526251    1.441    0.306
       123  -8.4756    210.5013    101.4439   7.9707285758e+01   1.8222745104e+01    0.1469925    0.1373067 -66.66 0.0003743568    1.025    0.024
       124  -8.7708    167.9882    100.7686   8.7739264051e+01   2.8310957257e+01    0.2134951    0.1276918  52.22 0.0008874455    1.670    0.401
       125  -9.0173    236.3115     98.1836   7.4869347523e+01   1.3138866332e+01    0.2341413    0.1798036  78.76   0.00118446    1.421    0.296
       126  -8.5848    196.2448     98.2369   8.1461145444e+01   2.2114888812e+01    0.2389812     0.124119  67.21 0.0008887006    2.439    0.590
       127  -9.8665    130.3395     98.0021   9.5922887278e+01   3.7515931581e+01    0.2720051    0.2212708  36.10 0.0005431593    1.275    0.216
       128  -9.9349    230.9096     94.3004   7.4801267812e+01   1.4978804313e+01    0.3781875    0.2414426 -43.79  0.001241038    1.430    0.301
       129  -8.4756    216.2918     94.6138   7.7135953439e+01   1.8159469336e+01    0.1574541     0.103538 -67.98 0.0007013583    1.762    0.432
       130  -9.5147    243.0203     93.1669   7.2821012388e+01   1.2605221491e+01    0.2919181    0.2275695  66.79 0.0009640292    1.379    0.275
       131  -9.9133    237.5801     84.2734   7.1631575950e+01   1.5268342519e+01    0.3966392    0.2308317 -71.39  0.001757437    2.198    0.545
       132 -10.7152    235.9484     73.3934   6.9470738269e+01   1.7420013280e+01    0.8765244    0.3498937 -44.26  0.003655926    2.211    0.548
       133 -10.1800    237.5362     89.9289   7.2876895106e+01   1.4315393657e+01    0.3893528     0.267107  74.60  0.001243037    1.610    0.379
       134  -9.7215    232.0701     83.5967   7.2242986971e+01   1.6574391601e+01    0.5709693    0.2905204 -60.32  0.002376856    2.291    0.564
       135 -10.7394    246.2410     87.2853   7.1124628616e+01   1.2937441964e+01    0.6273309    0.3249157  46.13   0.00281463    2.516    0.602
       136 -11.4535    244.4051     79.9845   6.9804253544e+01   1.4535245877e+01    0.9518762    0.5733144 -70.25  0.004586744    1.908    0.476
       137  -8.6300    171.6843     91.6759   8.4574007296e+01   2.9186894214e+01    0.1524214    0.1227576  14.19  0.000704288    1.666    0.400
       138  -9.8997    218.5311     90.4652   7.5813004762e+01   1.8393739940e+01    0.1451766    0.1301644 -68.21 0.0001277608    1.006    0.006
       139  -9.5472    226.1519     86.2733   7.3693715457e+01   1.7419803847e+01    0.3477022    0.1995937 -38.94    0.0010438    1.689    0.408
       140  -8.6586    165.2881     87.6685   8.4846599770e+01   3.1467513978e+01    0.1561728     0.116738 -75.33  0.000454779    1.622    0.384
       141  -9.1336    117.1312     84.8919   9.5709770702e+01   4.2952246766e+01     0.228622    0.2068375 -83.13  0.001226509    1.282    0.220
       142  -8.2917    205.7312     83.3965   7.6190427914e+01   2.2579657659e+01    0.1568862    0.1027116 -66.60 0.0004369763    1.729    0.422
       143  -8.5841    134.8140     83.5699   9.0711081495e+01   3.9355275180e+01    0.2050568    0.1426096  63.09 0.0009262664    1.614    0.381
       144  -9.1295    196.0116     79.0273   7.6745313133e+01   2.5633727445e+01    0.5108137    0.2073886 -56.95  0.001573684    3.802    0.737
       145  -8.6132    131.4982     79.5089   9.0363683479e+01   4.0851665003e+01    0.1474026     0.142855  30.47  0.000134968    1.022    0.021
       146  -9.4336    119.2747     79.0171   9.3395990975e+01   4.3610347592e+01    0.2118625    0.1938801 -31.00  0.001165275    1.103    0.093
       147  -9.4978    175.5165     77.5051   8.0069008414e+01   3.0830529620e+01    0.3432962    0.2144982 -75.21  0.001371729    2.357    0.576
       148  -8.8167    126.4801     76.9822   9.0896620624e+01   4.2423934026e+01    0.2205493    0.1449156 -39.74 0.0008217173    1.555    0.357
       149  -9.6478    226.1700     74.5391   7.1036039111e+01   1.9391557068e+01    0.3525176    0.3253307  16.67  0.002083404    1.464    0.317
       150  -9.6462    213.8671     75.8349   7.3111024202e+01   2.1977589878e+01    0.2959241    0.1892762  50.66  0.001425752    1.711    0.416
       151  -8.7234    230.4693     72.0685   6.9899277559e+01   1.8837031552e+01    0.2072703     0.124006 -43.27 0.0009430801    1.551    0.355
       152  -9.0717    250.1143     71.0401   6.7219871871e+01   1.4788899628e+01    0.1862318    0.1768191 -50.28   0.00120854    1.278    0.218
       153  -8.5271      5.7119     70.3391   1.2873563682e+02   6.0876800774e+01    0.1038557   0.08484577  88.65 0.0007020571    1.639    0.390
       154  -8.9466    241.1831     69.3317   6.7932959550e+01   1.6941440581e+01    0.3501293     0.146605  58.85  0.001514914    2.472    0.596
       155 -10.8126    225.6739     66.6097   6.9319135443e+01   2.0782769589e+01    0.5630624    0.3773836  89.89  0.002876379    1.607    0.378
       156  -9.1002    221.3587     61.2382   6.8680451680e+01   2.2601821062e+01    0.2676977    0.1463397 -48.81 0.0007821122    1.699    0.412
       157  -9.8899    249.9158     65.7373   6.6144309077e+01   1.5661487912e+01    0.3152442    0.1865151 -54.45  0.001017081    1.479    0.324
       158  -9.2162    238.6560     65.1337   6.7343445662e+01   1.8146332866e+01    0.2381278    0.1836818 -28.61  0.001335546    1.600    0.375
       159  -8.8432    154.0066     66.4989   8.1390609108e+01   3.7872955848e+01    0.2077857     0.127786  82.83 0.0006449229    2.481    0.597
       160  -8.7436    158.4985     61.9816   7.9189748042e+01   3.7518699078e+01    0.2143249    0.1439977 -37.25 0.0007337427    1.570    0.363
       161  -8.6802     43.5676     62.5310   1.1257054599e+02   5.9200349794e+01    0.1250543    0.1042115 -25.36 0.0001095323    1.014    0.013
       162  -9.3151    234.8649     60.1028   6.6720432290e+01   1.9750315265e+01    0.2688531    0.1851511  77.75 0.0008126879    1.433    0.302
       163  -9.3953    171.4265     59.4636   7.6019836661e+01   3.4779155563e+01     0.323801    0.2289246  65.56  0.001284925    1.350    0.259
       164  -8.5695    197.7572     63.9738   7.2730796891e+01   2.7702746014e+01    0.1820001      0.11786 -39.49 0.0008749197    1.573    0.364
       165  -8.7487    227.2457     60.8444   6.7827667935e+01   2.1329348509e+01     0.252617    0.1225317 -67.85 0.0009645738    2.915    0.657
       166  -8.7211    206.5149     59.5107   7.0331362158e+01   2.6315924171e+01    0.1409021    0.1245271 -81.97 8.516146e-05    1.003    0.003
       167  -9.2717    126.5851     58.7225   8.5334772475e+01   4.5474442967e+01    0.1880323    0.1331893 -46.39 0.0005787269    1.551    0.355
       168  -9.5879    213.8145     57.5849   6.8855697074e+01   2.4899418231e+01    0.3744284    0.2301124  61.03  0.001613669    1.597    0.374
       169  -8.6471     99.3640     57.3100   9.2173260432e+01   5.1412963783e+01    0.1457854    0.1010734  13.32 0.0007039352    1.751    0.429
       170  -9.4359    250.3794     54.6773   6.3827413813e+01   1.7241508235e+01     0.287403    0.1467269 -45.03  0.001452573    1.710    0.415
       171 -10.8416    198.9048     47.0134   6.8413728893e+01   2.9965050013e+01    0.5075643    0.1915688 -39.72  0.002039745    2.568    0.611
       172 -11.1154    200.0402     54.4154   7.0045824457e+01   2.8621953969e+01    0.5649557    0.3987772   1.12  0.002579683    2.588    0.614
       173  -9.9869    131.7432     55.4947   8.3102990852e+01   4.4806159744e+01    0.2946996    0.1577719 -47.05  0.001268896    2.151    0.535
       174  -9.9284    236.5065     53.8949   6.5195585195e+01   2.0324305653e+01    0.7373196    0.2530021  66.39  0.002911841    2.981    0.665
       175 -10.6917    228.5735     51.9947   6.5714805357e+01   2.2361440318e+01     0.437323    0.4044491  84.27  0.002169364    1.205    0.170
       176  -9.9655    249.8625     46.3452   6.2198306862e+01   1.8559064454e+01    0.5927348    0.2204253 -40.66  0.002636275    2.401    0.583
       177 -10.6540    244.1201     42.0681   6.1912351924e+01   2.0376213904e+01    0.3989726    0.2958063 -50.29  0.001550524    1.257    0.205
       178  -8.8810    207.1724     54.1700   6.8969715673e+01   2.6967019938e+01    0.2548339    0.1844104  46.42 0.0009826233    1.637    0.389
       179  -9.2930    163.1147     53.3424   7.5883074038e+01   3.7714965030e+01    0.2723623    0.2023492 -49.38 0.0009393904    1.416    0.294
       180  -8.7274    221.7466     53.4224   6.6867822220e+01   2.3695087201e+01    0.1793043    0.1189125  59.43 0.0006715918    1.547    0.354
       181  -8.4831    158.2928     48.6360   7.5474556808e+01   3.9554384705e+01    0.1461919     0.103933 -71.00 0.0007028618    1.707    0.414
       182  -8.2787    145.6657     48.6929   7.7986234345e+01   4.2561269838e+01    0.1453651    0.1031135  29.97 0.0007040835    1.670    0.401
       183  -9.1889    162.4289     46.4993   7.4112171554e+01   3.8853709340e+01    0.2834276    0.1810154 -84.25   0.00105147    2.123    0.529
       184  -8.8827    113.3587     46.7437   8.4856445461e+01   5.0130957463e+01    0.1832685    0.1273677 -17.75  0.000351223    1.637    0.389
       185  -8.8266    219.5056     42.9782   6.4806689003e+01   2.5705590992e+01    0.2689294     0.179937 -48.41   0.00095091    1.416    0.294
       186  -9.8307    216.0992     41.2495   6.4827443240e+01   2.6727288649e+01      0.57005    0.3215064 -21.41  0.002537076    2.816    0.645
       187  -9.1138    123.9775     45.9875   8.1977654026e+01   4.7923484697e+01    0.2169214    0.1970613  45.52  0.000866232    1.024    0.023
       188  -8.6121    238.4371     45.0595   6.3118869973e+01   2.1181704225e+01    0.1983232    0.1516053  88.11  0.001124598    1.182    0.154
       189 -10.4437    244.5362     51.4725   6.3795194152e+01   1.8945749400e+01    0.4329756    0.2707224 -79.53  0.001702937    1.630    0.387
       190 -10.4284    190.4032     43.3781   6.8738311305e+01   3.2507779323e+01     0.404693    0.3173022  -5.22  0.002171241    1.852    0.460
       191  -8.4471     76.5326     44.4130   9.4809538994e+01   5.7543412596e+01    0.1280901    0.1113093   8.89 0.0003109066    1.017    0.017
       192  -8.8840    183.5982     43.2720   6.9726736457e+01   3.4164380656e+01    0.1756718     0.136883 -21.07 0.0008889014    1.615    0.381
       193 -10.2004    174.9144     41.1000   7.0521639141e+01   3.6558870939e+01    0.6156836    0.3190532  79.86  0.002536522    2.405    0.584
       194  -8.9481    134.3351     42.6587   7.8575273045e+01   4.6027436938e+01    0.2078825    0.1592601 -77.34 0.0008447978    1.684    0.406
       195  -9.1142    115.5136     42.4941   8.2918918988e+01   5.0250735458e+01    0.1351098     0.123039  36.72 0.0008104687    1.014    0.014
       196  -9.8403    203.5034     31.5478   6.4135951564e+01   3.0942917743e+01    0.2385425    0.2005362  52.88 0.0009276649    1.370    0.270
       197 -10.6408    201.0055     39.4281   6.6307211514e+01   3.0507819397e+01    0.3299149    0.1956676 -35.28  0.001464808    1.825    0.452
       198  -9.8646    165.4913     40.0041   7.1785102219e+01   3.8984131856e+01    0.2683283    0.2030617 -77.69 0.0008212952    1.452    0.311
       199  -9.5461    162.0430     38.2826   7.1903924763e+01   4.0038419615e+01    0.2828974     0.221814  16.36  0.001030799    1.686    0.407
       200  -9.9368    238.4515     38.3040   6.1716303960e+01   2.2116134546e+01    0.2763347     0.201917  84.58 0.0009943596    1.237    0.192
       201 -10.6096    185.6877     37.1012   6.7851128239e+01   3.4478211804e+01     0.446164    0.2593237 -42.17  0.002004409    1.766    0.434
       202  -9.2745     61.1422     38.2252   9.7826362535e+01   6.0890103776e+01    0.2565288    0.1599114 -36.08 0.0009839445    1.605    0.377
       203  -9.9861    242.1927     33.6724   6.0402246341e+01   2.1931386812e+01    0.3265066    0.1821287 -44.98  0.001785399    1.638    0.390
       204  -9.0691    186.9783    247.2763   1.1437993240e+02  -4.8423245402e+00    0.1830298    0.1460983  31.02 0.0006736437    1.072    0.068
       205  -9.1713    240.0856    240.7850   1.0323736040e+02  -1.2113307675e+01    0.2414392    0.1538222  43.59  0.001395262    1.822    0.451
       206  -8.3672    215.0000    240.9290   1.0792035048e+02  -8.3764892708e+00    0.1903759   0.06966338 -40.51 0.0008016549    2.937    0.660
       207 -11.0250    248.2665     33.0470   5.9707249840e+01   2.0724047105e+01    0.7102622    0.3395871 -55.33  0.003637635    1.847    0.459
       208  -8.7066    246.5120    240.5381   1.0204045297e+02  -1.2984871011e+01      0.12058   0.09722162   3.42 0.0001474341    1.011    0.011
       209  -9.4538    225.2012    243.3364   1.0640790896e+02  -1.0293168834e+01    0.2462494    0.2415126 -78.92   0.00173358    1.510    0.338
       210  -9.3063    230.8721    237.0035   1.0426709941e+02  -1.0227917724e+01     0.237245    0.1592062 -31.82 0.0009435122    1.499    0.333
       211  -9.4270    236.8143     31.2408   6.0428673635e+01   2.3414542717e+01    0.2249306     0.204137 -88.06  0.001298096    1.238    0.192
       212 -10.1633    205.9028    235.9725   1.0882768243e+02  -6.1610466501e+00     0.324586    0.3118694  35.06  0.002176638    1.255    0.203
       213  -9.5355    226.3863     17.7176   5.8642597405e+01   2.7393220570e+01    0.2632492    0.1115041 -48.88 0.0009403505    2.149    0.535
       214  -9.3223    219.9837    235.4677   1.0603874154e+02  -8.3328909047e+00    0.1946749    0.1120244  35.53  0.000752051    1.592    0.372
       215 -10.0932    227.2739     33.1647   6.1797178246e+01   2.5270028140e+01    0.5742525     0.285427 -42.99  0.002891829    1.889    0.471
       216  -9.0034    231.9119     32.5925   6.1196413231e+01   2.4313413350e+01     0.368265    0.1688587  85.62  0.001214831    2.551    0.608
       217  -9.0464    190.6008     34.2579   6.6453267160e+01   3.3662834264e+01     0.167939    0.1331806 -19.86 0.0009457583    1.633    0.388
       218  -9.3814    221.6291     31.2930   6.1996743999e+01   2.6785283851e+01    0.2781418    0.2046381 -60.70  0.001668087    1.227    0.185
       219 -10.4443    214.5527     30.7502   6.2657392570e+01   2.8472137482e+01    0.5160555    0.2912039  59.37  0.002678769    1.742    0.426
       220  -9.5235    170.2194     30.5906   6.8478892117e+01   3.9018883602e+01    0.3598875    0.1936875 -12.61  0.001483944    3.223    0.690
       221 -10.3975    200.9306     27.6495   6.3540418991e+01   3.2032661599e+01    0.5323566    0.2798938 -19.97  0.002116355    3.034    0.670
       222  -9.0146    205.5496     24.8092   6.2341838619e+01   3.1295045767e+01    0.4012707    0.1670276 -59.32  0.001618128    2.939    0.660
       223  -9.2015    174.3556     27.1826   6.6960981968e+01   3.8426432758e+01    0.3308078    0.1359026 -40.77  0.001428856    2.506    0.601
       224  -9.6292    142.3831     25.7836   7.1842977944e+01   4.6198443368e+01    0.2659836    0.1436193 -44.33  0.001258004    2.127    0.530
       225  -8.5782    145.4083     25.1675   7.1108069576e+01   4.5557385738e+01    0.1827492    0.1727947 -88.89 0.0008084967    1.121    0.108
       226  -9.9848    118.4094     24.3910   7.6289595016e+01   5.1794469848e+01    0.3724517     0.194715 -38.57  0.001824157    2.184    0.542
       227  -8.9422    110.3310     26.3282   7.8809348310e+01   5.3329608025e+01    0.2917345    0.1557036  60.60  0.001404459    1.904    0.475
       228  -9.6087     26.0000     25.9758   1.0698542729e+02   6.7046456853e+01    0.1767202   0.05454028 -41.76 0.0008008287    2.931    0.659
       229  -8.9430    132.3356     24.8402   7.3491163824e+01   4.8624401319e+01    0.2464799    0.1057178 -37.55  0.001080766    2.567    0.610
       230  -8.7627    128.3153     25.3315   7.4462296888e+01   4.9485581762e+01    0.1381002   0.08984242  31.81 0.0007046077    1.683    0.406
       231  -8.4372     40.7090     22.3166   9.9388658739e+01   6.5861478899e+01   0.09547234    0.0911435 -26.11 0.0007006541    1.597    0.374
       232  -8.0597    209.6805     21.6061   6.1159976667e+01   3.0718750716e+01    0.1251163    0.0933297  39.16 0.0007002251    1.866    0.464
       233  -8.8378    199.5196     20.9467   6.2148203339e+01   3.3160265522e+01    0.1773026    0.1237069 -39.38 0.0006391593    1.551    0.355
       234  -9.8353    174.6615     20.2277   6.5119979996e+01   3.9137253472e+01    0.4031628    0.1677442  71.49  0.001709384    2.276    0.561
       235  -8.2277    151.2907     19.6446   6.8498347391e+01   4.4760146462e+01    0.1322962   0.09333763 -70.35 0.0005061221    1.682    0.405
       236  -9.1976     61.6156     18.8027   9.0143455538e+01   6.3288613905e+01    0.1556927     0.102947 -33.56 0.0009508442    1.686    0.407
       237  -8.5946     67.8529     18.1453   8.7780537864e+01   6.2342061233e+01    0.1682812    0.1178666  15.47 0.0005930089    1.307    0.235
       238  -8.9657    238.6158    232.1597   1.0199410185e+02  -1.0673330891e+01    0.2675941    0.1393856  50.02  0.001240334    2.845    0.648
       239 -10.4161    229.5163    226.9581   1.0274333561e+02  -8.5210998045e+00    0.5491945    0.1926532 -40.51  0.002287754    2.914    0.657
       240  -9.3001    230.6003     15.7564   5.7855801689e+01   2.6694260918e+01    0.2453737    0.1862831 -70.12   0.00113268    1.103    0.093
       241  -8.8443    163.8248    228.6324   1.1607247115e+02   2.3267321916e+00    0.2039099     0.113092  48.71 0.0006169772    1.749    0.428
       242  -9.6288    199.9583     15.4588   6.0834901996e+01   3.3676847091e+01    0.2737117    0.1932595 -86.71  0.001042254    1.262    0.208
       243  -9.0593     99.3090    226.1393   1.2925935357e+02   1.4037741645e+01    0.1878527    0.1537617  77.74 0.0008254661    1.128    0.113
       244  -8.4200    187.2883     16.7052   6.2599172639e+01   3.6516751001e+01    0.1300994     0.086049 -73.05 0.0002957844    1.549    0.354
       245  -8.9269    162.6069     15.3387   6.5549833696e+01   4.2520663772e+01    0.1977896    0.1368352 -73.89  0.001086027    1.613    0.380
       246  -8.2524    207.3955     14.2549   5.9769676339e+01   3.2087786707e+01    0.1250265   0.08333867  52.48 0.0006958746    1.695    0.410
       247  -8.5325    173.4794     14.5011   6.3813618543e+01   4.0024137268e+01    0.1299246    0.1094052  74.61 4.015072e-05    1.031    0.030
       248  -8.9017    105.5108     14.5372   7.5916492893e+01   5.5547209498e+01    0.1246707    0.1071761  43.47 0.0004164335    1.042    0.040
       249  -9.6053    208.9396    223.6287   1.0607909729e+02  -4.6673255764e+00    0.3271997    0.1870096  28.09  0.001600821    1.771    0.435
       250  -8.2913    156.3332    223.3078   1.1677560055e+02   4.6741183877e+00    0.1376904    0.1071116   5.50 0.0007041006    1.669    0.401
       251 -10.2768    238.7217    220.3597   9.9845283605e+01  -8.9260280420e+00    0.3558314    0.2703375 -51.36  0.001449317    1.763    0.433
       252  -9.5973    194.1837    220.2696   1.0841284090e+02  -1.5601948056e+00    0.3008448    0.2416074  55.22  0.001695477    1.442    0.306
       253  -9.0116    248.0786    227.5883   9.9472621500e+01  -1.1386451634e+01    0.1939811     0.154391 -31.09 0.0006147841    1.315    0.239
       254  -9.2546    112.4914     11.4781   7.3304459323e+01   5.4344541381e+01    0.1256387    0.1061075  46.83 -6.448552e-06    1.013    0.013
       255 -10.1225    247.5918    216.3944   9.7514173910e+01  -9.6570524709e+00    0.3823406    0.2334783 -27.79  0.001722595    1.529    0.346
       256  -8.7746    159.9390    219.0000   1.1530025713e+02   4.8489926242e+00    0.2343062   0.07371374  40.88 0.0007967297    2.903    0.656
       257  -8.6060     56.0116    216.9665   1.3716032589e+02   2.2482505145e+01    0.1516353    0.1210973  82.79  0.000952222    1.034    0.033
       258 -10.9164    214.7396    214.9634   1.0336890257e+02  -4.1964755101e+00    0.3298092    0.2738268 -52.91   0.00193341    1.488    0.328
       259  -8.1017    109.2989    216.6534   1.2585641969e+02   1.4390875219e+01    0.1455728   0.09799655  73.86 0.0006529636    1.680    0.405
       260 -10.1582    186.7135    213.7477   1.0876600989e+02   9.4638057715e-01    0.3405449    0.2490955 -64.56  0.001727417    1.847    0.459
       261  -9.5984    232.1780    212.8440   9.9656506310e+01  -6.7208470343e+00    0.3553311    0.1688132 -48.95  0.001537401    2.701    0.630
       262  -9.1124    132.5122    213.9500   1.2039086258e+02   1.0881079276e+01    0.2020967    0.1399675 -58.31  0.000605393    1.552    0.356
       263  -9.7274    218.6958    215.3427   1.0267408381e+02  -4.9246261530e+00    0.2079685    0.1872552 -19.90 0.0007811818    1.129    0.114
       264  -8.9920     86.5147    209.5064   1.2983826826e+02   1.9701349620e+01    0.1399657    0.1167598  74.66 0.0008099193    1.052    0.050
       265 -10.1801    124.0059    206.0008   1.2100537237e+02   1.4121056831e+01    0.2043356    0.1839697  64.97  0.001161662    1.018    0.018
