#   1 NUMBER                 Running object number                                     
#   2 MAG_AUTO               Kron-like elliptical aperture magnitude                    [mag]
#   3 X_IMAGE                Object position along x                                    [pixel]
#   4 Y_IMAGE                Object position along y                                    [pixel]
#   5 X_WORLD                Barycenter position along world x axis                     [deg]
#   6 Y_WORLD                Barycenter position along world y axis                     [deg]
#   7 A_WORLD                Profile RMS along major axis (world units)                 [deg]
#   8 B_WORLD                Profile RMS along minor axis (world units)                 [deg]
#   9 THETA_WORLD            Position angle (CCW/world-x)                               [deg]
#  10 FWHM_WORLD             FWHM assuming a gaussian core                              [deg]
#  11 ELONGATION             A_IMAGE/B_IMAGE                                           
#  12 ELLIPTICITY            1 - B_IMAGE/A_IMAGE                                       
         1  99.0000     34.8772    204.7310   8.1316822480e+01   2.6314822602e+01     3.434605     1.812227  81.40   0.01743714    1.873    0.466
         2 -18.6361     13.3539     85.7137   7.5906748853e+01   5.8909355609e+01     15.52071    0.9138627 -72.43   0.02363437   16.000    0.938
         3 -13.6205    249.3278    116.7576   1.9325977864e+01   8.9003067897e+00      1.15963    0.2584878 -38.01  0.004052618    3.438    0.709
         4 -13.7235     37.4189     11.3790   3.5853815157e+01   7.2508443520e+01    0.4763795    0.3333011  15.81  0.002752466    1.468    0.319
         5 -14.4726    125.1410    210.2221   6.0692722432e+01   1.2789660799e+01    0.7530379    0.3473304 -59.91  0.003297579    2.656    0.623
         6 -12.3173    216.0349    249.5313   4.8419154622e+01  -5.6747371090e+00    0.3481612    0.1943645  19.29    0.0022531    1.511    0.338
         7 -16.0707    205.1700    226.0807   4.6855693497e+01  -1.3505549917e+00     1.854616      1.36973 -13.98   0.01003233    1.227    0.185
         8 -14.4344    194.2572    235.2157   5.0204921630e+01  -1.2207810798e+00     1.319078    0.7481023 -57.19  0.006491407    3.582    0.721
         9 -15.5482    160.1340    245.9782   5.8137989958e+01   1.6911612257e+00      1.41733    0.9479349  11.13  0.008512855    1.512    0.339
        10 -15.0076    145.7174    245.5484   6.0919243232e+01   3.6799920437e+00     1.016111    0.6799101  -0.44  0.005934372    1.891    0.471
        11 -15.5848    106.9135    245.0125   6.8766386350e+01   9.0186208188e+00      4.87046     1.342145  32.03   0.01877616    3.160    0.684
        12 -11.8712    249.3384    249.3623   4.2997288471e+01  -9.1817163211e+00    0.1717817   0.09355637  -1.51  0.001137418    1.694    0.410
        13 -14.2881    226.8196    243.3180   4.5716253225e+01  -6.1410846851e+00    0.6580951    0.4123162 -11.10  0.004537355    1.417    0.294
        14 -11.4262     68.3910    205.6031   7.3409942363e+01   2.2019488016e+01    0.4715793    0.2343518  43.89  0.002263418    1.694    0.410
        15 -11.0283     97.8306    198.8406   6.5534393870e+01   1.9312280865e+01    0.1921198    0.1826064  30.30 0.0004662579    1.139    0.122
        16 -15.0033    185.5499    240.5447   5.2573754220e+01  -8.4514390386e-01     1.827688     1.206099  52.12   0.01057695    2.357    0.576
        17 -14.2765    115.3914    192.8270   6.0466312606e+01   1.7876326998e+01    0.7190989    0.5055632 -86.74  0.003551005    1.888    0.470
        18 -12.0734    188.3272    204.5680   4.6532034890e+01   4.1790989486e+00    0.2561738    0.2331159  16.37  0.001440952    1.167    0.143
        19 -14.1125    119.6069    190.9437   5.9173436657e+01   1.7599196923e+01    0.6126332    0.4521386  85.91  0.003097453    1.776    0.437
        20 -11.7313    109.2840    182.0476   6.0326312192e+01   2.1243786822e+01    0.2954634     0.198786  46.14  0.001406837    1.397    0.284
        21 -10.5433     96.4000    179.2799   6.3181456727e+01   2.3964556471e+01    0.1953801    0.1358192 -80.81 0.0009171385    1.645    0.392
        22 -10.7418     56.6745    179.7205   7.3693595082e+01   2.9618425314e+01    0.1288562    0.1082345 -29.69 0.0004825208    1.593    0.372
        23 -12.3000    117.5482    175.3021   5.7164775281e+01   2.1388500445e+01     0.284669    0.1906723 -59.88   0.00120642    1.590    0.371
        24 -12.1865    116.7973    170.9150   5.6604042066e+01   2.2519201364e+01    0.3673754    0.2976283  59.39  0.001711608    1.268    0.212
        25 -12.0454    130.9053    172.6575   5.3409866458e+01   1.9660380202e+01    0.2588498    0.2045985 -39.01  0.001337206    1.359    0.264
        26 -13.1965    180.1189    168.3022   4.1578379354e+01   1.1843376552e+01    0.6975148    0.4353083 -19.26  0.003142088    2.059    0.514
        27 -10.8101    101.5089    167.9398   6.0065534815e+01   2.5826145239e+01    0.2069702    0.1456495 -63.97 0.0004286059    1.471    0.320
        28 -13.0091     42.9776    162.3375   7.5587326167e+01   3.5696086002e+01     0.844234    0.1881107  32.01  0.002744535    3.711    0.731
        29 -11.9183    190.7502    159.3917   3.7684293893e+01   1.1651863309e+01    0.3382176    0.2455119  14.87   0.00175379    1.598    0.374
        30 -12.8766    132.7112    154.6195   4.9528754266e+01   2.3379316323e+01     0.400905    0.3539039  54.88  0.001779394    1.148    0.129
        31 -11.1791    140.7782    153.1972   4.7254811200e+01   2.2169109100e+01    0.2278563    0.2097717  78.55 0.0006875642    1.176    0.149
        32 -11.5276     94.1691    157.9872   6.0376013224e+01   2.9492318543e+01    0.3572721     0.221834  84.68  0.001425306    2.296    0.564
        33 -11.1292     78.7547    158.6667   6.4831490046e+01   3.1796458869e+01    0.2816372    0.2029675 -39.39  0.001332503    1.702    0.412
        34 -11.0401     82.5031    155.0001   6.3169929463e+01   3.2148246637e+01    0.3413027    0.1917555 -33.92  0.001257129    2.866    0.651
        35 -12.4047     52.8249    155.2630   7.1889914660e+01   3.6337780645e+01    0.3831539    0.1558324 -71.06  0.001459201    2.375    0.579
        36 -11.8752     64.2702    154.7601   6.8443416599e+01   3.4937014650e+01    0.4794239    0.3538395  84.04  0.001726119    1.363    0.266
        37 -14.5968     68.4022    144.1990   6.5575885987e+01   3.7120113893e+01    0.8838304    0.7276233  55.89  0.003040557    1.178    0.151
        38 -12.0210    115.0839    149.6727   5.3096796906e+01   2.7844928043e+01    0.4411552     0.212631 -47.55  0.001550404    2.138    0.532
        39 -12.3068    137.2160    157.6455   4.9025294449e+01   2.1849173342e+01    0.4908226    0.3220481 -38.39  0.001795029    1.656    0.396
        40 -13.3339    107.7119    145.0783   5.4188163203e+01   3.0329116966e+01    0.7466108    0.4727987 -70.54   0.00226608    1.844    0.458
        41 -10.3204     89.4975    148.5343   6.0031075234e+01   3.2662698469e+01     0.151806    0.1442233  81.82 0.0001268206    1.028    0.027
        42 -13.5596    139.1537    145.1743   4.5955981100e+01   2.4286649905e+01    0.4878872    0.3875428  28.75  0.001584358    1.360    0.265
        43 -11.9161    158.0785    143.9061   4.1215437619e+01   2.0831105049e+01    0.3296685    0.2540675 -51.60  0.001449898    1.305    0.234
        44 -12.3676     93.3546    142.3492   5.7745674953e+01   3.3586717830e+01    0.5141285    0.2796411 -66.03  0.002037871    1.976    0.494
        45 -12.5863     78.6108    142.2089   6.2118498714e+01   3.6080744329e+01    0.3532078    0.3013028 -33.32 0.0009466863    1.393    0.282
        46 -12.9760     36.8433    141.3447   7.5025281712e+01   4.1923389732e+01    0.5683795    0.2266296 -63.60  0.001899055    2.200    0.545
        47 -11.7521     86.1526    140.1006   5.9448992303e+01   3.5397219010e+01    0.4057645    0.2900892 -30.57   0.00179811    1.855    0.461
        48 -14.9562    148.5739    106.4919   3.4332626858e+01   3.0914182375e+01     1.906972    0.9044498 -57.47  0.006399311    2.759    0.638
        49 -14.5074    130.4699    128.2808   4.4328991437e+01   2.9933369245e+01     1.389581     0.618884  50.85  0.004841954    2.505    0.601
        50 -13.8245    137.7765    116.7404   3.9619823094e+01   3.1044097072e+01    0.7725773    0.4285163 -57.51  0.002966862    2.024    0.506
        51 -13.2639    143.2569    119.6668   3.9002210284e+01   2.9201327390e+01     0.491357    0.3784413 -63.03  0.001797842    1.384    0.278
        52 -14.4505    144.1110    136.2712   4.2765524857e+01   2.5301654398e+01     1.010095    0.6033039  43.65   0.00431556    1.706    0.414
        53 -14.4110    147.1180    127.9819   4.0104108547e+01   2.6528987461e+01    0.8735536    0.7009067 -78.39  0.003033917    1.487    0.328
        54 -14.8840     57.4848    131.6979   6.6959001283e+01   4.2008552940e+01    0.9680481    0.6886105 -54.59  0.004719567    1.397    0.284
        55 -13.8269     67.4021    128.6286   6.3156312247e+01   4.1416059689e+01    0.9118115    0.3314416 -58.22  0.003174674    2.493    0.599
        56 -13.2013     98.9875    135.5332   5.4715292245e+01   3.4321842098e+01     0.629891    0.4349145 -37.27  0.002213906    1.719    0.418
        57 -13.0799    106.6099    130.9017   5.1491688208e+01   3.4064746962e+01    0.5670751    0.4896204  -9.22  0.002777012    1.444    0.308
        58 -12.2297     79.1221    133.9078   6.0413211491e+01   3.8179870706e+01    0.4306525    0.2486146  66.61  0.001253146    2.355    0.575
        59 -13.6798     45.2158    132.8702   7.1184518757e+01   4.3256007288e+01    0.5244174    0.3529508 -86.03  0.002530501    1.447    0.309
        60 -11.8029    215.8154    130.0410   2.6976767941e+01   1.2460174569e+01    0.2876793    0.2056209 -37.50  0.001573797    1.212    0.175
        61 -11.7081     95.1722    130.9557   5.4877009361e+01   3.6183616721e+01     0.247427    0.2277642  45.43 0.0004308472    1.117    0.105
        62 -11.4931    184.2849    129.0262   3.2333385441e+01   1.8642018422e+01    0.2136288    0.1854816 -40.41 0.0009960547    1.066    0.062
        63 -13.0912    205.3233    126.6444   2.7963571960e+01   1.4993835322e+01    0.5437368    0.3659437 -74.15  0.002421461    2.484    0.597
        64 -13.2265     40.4770    125.8996   7.1741162086e+01   4.5693342580e+01    0.3839738    0.2248211 -65.85   0.00176977    1.529    0.346
        65 -13.6647    227.1160    231.4748   4.3893358348e+01  -4.7314510981e+00    0.3841484    0.2145468 -28.49  0.002269224    1.654    0.395
        66 -13.5574    213.2834    112.3216   2.3408134581e+01   1.6012937845e+01    0.7536922    0.3967255 -40.48  0.003002065    1.633    0.388
        67 -12.8742     80.6172    118.1896   5.6653119019e+01   4.2064083664e+01    0.5281745    0.3421358  48.41  0.002315203    1.595    0.373
        68 -13.6370     45.2588    114.7764   6.8236851639e+01   4.8154727531e+01    0.6238407    0.2247567  44.54  0.002180884    2.954    0.661
        69 -13.8524    139.1334    107.7389   3.6935949523e+01   3.2761664623e+01    0.6988617     0.499278  47.81  0.003171632    1.444    0.307
        70 -11.2145    105.4816    114.5027   4.7936306540e+01   3.8368912778e+01    0.1591425    0.1528029 -76.11 0.0002820311    1.012    0.011
        71 -12.3231     80.1492    110.8007   5.5095635946e+01   4.4070392655e+01    0.3811836    0.3120447 -61.90  0.001878811    1.167    0.143
        72 -13.9885     53.2371    104.7873   6.3332731734e+01   4.9824726399e+01     0.958593    0.5489264 -62.50  0.003151905    1.601    0.375
        73 -13.5240    201.8840    106.3862   2.3834408391e+01   1.9322390734e+01    0.6588089    0.5424559 -39.31  0.003289476    1.086    0.079
        74 -11.4783    103.9887    120.1097   4.9761222432e+01   3.7270665284e+01    0.4047337    0.2314497  29.43  0.001543487    2.173    0.540
        75 -13.2086    169.8398    106.6999   2.9758929324e+01   2.6108847756e+01    0.4410421    0.3447358 -10.74  0.002088443    1.666    0.400
        76 -12.8589    165.1670    101.2031   2.9282852511e+01   2.8256032981e+01    0.3972926    0.2905367 -16.26  0.001770906    1.830    0.453
        77 -13.0282    158.2336     96.2528   2.9409483682e+01   3.0839162556e+01    0.4567677    0.3884742  73.03  0.001651924    1.251    0.201
        78 -12.5614    225.0274     92.5686   1.7173128955e+01   1.7069367732e+01    0.4363481    0.1662614 -41.26   0.00180055    2.137    0.532
        79 -12.8870    137.2049     91.7084   3.2956298703e+01   3.6681385673e+01    0.4952741    0.3309742 -57.74  0.001465368    1.588    0.370
        80 -13.9958    101.3949     86.6797   4.1458219299e+01   4.5883413712e+01    0.9088527    0.7540042 -52.51  0.003335259    1.177    0.150
        81 -13.7216    105.4935     79.5366   3.7939515882e+01   4.6589145804e+01    0.8173846    0.5440961 -47.10   0.00287284    1.476    0.323
        82 -12.9949    102.0469     74.6709   3.7414161627e+01   4.8405577343e+01    0.6301942    0.4779282 -29.90  0.002500518    1.483    0.325
        83 -12.9247    105.4691    217.2057   6.6032717112e+01   1.4359135980e+01    0.4846446    0.2143746 -64.73  0.002124153    2.786    0.641
        84 -12.1144    121.6929     83.9758   3.4661400255e+01   4.1944799419e+01    0.5288506    0.3329358  73.77  0.002018106    2.290    0.563
        85 -12.6788    128.2311     81.9218   3.2295207731e+01   4.0845146458e+01     0.502317     0.386364  36.43  0.002178321    1.482    0.325
        86 -13.0350    217.4927    116.0161   2.3598984314e+01   1.4575656228e+01    0.5557457    0.2684245 -37.11   0.00231414    1.796    0.443
        87 -12.3579     80.3596     82.4024   4.7265312917e+01   5.1127843248e+01    0.3662827    0.3399493  30.84  0.001653188    1.139    0.122
        88 -12.9239     77.7890     76.5568   4.6358136546e+01   5.2981703521e+01    0.8607777    0.4839588  34.49  0.003547695    1.956    0.489
        89 -13.9289    134.5902    213.8385   5.9100751979e+01   1.0662067065e+01    0.6325173    0.3275292 -52.57  0.003076082    2.187    0.543
        90 -12.9410    175.7492     65.4764   1.7487771852e+01   3.2377851907e+01    0.4363674    0.3810043 -71.35  0.001346257    1.073    0.068
        91 -12.7779    137.6484     60.0358   2.3045682640e+01   4.2742449410e+01    0.4552476    0.3768325  73.43  0.001919944    1.211    0.174
        92 -14.1118    124.5937     56.7371   2.4957131150e+01   4.6576543955e+01    0.9779601    0.7020546 -81.59  0.004395379    1.750    0.428
        93 -14.7123    112.3762     57.1769   2.8278409575e+01   4.9484696530e+01     1.221021    0.8094026  62.67   0.00528339    1.585    0.369
        94 -13.9399    100.7329     51.1799   2.9393368252e+01   5.3326575300e+01    0.7643179    0.5163665 -38.91  0.002953217    1.499    0.333
        95 -12.4681     32.0516     56.9858   6.0117650185e+01   6.4472715919e+01    0.2201004    0.1931443 -39.10  0.001311136    1.031    0.030
        96 -13.6017    192.1846     53.4720   1.1776907252e+01   3.0373591198e+01    0.4911758     0.445209 -49.60  0.002399486    1.124    0.110
        97 -13.4912    198.4234     48.4629   9.6719315959e+00   2.9661894799e+01     0.419232     0.301578  30.98   0.00123752    2.131    0.531
        98 -14.4294     35.4831     47.5883   5.5001094508e+01   6.6185955839e+01    0.6412785    0.5499331 -19.54  0.002886801    1.124    0.110
        99 -13.2993     49.3753     41.1294   4.5147530645e+01   6.5538288769e+01     0.502385    0.3271976  22.89  0.002496073    1.714    0.417
       100 -13.0732     35.6878     27.3354   4.5922225030e+01   7.0200015310e+01    0.3442155    0.2595194 -12.68  0.001992749    1.348    0.258
