#   1 NUMBER                 Running object number                                     
#   2 MAG_AUTO               Kron-like elliptical aperture magnitude                    [mag]
#   3 X_IMAGE                Object position along x                                    [pixel]
#   4 Y_IMAGE                Object position along y                                    [pixel]
#   5 X_WORLD                Barycenter position along world x axis                     [deg]
#   6 Y_WORLD                Barycenter position along world y axis                     [deg]
#   7 A_WORLD                Profile RMS along major axis (world units)                 [deg]
#   8 B_WORLD                Profile RMS along minor axis (world units)                 [deg]
#   9 THETA_WORLD            Position angle (CCW/world-x)                               [deg]
#  10 FWHM_WORLD             FWHM assuming a gaussian core                              [deg]
#  11 ELONGATION             A_IMAGE/B_IMAGE                                           
#  12 ELLIPTICITY            1 - B_IMAGE/A_IMAGE                                       
         1 -12.6459    199.8383     40.7265   4.3140585540e+01   3.0322413732e+01    0.9742523    0.9418175  13.20  0.005158743    1.237    0.192
         2 -12.5837    210.4879     30.1832   3.9290990610e+01   2.9203640251e+01    0.8072928    0.7324149  23.52  0.001978034    1.425    0.298
         3 -10.7127     21.7921     12.6333   8.1294463018e+01   7.0526651638e+01    0.2661634    0.1781101 -24.40  0.001751624    1.240    0.193
         4 -11.6850    235.7259      4.9600   3.1468006019e+01   2.6547310397e+01    0.7821291    0.5086501  85.51  0.004829077    1.396    0.284
         5 -10.7176    144.0949    226.7835   9.6739365200e+01   6.8831128673e+00    0.4523604     0.254429 -27.76  0.002020025    2.695    0.629
         6 -13.0861     46.0651    200.6958   1.1497242835e+02   2.6459733976e+01     3.853375     1.372218  61.43   0.00481254    4.458    0.776
         7  -8.0485     52.9255    219.2510   1.1523918316e+02   2.1628834223e+01    0.1647805    0.1358544  58.53 0.0003933901    1.087    0.080
         8  -9.7697    107.8177    203.6371   1.0133073210e+02   1.7270277192e+01    0.3275288    0.2063288  34.03  0.001100506    1.546    0.353
         9  -8.0463     29.7863    201.9660   1.1860301194e+02   2.7963207591e+01    0.1661404    0.1354186  81.44 0.0004443731    1.016    0.016
        10 -13.1271      2.5528    197.4924   1.2392354329e+02   3.1477000306e+01      2.05113    0.1026725 -73.14  0.005764871    7.145    0.860
        11  -9.4770     60.9887    198.7413   1.1143323472e+02   2.5083105894e+01    0.2267461    0.1869629 -84.06 0.0005000363    1.130    0.115
        12  -9.7985     47.5025    217.8587   1.1623653884e+02   2.2569952329e+01    0.5338631    0.1971001  35.36  0.002147117    2.521    0.603
        13  -7.8726    120.2766    194.6514   9.7056247166e+01   1.7173472230e+01    0.1418676    0.1077022  75.55 0.0007005919    1.636    0.389
        14  -8.5612     59.3691    220.8094   1.1404573656e+02   2.0507199671e+01    0.3095972    0.1848375 -60.73  0.001446482    1.765    0.433
        15  -7.6808     72.4296    188.4535   1.0752440548e+02   2.5920003955e+01    0.1357615    0.1192492  77.02 9.558384e-05    1.049    0.046
        16 -15.0457      3.3626    118.4301   1.1693400163e+02   4.9831938167e+01      14.7619     1.618672 -72.34   0.03513892    7.731    0.871
        17  -7.4928     80.3340    184.3079   1.0505073382e+02   2.5773105982e+01    0.1353159    0.1071512 -25.26 0.0007041437    1.671    0.402
        18  -7.6101     69.5332    183.5382   1.0757505785e+02   2.7458945707e+01    0.1377907    0.1196719  76.90  6.66253e-05    1.072    0.067
        19  -8.5313     98.9768    180.8671   9.9945496938e+01   2.3746974597e+01    0.2102137    0.1927659  -3.04 0.0006065189    1.267    0.211
        20 -12.0105     54.1568    187.9220   1.1179061528e+02   2.8406942860e+01    0.8251856    0.6601083 -87.74  0.003278761    1.135    0.119
        21  -9.0039     42.1104    179.3463   1.1368448579e+02   3.1812941792e+01     0.223571    0.1747829 -51.03 0.0003846773    1.421    0.296
        22  -7.8901     45.4755    176.4930   1.1255323993e+02   3.2113071254e+01     0.207034    0.1276872  32.20 0.0007954992    1.758    0.431
        23  -8.8691     65.2660    179.2031   1.0804323267e+02   2.9049851223e+01    0.2602457    0.1826849  48.00 0.0008450472    1.400    0.286
        24 -10.4644     68.5586    173.7566   1.0647499570e+02   2.9912361129e+01     0.457261    0.2882589 -35.13   0.00212743    2.168    0.539
        25 -10.3391     72.9480    168.7726   1.0462454887e+02   3.0513888747e+01    0.3512437    0.2652885 -46.22 0.0009104216    1.417    0.294
        26  -8.4285    188.7986    176.2150   7.8098364809e+01   8.6757823098e+00    0.3299631    0.1082633 -47.84  0.001051154    3.573    0.720
        27  -7.8872    146.5946    171.8201   8.6652473609e+01   1.7454434688e+01    0.2044866      0.14362 -60.18 0.0009375883    1.657    0.396
        28  -9.9958    103.8021    171.3577   9.7130803807e+01   2.5182604414e+01    0.4239807    0.1676398  40.26  0.001572775    2.450    0.592
        29  -7.7230     34.7613    171.5705   1.1461088583e+02   3.4440581659e+01    0.1727494    0.1083097  47.83 0.0008209228    1.601    0.375
        30  -9.7595     94.5165    167.9485   9.8914956183e+01   2.7496866064e+01    0.4987529    0.2346572  44.77  0.002010789    2.159    0.537
        31  -7.5741    246.6702    167.3423   6.5339895645e+01   2.9730738002e-01    0.1241315    0.1016714 -59.31 0.0007051209    1.746    0.427
        32  -8.2912    134.6669    165.3318   8.8228150466e+01   2.1117014501e+01    0.1548736    0.1200669  78.02 0.0007052191    1.727    0.421
        33 -11.0025     81.4139    160.2579   1.0103467718e+02   3.1370785126e+01    0.7400228    0.4218678  62.76 0.0005086426    2.389    0.581
        34 -12.0223     69.9145    155.1877   1.0327993165e+02   3.4257305375e+01    0.5920341    0.5100582  -8.46  0.001206448    1.431    0.301
        35 -11.9662     68.7589    144.5138   1.0177219029e+02   3.7062905965e+01    0.9182563     0.615351  74.71  0.004181009    1.936    0.483
        36  -9.2687     54.5077    150.0086   1.0667092826e+02   3.7521330330e+01    0.2617555    0.1817746  54.30  0.001019813    1.553    0.356
        37  -9.4948    134.0745    146.7110   8.4400004403e+01   2.5461355840e+01    0.6658644    0.2339616 -54.34  0.001988524    3.455    0.711
        38  -8.6184     39.0498    146.2438   1.1038055398e+02   4.0174538448e+01    0.2410142    0.1733744 -71.22 0.0006179083    1.212    0.175
        39  -9.6782     28.5795    143.9097   1.1294595247e+02   4.1760681983e+01    0.3292844    0.1667823  54.11  0.001527652    2.314    0.568
        40 -10.7898     88.3180    153.5768   9.7987187016e+01   3.1954221823e+01    0.6288587    0.4238268 -16.92  0.001617839    2.311    0.567
        41  -9.9225    102.5872    139.0269   9.1111211862e+01   3.3140834477e+01    0.5345418    0.3286836 -24.56  0.002069581    2.448    0.591
        42  -7.8850    198.5298    140.4932   6.8256327052e+01   1.3685010952e+01    0.1480506    0.1378789 -32.73 0.0001316207    1.072    0.067
        43 -10.6763     89.7472    138.7328   9.4673647770e+01   3.5370421791e+01    0.3017169    0.2597831 -29.86 0.0004840865    1.245    0.197
        44  -9.7241     25.6681    137.5711   1.1292888915e+02   4.3577493689e+01    0.3488519    0.1723188  44.34  0.001012485    2.245    0.555
        45 -11.1976     59.5514    133.6796   1.0248381484e+02   4.0971535121e+01    0.6372805    0.4166884 -86.62  0.002964032    1.881    0.468
        46  -9.1521    105.8793    130.8173   8.8339267365e+01   3.4529835002e+01    0.3678576    0.2865731 -75.57  0.001736131    1.534    0.348
        47  -9.5576    111.5287    129.7863   8.6509649827e+01   3.3736880173e+01    0.2991728     0.239083  -3.01 0.0008489861    1.539    0.350
        48  -9.0951     67.2885    125.5511   9.8576547394e+01   4.1977294165e+01    0.4025835   0.09279285 -53.28   0.00121303    3.500    0.714
        49  -9.2813     98.7564    125.6460   8.9173804891e+01   3.7036477050e+01    0.3201412    0.2476968   4.80  0.001004273    1.615    0.381
        50  -9.6058    135.0000    122.4706   7.8354090405e+01   3.0773193525e+01    0.7185263   0.08810868 -45.64  0.001345025    7.972    0.875
        51  -8.3087    161.0000    128.9961   7.3584270882e+01   2.3842584405e+01    0.2652238   0.08701314 -42.96 0.0008056501    2.965    0.663
        52  -9.7140     56.2110    128.5579   1.0253675221e+02   4.2661017598e+01    0.3423648    0.2651343   7.18  0.001539978    1.585    0.369
        53  -7.8588     90.5327    123.5542   9.1106495243e+01   3.8944496282e+01    0.1496649    0.1425398 -70.96 0.0001426053    1.083    0.076
        54  -8.5556    107.9276    118.9347   8.4881799187e+01   3.6963098513e+01    0.2289456    0.2177167 -51.40 0.0004024703    1.053    0.050
        55  -9.6204     33.4906    118.5189   1.0774226508e+02   4.7580602256e+01     0.290219    0.1151595 -64.76  0.001203454    2.139    0.532
        56 -10.2546     52.6709    113.9976   1.0077930161e+02   4.6682579425e+01    0.4821559    0.2002338 -67.68  0.001758752    2.782    0.641
        57 -15.8713     15.9715    242.6903   1.2395161507e+02   2.1025429067e+01     5.500679     2.097476  28.89    0.0276316    3.190    0.687
        58  -8.7839    172.5121    218.4992   8.9449716284e+01   3.7548296662e+00    0.1342741    0.1173144  18.02 -0.0001621121    1.012    0.012
        59  -8.2568    205.5587    110.0524   5.9672499393e+01   1.7953874560e+01    0.2215965    0.1950654  51.95 0.0006684801    1.233    0.189
        60  -9.4061    115.4884    108.5949   8.0019273696e+01   3.7866963754e+01    0.4650483    0.1331515 -39.65  0.001226267    4.184    0.761
        61  -9.5407     43.1771    104.5225   1.0192887313e+02   5.0042910440e+01    0.4824666    0.1585428  42.96  0.001650579    4.049    0.753
        62  -9.8302    243.3188    102.6546   5.1956864645e+01   1.1591792976e+01    0.2228496    0.1503019 -62.50  0.001136831    1.769    0.435
        63  -9.1388     58.6356    228.5455   1.1490349278e+02   1.9013294585e+01    0.2167269    0.1794002  71.21 0.0005992345    1.035    0.034
        64  -8.4552     33.3160    100.3203   1.0441517246e+02   5.2018782446e+01    0.1427672   0.08587122 -36.95 0.0007040704    1.658    0.397
        65  -8.4252    127.3832     94.7309   7.2834710222e+01   3.8381045763e+01    0.1554967    0.1245389  83.47 0.0006636032    1.698    0.411
        66  -9.2007    162.9735    216.5019   9.1122244908e+01   5.6700906365e+00    0.2136063    0.1211111  35.09  0.001033868    1.595    0.373
        67  -8.2442    115.8057     84.6330   7.3038077756e+01   4.2902243413e+01    0.2131398    0.1434945  53.68 0.0009418215    1.661    0.398
        68 -12.1759    189.7218     48.2396   4.6471561326e+01   3.1689387603e+01    0.9298629    0.5982401  33.47  0.002537109    2.124    0.529
        69  -9.4510     70.7503    247.7757   1.1420482104e+02   1.3749379020e+01    0.2993896    0.1840986 -49.93  0.001757394    2.144    0.534
        70 -10.6520     21.5040     35.6815   9.1334947889e+01   6.6844368028e+01    0.3275388    0.1559185 -38.12  0.001726824    1.718    0.418
        71 -13.3259     10.3549    206.4343   1.2291464345e+02   2.8876294763e+01    0.8512669    0.6236485  23.27  0.002617715    1.790    0.441
        72  -9.1004     95.8541    242.6443   1.0877480811e+02   1.1289368017e+01    0.2244933    0.1709443 -88.09  0.001059086    1.472    0.320
        73  -9.7429    141.2694     46.8101   5.4622549450e+01   4.3574947611e+01    0.3450809    0.2595028 -86.89 0.0007914415    1.714    0.417
        74  -8.0698    168.7737    236.0363   9.3020968359e+01   1.4087530359e+00    0.1679413    0.1504377   2.99 0.0003834366    1.115    0.103
