#   1 NUMBER                 Running object number                                     
#   2 MAG_AUTO               Kron-like elliptical aperture magnitude                    [mag]
#   3 X_IMAGE                Object position along x                                    [pixel]
#   4 Y_IMAGE                Object position along y                                    [pixel]
#   5 X_WORLD                Barycenter position along world x axis                     [deg]
#   6 Y_WORLD                Barycenter position along world y axis                     [deg]
#   7 A_WORLD                Profile RMS along major axis (world units)                 [deg]
#   8 B_WORLD                Profile RMS along minor axis (world units)                 [deg]
#   9 THETA_WORLD            Position angle (CCW/world-x)                               [deg]
#  10 FWHM_WORLD             FWHM assuming a gaussian core                              [deg]
#  11 ELONGATION             A_IMAGE/B_IMAGE                                           
#  12 ELLIPTICITY            1 - B_IMAGE/A_IMAGE                                       
         1 -12.7300    208.8536     40.2104   3.8496748945e+01   2.8329462338e+01     1.454754     1.044538  49.62  0.008446387    1.703    0.413
         2 -11.9591    225.2549     26.1851   3.3879754511e+01   2.6587606299e+01      0.71467    0.5911261 -71.70  0.002810596    1.063    0.060
         3 -11.3014      2.0691     33.0596   9.5192894492e+01   6.9271395543e+01    0.8331835    0.1457417 -57.05  0.002551486    6.494    0.846
         4 -10.1718      1.8230      7.6157   8.5024710819e+01   7.3375666105e+01    0.3347787     0.110592 -38.24  0.001694822    2.566    0.610
         5  -9.8283    245.3317      2.3148   2.7823208252e+01   2.5264645453e+01    0.2443101    0.1547525  68.91  0.001651065    1.673    0.402
         6 -10.8449    247.5870      6.4332   2.8432808664e+01   2.4389961447e+01    0.5283177    0.4001792 -64.82  0.003944461    1.083    0.077
         7  -9.1866     59.6764    227.1923   1.1010453084e+02   1.8866203527e+01    0.2365169    0.1658313 -72.91  0.000922452    1.455    0.313
         8 -10.3784    115.6812    243.7653   9.9743512996e+01   7.4977121556e+00    0.9570721    0.3000779 -63.27  0.003148448    5.285    0.811
         9 -10.6776     83.0177    215.8897   1.0358748585e+02   1.8097622374e+01    0.8350351    0.4534598 -69.05 0.0006349058    2.016    0.504
        10 -14.2468      4.9974    182.5478   1.1868168446e+02   3.5023393890e+01     8.352365     1.124426 -74.42   0.02399614    5.684    0.824
        11  -9.8791     44.7072    220.1281   1.1273804155e+02   2.2288116624e+01    0.3832187    0.2610919 -68.74  0.002245555    1.477    0.323
        12 -10.1495     49.6650    215.8567   1.1123945748e+02   2.2629609519e+01    0.4234042    0.2748076 -51.44    0.0015951    1.825    0.452
        13  -9.7860     57.3706    223.6918   1.1027370085e+02   1.9922481343e+01    0.3167099    0.2295425  64.70  0.001135564    1.248    0.199
        14  -9.4080     48.0419    226.9148   1.1261031385e+02   2.0402361576e+01    0.2833619    0.1770091  84.61 0.0007999663    1.616    0.381
        15 -10.7325     23.0145    223.5195   1.1765862659e+02   2.4004918943e+01    0.4705115    0.2214396  82.64  0.002143328    2.218    0.549
        16 -10.3269    126.4100    223.7992   9.4696043073e+01   9.7017522065e+00    0.3322436     0.241888  24.08  0.001783747    1.395    0.283
        17 -10.8977     21.0410    194.6103   1.1588612306e+02   3.0728308079e+01    0.3985294    0.2571612 -86.78  0.001132097    1.374    0.272
        18  -8.4655     56.1264    192.8061   1.0725027774e+02   2.7155346878e+01    0.2148437    0.1638047  69.09  0.000636183    1.257    0.204
        19 -10.4604     17.0753    183.3535   1.1586577143e+02   3.3773478964e+01     0.321122    0.1833131  51.05  0.001087208    1.681    0.405
        20 -10.4605     60.3249    174.3382   1.0378550375e+02   3.1113277331e+01    0.4888243    0.3046492 -35.18  0.002204262    2.188    0.543
        21 -10.2845     65.4697    169.1938   1.0164989577e+02   3.1695861043e+01     0.339397     0.280769 -26.16  0.001072602    1.491    0.329
        22 -11.5304     31.7726    200.2455   1.1388135871e+02   2.8293645370e+01     0.468154    0.3622089 -47.62  0.001413006    1.578    0.366
        23 -13.5047     41.7407    190.5279   1.1054415508e+02   2.9468533457e+01     2.569845     1.385989  67.65   0.01189035    2.082    0.520
        24 -11.7125     62.6126    155.8526   1.0035162293e+02   3.5444781544e+01    0.5137438    0.3304307 -36.65  0.001350607    1.897    0.473
        25 -12.4851     68.7780    145.4269   9.6744289759e+01   3.7215792065e+01     2.142282     1.158688  79.70  0.006821137    4.038    0.752
        26 -11.0497     82.9830    153.9293   9.4189365865e+01   3.2921001492e+01    0.7720158    0.4672107 -34.30   0.00187659    2.153    0.536
        27  -9.3929     32.5101    156.6357   1.0901471779e+02   3.8836406613e+01     0.441892    0.1640259 -74.04  0.001669278    2.705    0.630
        28 -14.7862     17.0085    243.4927   1.2011722002e+02   2.0473616749e+01     5.929697     2.271865  24.82    0.0169898    3.658    0.727
        29  -9.4617     97.3889    140.7553   8.7416250202e+01   3.3770785344e+01    0.4039094    0.2524984 -37.16  0.001659316    1.834    0.455
        30  -8.4763    100.4747    137.9963   8.5929559725e+01   3.3892005560e+01    0.3300103    0.2050369 -30.65  0.001076887    2.114    0.527
        31 -10.6652     85.4629    138.9663   9.0519416245e+01   3.6252958795e+01     0.317848    0.2960305 -24.63  0.000560834    1.145    0.127
        32  -9.2475    107.4265    130.6678   8.2276078754e+01   3.4365803839e+01    0.4628245    0.3046202  20.01  0.001918415    1.992    0.498
        33  -8.1980     96.6656    125.6283   8.4224062980e+01   3.7570015675e+01    0.2350756    0.1788977 -15.85 0.0007598769    1.679    0.404
        34  -8.0695    105.9971    118.7882   7.9818462411e+01   3.7432526687e+01    0.2044901    0.2015762  43.17  0.001100332    1.028    0.028
        35 -10.6978     75.5278    159.9842   9.7380946905e+01   3.2553689080e+01    0.4445099    0.3878038 -20.60 0.0006147497    1.355    0.262
        36  -7.8699    205.5138    110.5028   5.5019802827e+01   1.7885870130e+01    0.1411619    0.1302461 -46.73 -6.383299e-05    1.037    0.036
        37 -10.4614      6.9082    107.1932   1.1007614645e+02   5.3175977848e+01    0.3233999    0.2189075  52.46  0.001537617    1.783    0.439
        38 -10.2049      1.5625     63.3204   1.0396548126e+02   6.3400614727e+01    0.4306365    0.1291893 -65.20  0.001726262    3.181    0.686
        39 -10.4243      1.7740     98.7535   1.1057930555e+02   5.5471062814e+01    0.5974225    0.1229482 -67.62  0.002067352    3.630    0.725
        40 -11.5343      2.0973     81.0885   1.0744686769e+02   5.9508997980e+01     0.987091    0.1923052 -65.17  0.003407734    3.860    0.741
        41  -9.3084     32.8194    222.0931   1.1548247273e+02   2.3243810260e+01    0.2531404    0.1481436 -89.05   0.00110637    1.639    0.390
        42  -8.7561    248.8228     85.4005   4.3546989161e+01   1.3629797244e+01    0.1599712    0.1159363  50.20   0.00095494    1.716    0.417
        43 -10.4748     13.3136     60.6776   9.8070130245e+01   6.3206510586e+01    0.3474638    0.1816329 -55.58  0.001370865    1.680    0.405
        44  -8.8648     41.5354     59.0675   8.5221507932e+01   6.0737379147e+01    0.2947532    0.1670362  43.00  0.001397025    2.184    0.542
        45 -12.0146    200.1985     46.6127   4.0970302904e+01   2.9391680504e+01    0.7171332    0.5011659  47.48  0.002794728    1.730    0.422
        46  -9.4921     81.3578    247.2785   1.0743259747e+02   1.1813741851e+01    0.2757448     0.138286  44.50  0.001169752    1.653    0.395
        47 -10.8636    218.4642     32.3567   3.5790904999e+01   2.7258661417e+01    0.4152213    0.3414556  48.25  0.001123621    1.604    0.377
        48  -8.7366     83.3143    244.3005   1.0671841892e+02   1.2123021437e+01    0.1156414   0.09855952  -5.86 0.0005244853    1.611    0.379
        49  -9.3388     29.3532    218.6012   1.1595484207e+02   2.4395090029e+01     0.217882    0.1855831  57.56  0.001468749    1.138    0.122
        50  -8.4404    132.2115     39.1824   4.9820914805e+01   4.6373570791e+01    0.1969923    0.1744537  53.35 0.0004801762    1.059    0.056
        51 -10.1280      1.6332     49.0578   1.0033144407e+02   6.6299307124e+01    0.3955457   0.09697369 -60.12  0.001526584    3.602    0.722
        52 -13.3974      9.3541    207.9645   1.1949095537e+02   2.8791540584e+01     1.404627    0.9849577 -67.04  0.004495506    1.444    0.307
        53 -11.0581    126.2373    230.0295   9.5625144015e+01   8.4989721826e+00     0.521946    0.2782933  42.83  0.002494373    1.687    0.407
