#   1 NUMBER                 Running object number                                     
#   2 MAG_AUTO               Kron-like elliptical aperture magnitude                    [mag]
#   3 X_IMAGE                Object position along x                                    [pixel]
#   4 Y_IMAGE                Object position along y                                    [pixel]
#   5 X_WORLD                Barycenter position along world x axis                     [deg]
#   6 Y_WORLD                Barycenter position along world y axis                     [deg]
#   7 A_WORLD                Profile RMS along major axis (world units)                 [deg]
#   8 B_WORLD                Profile RMS along minor axis (world units)                 [deg]
#   9 THETA_WORLD            Position angle (CCW/world-x)                               [deg]
#  10 FWHM_WORLD             FWHM assuming a gaussian core                              [deg]
#  11 ELONGATION             A_IMAGE/B_IMAGE                                           
#  12 ELLIPTICITY            1 - B_IMAGE/A_IMAGE                                       
         1 -14.2056    173.0654     44.1422   6.9886845149e+01   3.6390329699e+01     1.788511      1.36386  20.58   0.00433784    1.560    0.359
         2 -14.0096    185.5371     32.1054   6.4197457226e+01   3.4815684256e+01    0.9676148    0.8584906  -8.90  0.003988545    1.276    0.216
         3 -15.1921    190.5075     24.4877   6.1270383409e+01   3.4473884015e+01     3.114716     1.967064  20.30  0.001425046    2.322    0.569
         4 -11.5665    216.5108     18.5098   5.6196657402e+01   2.8584405269e+01     0.243761    0.2199839  89.18 0.0006326939    1.015    0.015
         5  99.0000     67.1083    211.9250   1.2917595258e+02   2.3721976301e+01     3.686697    0.8166076  50.79   0.01398113    4.037    0.752
         6 -11.4304    106.5535    210.0347   1.2174833979e+02   1.8249424358e+01    0.4016781    0.3607957  57.85  0.002524471    1.218    0.179
         7 -12.0039    106.4687    202.2287   1.2078074037e+02   1.9734978275e+01    0.4551566    0.2707686  46.24  0.001374228    1.529    0.346
         8 -13.2603    113.3669    197.9443   1.1886471488e+02   1.9417662963e+01    0.6264474    0.4895245  84.76  0.003823377    1.252    0.202
         9 -10.0468    164.8859    205.5950   1.0991907013e+02   8.7312058458e+00    0.3894371    0.1695928 -59.80  0.001449816    3.871    0.742
        10  -8.9255    170.2588    205.3138   1.0883651230e+02   7.7624989755e+00    0.1237184    0.1005372  11.93 0.0002562644    1.533    0.348
        11 -11.9856    121.0831    200.1499   1.1765384733e+02   1.7683513897e+01     0.344133    0.2844614   9.43  0.001697029    1.872    0.466
        12 -12.7925    193.7751    193.7462   1.0229140382e+02   5.1299597870e+00    0.9832502    0.6710527 -67.24  0.004473921    2.306    0.566
        13 -12.2640     45.4837    203.7756   1.3225173250e+02   2.8001107651e+01     0.196607    0.1483348  76.87 0.0003671625    1.031    0.030
        14 -10.0198     72.8464    202.7593   1.2721422587e+02   2.4693881765e+01     0.186357     0.173296 -38.10  0.001322581    1.651    0.394
        15 -10.4857     65.9981    237.0296   1.3157410957e+02   1.9343966709e+01    0.1715486    0.1490098 -79.26 0.0003102309    1.458    0.314
        16 -10.0549    234.4116    199.0015   9.5703124148e+01  -3.3846075600e+00     0.327731    0.0995364 -46.36 0.0009485573    6.408    0.844
        17 -16.2266    112.2551    244.4031   1.2460164240e+02   1.1392774828e+01     5.877167     2.161235  37.64   0.02505775    3.339    0.700
        18 -11.0438     61.3406    190.7617   1.2810459575e+02   2.8601439822e+01    0.3335349    0.1899683 -80.51  0.001327699    1.650    0.394
        19 -13.3908     72.2968    193.9041   1.2635545950e+02   2.6511567557e+01    0.7439687     0.586524  45.27  0.004962311    1.404    0.288
        20 -11.1692     65.8228    193.9402   1.2759194742e+02   2.7379787112e+01    0.2242871    0.1826121 -79.06  0.000836878    1.198    0.165
        21 -10.9944     78.5580    184.6432   1.2404027937e+02   2.7503222844e+01    0.3652617    0.2516218  77.81   0.00135569    1.387    0.279
        22 -10.7461    102.9631    194.6524   1.2047245625e+02   2.1771955770e+01    0.4434987    0.2772973  59.32  0.002441159    1.480    0.325
        23 -10.0371     92.0734    194.7339   1.2262495218e+02   2.3468494990e+01    0.3107751    0.1702038  54.63  0.001644719    1.668    0.400
        24  -9.7979    180.0431    192.9744   1.0482677838e+02   7.9579864430e+00    0.2186646    0.1653383  78.00  0.001130494    1.769    0.435
        25 -11.6967    207.6833    184.2986   9.7841371707e+01   3.9147749560e+00    0.3595051    0.3210149 -72.42   0.00111385    1.440    0.306
        26 -11.7104    210.6490    181.6911   9.6766923327e+01   3.7448068947e+00    0.3194932    0.2888723  22.20 0.0009665073    1.027    0.026
        27 -10.7238    211.3252    178.6678   9.6040530417e+01   4.0988046763e+00    0.2879907    0.2373917  63.20  0.001229009    1.431    0.301
        28 -13.8168     53.8417    230.1373   1.3299357417e+02   2.2115819753e+01     3.018799     2.214546  -6.71  0.009061595    6.295    0.841
        29  -9.4470     90.2027    183.7418   1.2157582586e+02   2.5967223907e+01    0.1985956    0.1306103  67.37  0.000525553    1.492    0.330
        30 -12.1509    126.4024    208.1340   1.1772885805e+02   1.5280737676e+01    0.3768268    0.2072295 -50.50  0.001935929    2.116    0.527
        31 -10.6152     99.4139    180.6495   1.1925734309e+02   2.5158895922e+01    0.2240684    0.2045754  81.18 0.0005398063    1.109    0.099
        32 -10.2604    144.8125    179.1292   1.0952658269e+02   1.7400104103e+01    0.1870147    0.1684649  15.72 0.0005347694    1.344    0.256
        33 -12.1305    197.2207    173.3870   9.7723093944e+01   7.8601577533e+00    0.8591044    0.4016102 -52.02  0.003299382    2.902    0.655
        34  -9.1472    171.3214    177.6183   1.0376288258e+02   1.2426230677e+01    0.1469909    0.1099547  85.12 0.0002049488    1.834    0.455
        35 -11.4441    140.9996    176.5156   1.0986991748e+02   1.8644514262e+01     0.253159    0.2013149 -33.60 0.0009632375    1.566    0.362
        36  -8.9620    185.6870    175.2663   1.0039474721e+02   9.9110735769e+00    0.1371609    0.1096396  74.82 0.0002277665    1.544    0.352
        37  -9.6207     71.0947    173.9213   1.2420992091e+02   3.0766285277e+01    0.1890257    0.1387902  72.96 0.0004562408    1.254    0.203
        38 -10.0699     66.9165    233.3523   1.3112260801e+02   1.9858966964e+01    0.1583231    0.1115664  54.92 0.0002747133    1.253    0.202
        39 -19.3549     22.0660    136.7513   1.3017431550e+02   4.4126710746e+01     17.47231     2.435836 -69.56   0.04988388    6.608    0.849
        40 -10.8717    177.5626    170.1716   1.0104334681e+02   1.2516749603e+01    0.2698464    0.1415487 -48.19  0.001148879    2.112    0.527
        41 -11.3730    145.5701    168.5447   1.0746053117e+02   1.9340444445e+01    0.3197913    0.2652918 -54.37 0.0008390253    1.277    0.217
        42 -11.5146    230.4258    166.4969   8.9975859901e+01   2.2163987779e+00    0.3247871    0.1741482 -43.08  0.001458014    2.053    0.513
        43  -9.5624    203.2536    167.2680   9.5289334141e+01   7.6633752430e+00    0.2237066    0.1681826 -88.48  0.001039659    2.117    0.528
        44 -12.5051    116.5342    211.8346   1.2009542291e+02   1.6282008286e+01    0.3751959    0.3168109  86.84 0.0008323686    1.152    0.132
        45 -12.2969     98.4468    156.4255   1.1570814387e+02   3.0426416438e+01    0.6324124    0.4086856 -36.68   0.00305879    2.156    0.536
        46  -9.0147    129.6913    157.3033   1.0883087790e+02   2.4720738206e+01    0.1449038    0.1070298  80.19 0.0004931262    1.605    0.377
        47  -9.0673    120.2312    155.8175   1.1067844623e+02   2.6796967560e+01    0.2372909    0.1433438  79.79 0.0009384283    2.725    0.633
        48 -10.8876    134.0000    148.0156   1.0603960481e+02   2.5841075494e+01    0.4720959    0.2079915 -59.14  0.001700263    2.857    0.650
        49 -11.6331    133.6704    142.8309   1.0504999768e+02   2.7001108344e+01    0.7700026    0.2815163 -57.75  0.002390833    3.785    0.736
        50 -12.1188    144.6890    145.7452   1.0314096383e+02   2.4171912215e+01    0.4810078    0.3758421 -78.17  0.001292341    1.507    0.337
        51 -11.7960    108.8948    140.9028   1.1047263103e+02   3.2037529188e+01    0.5090278    0.3381652 -35.66  0.002428302    1.904    0.475
        52 -12.2100     97.5169    141.3711   1.1326632381e+02   3.3855635833e+01      0.24728      0.23534  50.83 0.0002998216    1.159    0.137
        53 -11.4286    174.3722    148.5689   9.7219562557e+01   1.7297461741e+01    0.3340789    0.3204307 -55.46  0.001086252    1.094    0.086
        54 -11.8938    116.1661    130.8388   1.0666930768e+02   3.2921244024e+01     0.621865    0.4755588   6.25  0.001909426    1.949    0.487
        55 -11.3372    120.3965    124.8048   1.0431438730e+02   3.3433616463e+01    0.5977111    0.3075136 -27.62  0.001857007    4.323    0.769
        56 -11.0578    106.0000    131.0056   1.0918735088e+02   3.4701969532e+01    0.3470933    0.2661867 -60.15  0.001053655    1.256    0.204
        57 -11.3718    103.9076    127.5192   1.0897949327e+02   3.5824917288e+01    0.3266447    0.2531056 -45.33 0.0009677574    1.309    0.236
        58 -10.9121    161.2681    128.9465   9.5638169507e+01   2.4080934816e+01    0.4689669    0.3995078  79.39  0.002377681    1.321    0.243
        59 -11.7391    135.3052    125.2465   1.0079818334e+02   3.0397876680e+01    0.9440597    0.2091703 -48.73  0.002488347    4.734    0.789
        60  -9.5180    138.8658    124.8016   9.9845270523e+01   2.9758167322e+01    0.2029753    0.1736924  85.04 0.0004062479    1.305    0.234
        61 -10.3529    125.0880    127.0654   1.0367572367e+02   3.2047101492e+01     0.239326    0.1785918  85.12  0.001130591    1.729    0.422
        62 -10.6125    111.2618    119.6692   1.0543084514e+02   3.6236880231e+01    0.2683021    0.2427458   4.76 0.0004259176    1.305    0.234
        63 -10.5109    167.8475    112.7394   9.0201074023e+01   2.5822290939e+01    0.3885672    0.2944396  89.86  0.001453188    1.792    0.442
        64 -12.1496     61.5571    107.7526   1.1589075554e+02   4.6377070972e+01    0.4448381    0.2802977 -27.81  0.002241367    2.216    0.549
        65 -11.5964     67.0526    104.7777   1.1379061542e+02   4.6334223256e+01     0.551932    0.2835701 -50.51   0.00271083    1.707    0.414
        66 -10.2783    205.3832    110.2516   8.1795552635e+01   1.7408404918e+01    0.3197675     0.207266  46.83 0.0008962586    1.532    0.347
        67 -10.0475    115.6400    110.6677   1.0221391049e+02   3.7359651362e+01    0.1497645    0.1153357  -6.74   0.00070406    1.802    0.445
        68 -10.3752    134.5413    104.0267   9.5781315506e+01   3.4978968063e+01    0.4664421    0.1446375 -45.35  0.001461441    3.212    0.689
        69  -9.8271     78.7745    232.2507   1.2905944844e+02   1.8425762547e+01    0.1301165    0.1148982  68.41 0.0002118199    1.312    0.238
        70  -9.3087    152.3189     79.2964   8.4683453226e+01   3.5812427697e+01    0.1546811    0.1182111  16.10 0.0003071517    1.613    0.380
        71 -12.1680    173.4001     72.2605   7.8032485496e+01   3.1955270776e+01     0.682032    0.4238634 -85.32  0.001112645    3.096    0.677
        72  -8.8474     73.2975     73.3474   1.0434587173e+02   5.2019772434e+01    0.1360633    0.0929341 -21.91  0.000456563    1.679    0.404
        73  -9.7499      9.8150    214.2414   1.3890531666e+02   2.9847027215e+01    0.1104672   0.07405063  50.12 0.0007869372    1.526    0.345
        74 -10.8590    173.0053    244.9085   1.1418577738e+02   1.2169138406e+00    0.3365205    0.1769965 -53.18  0.001824457    2.571    0.611
        75 -11.3808    170.0776    239.1624   1.1392434653e+02   2.5333023032e+00    0.3311025    0.1649212  44.74  0.001151131    1.596    0.373
