#   1 NUMBER                 Running object number                                     
#   2 MAG_AUTO               Kron-like elliptical aperture magnitude                    [mag]
#   3 X_IMAGE                Object position along x                                    [pixel]
#   4 Y_IMAGE                Object position along y                                    [pixel]
#   5 X_WORLD                Barycenter position along world x axis                     [deg]
#   6 Y_WORLD                Barycenter position along world y axis                     [deg]
#   7 A_WORLD                Profile RMS along major axis (world units)                 [deg]
#   8 B_WORLD                Profile RMS along minor axis (world units)                 [deg]
#   9 THETA_WORLD            Position angle (CCW/world-x)                               [deg]
#  10 FWHM_WORLD             FWHM assuming a gaussian core                              [deg]
#  11 ELONGATION             A_IMAGE/B_IMAGE                                           
#  12 ELLIPTICITY            1 - B_IMAGE/A_IMAGE                                       
         1 -12.8954    138.5707     96.8793   9.1451026953e+01   3.5764804444e+01    0.6299766    0.4518102 -22.99   0.00298172    1.700    0.412
         2 -11.7364     84.0771     21.5486   8.1329986268e+01   6.0463790315e+01    0.3817737    0.3046564  27.68  0.002019013    1.277    0.217
         3 -11.2267     75.0236     17.3013   8.2504284484e+01   6.2743799134e+01     0.316236    0.2366367 -36.02 0.0002573626    1.286    0.223
         4 -10.3914     84.5955     16.2227   7.8747057386e+01   6.1154541173e+01    0.2860158    0.1240401 -27.18   0.00107667    2.286    0.563
         5 -12.4424     83.1039    219.2094   1.2233619595e+02   2.2348978307e+01    0.4624151    0.3254488  11.37  0.002699661    3.362    0.703
         6 -11.0099     95.1163    201.0853   1.1860975146e+02   2.3631557286e+01     0.195133    0.1455902 -87.32  0.001031288    1.378    0.274
         7 -10.3713     59.0040    211.4998   1.2583947534e+02   2.6544741791e+01    0.1559721   0.08138364  44.74 0.0007029179    1.593    0.372
         8  -9.0115    125.3294    198.3317   1.1278099335e+02   1.9615041567e+01     0.108874   0.08893166  14.55 0.0007051818    1.718    0.418
         9 -11.6885     87.3679    186.0948   1.1852183779e+02   2.7263389637e+01    0.2478177    0.1739673  71.64   0.00164887    1.299    0.230
        10 -10.8125    107.4320    182.4432   1.1422876415e+02   2.5004581520e+01    0.2138951    0.1393082  52.83  0.001306625    1.308    0.235
        11 -12.3413     93.4582    177.5221   1.1638425150e+02   2.7941296459e+01    0.5662491    0.1678888  43.84  0.002434114    2.827    0.646
        12 -12.6749     72.6657    172.4537   1.1997180411e+02   3.1716482326e+01    0.5998892    0.2611573 -79.77  0.002832884    2.896    0.655
        13  -9.3550     54.6467    176.6898   1.2393673891e+02   3.3129107203e+01   0.09611917   0.08548745 -39.70 0.0007044096    1.724    0.420
        14 -10.1436    120.5005    175.0021   1.1068135247e+02   2.4260148404e+01    0.1745806    0.1203184 -58.70  0.001040878    1.614    0.381
        15 -11.3119     78.5030    175.5108   1.1912914140e+02   3.0380078113e+01    0.2266954    0.1748287 -25.36  0.001385026    2.364    0.577
        16 -11.6068     90.0953    169.1337   1.1605994228e+02   2.9969149228e+01    0.2523501    0.1467372  40.62  0.001434997    1.659    0.397
        17  -9.6729     65.3217    169.3191   1.2112937441e+02   3.3239186517e+01    0.1008412   0.08881429 -39.20 0.0007043857    1.669    0.401
        18 -13.0698     94.2147    161.5464   1.1423699044e+02   3.0808530040e+01      0.64844    0.3359563  30.13  0.003082801    2.610    0.617
        19 -12.7345     76.2446    158.3783   1.1764842361e+02   3.3951073008e+01    0.4858945    0.3352546  53.32   0.00307073    1.308    0.235
        20  -9.3719    124.6544    162.3265   1.0797472928e+02   2.5833027398e+01    0.1341555   0.09132228  72.75 0.0007050321    1.746    0.427
        21 -10.1051    118.4996    152.5111   1.0771509741e+02   2.8692770809e+01    0.1294514    0.1152721  65.82 0.0002370959    1.012    0.012
        22 -12.1938    101.0533    148.4755   1.1088747750e+02   3.2312061889e+01    0.4095245    0.2677626  23.93  0.002090196    2.219    0.549
        23 -12.7122     95.9348    143.4384   1.1125466479e+02   3.4108398815e+01     0.624895    0.3538172 -33.58  0.002648646    3.416    0.707
        24 -10.1885     52.2515    135.9966   1.2029803350e+02   4.1471576912e+01    0.1581021    0.0884308 -71.48 0.0005499478    1.591    0.372
        25 -11.4503    115.8401    134.5717   1.0519994354e+02   3.2637101188e+01    0.3074935    0.2048514 -69.74  0.001575155    1.714    0.417
        26 -11.4988     82.6473    132.4525   1.1262070850e+02   3.8333909509e+01    0.2806627    0.2020569  26.01  0.001586108    1.803    0.445
        27 -12.4854     89.6828    141.3174   1.1235163535e+02   3.5479612901e+01    0.4058913    0.3442304 -17.23  0.002482529    1.733    0.423
        28  -9.6208    123.3257    130.6539   1.0273568169e+02   3.2087393104e+01    0.1424308    0.1033206  82.03 0.0007050151    1.746    0.427
        29 -11.4157     97.4421    128.3580   1.0839218731e+02   3.6959149616e+01    0.2343737    0.2121008  51.40 0.0009724626    1.147    0.128
        30  -9.9897    187.4845    123.5009   8.7427506567e+01   2.0405820137e+01    0.1424923    0.1336001  26.39 -5.661914e-05    1.018    0.018
        31  -9.6257    105.3332    119.3284   1.0477114955e+02   3.7544476430e+01     0.132644    0.1082074 -14.07 0.0007051812    1.719    0.418
        32 -10.9709     78.4944    118.5200   1.1133558673e+02   4.1877786622e+01    0.2814544    0.1167371 -59.86  0.001233949    2.247    0.555
        33  -9.5052    183.6775    118.6681   8.7046813411e+01   2.2024732945e+01    0.1513728    0.1094929  13.99 0.0007049966    1.701    0.412
        34 -11.1029     95.6848    115.4734   1.0641096908e+02   3.9942618177e+01    0.2835596     0.198857 -88.01  0.001457781    1.728    0.421
        35 -12.3697    143.9959    108.6785   9.3140551502e+01   3.2355349550e+01    0.7020007    0.2883663 -33.76  0.002366658    3.315    0.698
        36 -12.4390    124.7227    106.5173   9.7203405125e+01   3.6659365491e+01    0.5534279    0.3117094  37.79  0.002447645    1.935    0.483
        37 -11.8664    112.8476    106.1354   1.0007139069e+02   3.8966998290e+01    0.3898107    0.2588086 -51.69  0.001950867    1.479    0.324
        38 -10.3409     97.5952    226.7967   1.2053847073e+02   1.9295116058e+01    0.1345764   0.08796526  87.88 0.0005996631    1.711    0.416
        39 -12.4431    147.7220     96.3168   8.9154153655e+01   3.3908931977e+01    0.5843034      0.39524 -74.92  0.002433781    2.361    0.577
        40 -12.4253    117.6366     95.6386   9.6323370062e+01   4.0232018088e+01    0.4516516    0.3759795  25.76  0.002438186    1.373    0.272
        41 -10.3803    183.0534     82.5050   7.7798507142e+01   2.8160741895e+01    0.2377144    0.1480611  53.38 0.0007621058    1.606    0.377
        42  -9.5240    176.3254     80.3299   7.8516036359e+01   3.0140145559e+01    0.1606039    0.1161423  17.16 0.0007050504    1.703    0.413
        43  -9.6470    168.3109     78.3283   7.9585579740e+01   3.2404345492e+01    0.1585101    0.1173083  15.19 0.0003548108    1.665    0.399
        44 -10.2291     56.7799     78.1969   1.0947192724e+02   5.3527592499e+01    0.2113217    0.1328387 -31.21    0.0010706    2.092    0.522
        45 -10.6268    184.0651     77.6346   7.6218636402e+01   2.8699767501e+01    0.3506879    0.1435427  55.14  0.001243365    2.457    0.593
        46  -9.5709    169.6667     71.3175   7.7231232572e+01   3.3246501544e+01    0.1566576    0.1204592 -70.89 0.0007047937    1.692    0.409
        47 -11.1561    115.1030     84.4064   9.4028528900e+01   4.3003399595e+01    0.3067165    0.1880452 -61.08  0.001339025    1.973    0.493
        48  -9.5001    132.3535     62.3151   8.2893171610e+01   4.3619648492e+01    0.1570701    0.1158131  13.20 0.0007045912    1.737    0.424
        49  -9.2411    119.3309     57.9981   8.4846847146e+01   4.7247188597e+01    0.2485515    0.1049162 -54.91  0.000705211    4.370    0.771
        50 -11.8508     96.3561     50.8762   8.8988327263e+01   5.3157816581e+01     0.476335    0.2949781 -23.29  0.001012848    1.949    0.487
        51  -9.6411    160.5495     51.2301   7.2779272261e+01   3.8713049325e+01    0.3451679   0.07727788  47.39 0.0008869947    4.467    0.776
        52 -10.1932    107.5116     37.5101   8.0742045784e+01   5.3296010171e+01    0.1430594    0.1333671 -14.70  0.000331117    1.022    0.021
        53 -10.4726    113.3061     35.6738   7.8410827254e+01   5.2353183737e+01    0.3020349    0.1751484  -9.12  0.001181735    2.527    0.604
        54  -9.3681     89.3199     31.3189   8.3785565594e+01   5.7929130550e+01    0.1423544    0.1024415   2.53 0.0003744612    1.664    0.399
        55  -9.6010     90.3205    224.6706   1.2156975778e+02   2.0577573648e+01    0.1112145   0.06098298  64.58 0.0007048349    1.690    0.408
        56 -11.3307     70.3274    213.8360   1.2408337374e+02   2.4807419601e+01    0.2372997    0.1154693 -79.62  0.001461047    2.272    0.560
        57 -10.1447     69.6950     19.0399   8.5230413483e+01   6.3379721432e+01    0.1910119    0.1546857 -24.08  0.000557864    1.076    0.070
