#   1 NUMBER                 Running object number                                     
#   2 MAG_AUTO               Kron-like elliptical aperture magnitude                    [mag]
#   3 X_IMAGE                Object position along x                                    [pixel]
#   4 Y_IMAGE                Object position along y                                    [pixel]
#   5 X_WORLD                Barycenter position along world x axis                     [deg]
#   6 Y_WORLD                Barycenter position along world y axis                     [deg]
#   7 A_WORLD                Profile RMS along major axis (world units)                 [deg]
#   8 B_WORLD                Profile RMS along minor axis (world units)                 [deg]
#   9 THETA_WORLD            Position angle (CCW/world-x)                               [deg]
#  10 FWHM_WORLD             FWHM assuming a gaussian core                              [deg]
#  11 ELONGATION             A_IMAGE/B_IMAGE                                           
#  12 ELLIPTICITY            1 - B_IMAGE/A_IMAGE                                       
         1 -10.7595      1.7932     36.7621   1.0770155403e+02   6.8106283917e+01    0.7390001    0.1703441 -63.46  0.002671526    4.371    0.771
         2 -10.7858      1.9497     22.7961   1.0318080871e+02   7.0739008258e+01     1.009863    0.1259319 -58.21  0.002647106    8.760    0.886
         3 -10.2531      2.1070      7.2095   9.6852649839e+01   7.3403247695e+01     1.079392    0.1652055 -52.51  0.003248275    7.345    0.864
         4 -11.9891    222.9501     16.8010   3.9581374493e+01   2.7606499529e+01    0.8825859    0.7591187  64.87  0.005579299    1.274    0.215
         5 -11.9377    207.1295     33.0269   4.5326804213e+01   2.9421898523e+01    0.8402176    0.7562996  86.68  0.003656257    1.064    0.060
         6 -10.9861    214.6709     25.7029   4.2590476291e+01   2.8512827588e+01    0.5591722    0.4070473  51.77  0.001345474    1.539    0.350
         7  -8.7857     32.7682     31.0228   9.0901154676e+01   6.6824571531e+01    0.1655642   0.08708666 -43.99 0.0008860069    1.663    0.399
         8 -12.4595     97.1251    245.8881   1.1341308430e+02   1.1414119271e+01     2.212898    0.3334563  41.30  0.007375518    4.450    0.775
         9 -10.2747     71.3068    248.4022   1.1838097437e+02   1.4576448802e+01    0.5524434    0.2750187  49.04  0.003081482    1.549    0.354
        10 -10.5527     40.1661    234.2205   1.2296653771e+02   2.1076800356e+01    0.4301326     0.211742  72.08  0.001621905    1.883    0.469
        11 -11.9111     32.0803    246.5444   1.2511494595e+02   1.9734372809e+01    0.8959553    0.6496564 -71.70  0.006724765    1.600    0.375
        12 -11.6855     23.7725    225.0088   1.2534386661e+02   2.4669030145e+01    0.9636334    0.3836797  45.91  0.005169003    2.000    0.500
        13 -11.8769     36.0909    208.0038   1.2190302486e+02   2.6744730675e+01    0.7450092    0.5699003 -16.20   0.00447311    2.560    0.609
        14 -13.4895     43.6647    196.8512   1.1946070189e+02   2.8242128318e+01     3.108727     1.138232  63.85   0.01203299    3.566    0.720
        15 -10.5875     83.9062    226.1093   1.1401974345e+02   1.6938527226e+01    0.6832452     0.294392 -64.90  0.003353459    2.494    0.599
        16 -10.5674    142.5690    228.1682   1.0248804199e+02   7.3957590580e+00    0.3847111    0.2002699  50.12  0.001895118    1.814    0.449
        17  -9.7254    103.2149    228.3203   1.1041221798e+02   1.3658332376e+01    0.3348497    0.1013803  51.28  0.001213631    3.469    0.712
        18 -10.7334     46.2180    221.6462   1.2096581021e+02   2.2794573860e+01    0.5792403    0.2911538  68.99  0.002900929    1.886    0.470
        19 -12.4908      5.1768    185.7146   1.2654042633e+02   3.4525805354e+01     1.658447    0.5404411 -81.84  0.001640377    2.599    0.615
        20  -8.9678     37.2204    223.4901   1.2279113098e+02   2.3485446301e+01    0.2112062    0.1575366  71.70 0.0004273977    1.011    0.011
        21  -9.1467     94.6212    221.5736   1.1139312212e+02   1.6241669847e+01    0.2327252    0.1921684 -81.54 0.0008856999    1.263    0.208
        22 -10.9471    114.8094    230.6848   1.0837024006e+02   1.1430434891e+01    0.4859236    0.2513036 -63.58  0.002485821    2.313    0.568
        23  -9.3160    164.4851    220.0379   9.6886620808e+01   5.0952802868e+00    0.1791183    0.1316969 -46.18  0.000984994    1.582    0.368
        24  -9.5258     74.7227    219.9184   1.1523857919e+02   1.9445074717e+01    0.2326426    0.1521712  82.67  0.001360016    1.531    0.347
        25  -8.9032     54.0067    231.4574   1.2024011628e+02   1.9927855536e+01    0.1770694    0.1290965  83.72 0.0006096019    1.207    0.171
        26  -8.9815     28.0448    200.5038   1.2294606336e+02   2.9192357071e+01    0.2344964    0.1287787  79.95  0.001345986    1.621    0.383
        27  -8.2198    193.7386    191.4353   8.6026224667e+01   4.8104619687e+00    0.2413431    0.1629297 -14.86  0.001182911    1.807    0.447
        28 -11.1007     61.5471    249.8233   1.2022827716e+02   1.5602045876e+01    0.7251773     0.357979  38.34  0.001944783    1.871    0.465
        29 -14.1380      5.3225    137.9893   1.2295526469e+02   4.5259067489e+01     6.221352     1.281991 -78.89   0.01932684    5.018    0.801
        30 -10.2850     63.1397    180.0223   1.1344846474e+02   2.9570629124e+01    0.4328296    0.3051783 -28.78  0.002213399    2.359    0.576
        31 -10.0209     67.9201    174.6119   1.1166245206e+02   3.0173667533e+01    0.2919769    0.2401212 -52.07 0.0007551473    1.395    0.283
        32  -9.1218     62.3969    236.6939   1.1908667673e+02   1.7870112064e+01    0.2462755    0.1347848  65.39  0.000764328    1.646    0.392
        33 -13.8320      8.1041    239.3916   1.2875689016e+02   2.3558607652e+01     2.108232     1.130424 -82.11   0.01455653    1.646    0.392
        34  -8.9008     93.9850    168.4934   1.0447594155e+02   2.7722063607e+01    0.2132914    0.1024838  57.50 0.0007314202    2.574    0.612
        35 -10.1369     77.6193    164.6651   1.0793195394e+02   3.1133929864e+01     0.274752    0.2366724 -69.41 0.0005445047    1.135    0.119
        36 -10.7834     84.3128    158.5162   1.0529217693e+02   3.1592603576e+01    0.7418744    0.4106982 -49.72  0.002158684    1.897    0.473
        37 -11.7069     64.9659    160.7970   1.1053406671e+02   3.3821171287e+01    0.4827235    0.2884922 -46.78  0.001369861    1.941    0.485
        38  -9.4058     33.0254    156.0965   1.1788862752e+02   3.8668047085e+01    0.2969207    0.1571915 -79.04  0.001519336    1.667    0.400
        39 -11.5440     72.7483    154.6129   1.0764097790e+02   3.4234133620e+01     2.179393     1.028367  82.52  0.005688459    6.550    0.847
        40 -10.4007     70.3981    145.2139   1.0675600488e+02   3.6841236137e+01    0.4009124    0.3335377  85.88  0.001255049    1.161    0.138
        41 -10.6671     67.6946    142.3522   1.0701275306e+02   3.7911413623e+01    0.4671808     0.288478  51.17  0.001562547    1.708    0.414
        42 -12.9112      9.0159    207.4508   1.2704863016e+02   2.9635041593e+01     0.894829    0.8432141 -84.91  0.004410304    1.475    0.322
        43 -10.5140     86.8259    142.1248   1.0177713842e+02   3.5149086300e+01    0.2927463    0.2675646 -45.18 0.0004155766    1.184    0.155
        44  -8.6969    133.6805    141.5359   8.9320818652e+01   2.6760348986e+01    0.2933446    0.1409086 -49.22  0.001106283    2.087    0.521
        45 -10.5286     59.2470    134.4348   1.0802612942e+02   4.0956615865e+01    0.5559015    0.2395114 -74.64   0.00207237    2.820    0.645
        46  -8.6957    109.6651    131.6949   9.3419661982e+01   3.3728537274e+01    0.2770776    0.2423034  18.67 0.0007659075    1.313    0.238
        47  -8.5250    106.3527    131.6839   9.4320779786e+01   3.4340640053e+01    0.3265426    0.2298382  82.04  0.001417654    1.954    0.488
        48  -8.6613     32.5220    128.8383   1.1467190263e+02   4.5251821133e+01    0.3192616    0.1131896 -71.02  0.001284956    2.495    0.599
        49  -8.7219     97.0823    127.9195   9.6068232692e+01   3.6890110175e+01    0.2589054    0.2078466 -37.38 0.0008261641    1.347    0.258
        50  -9.1750     98.8189    143.4897   9.8811849755e+01   3.2844071894e+01    0.2835074    0.2405653 -44.11 0.0007243617    1.251    0.201
        51  -8.2982    106.8256    120.1528   9.1549086129e+01   3.6991236367e+01    0.2012687     0.175677 -22.56 0.0002821314    1.291    0.225
        52 -10.9938    128.2207    230.3723   1.0565408433e+02   9.3538656941e+00     0.421646    0.2637776  32.97  0.002313933    1.556    0.357
        53  -7.8767    205.4933    110.4582   6.5722522113e+01   1.7355514032e+01    0.1500466    0.1427945 -25.87 4.253564e-05    1.029    0.028
        54  -9.3131     32.8705    107.5872   1.1129773768e+02   5.0350617608e+01    0.4222713   0.08041964 -66.73  0.001203301    4.840    0.793
        55 -11.1240    122.8142    225.2226   1.0609237887e+02   1.1147644170e+01    0.8082703    0.3888964 -63.61  0.003790865    2.638    0.621
        56  -8.7509    249.3457     88.1724   5.3402855077e+01   1.1675793343e+01    0.2764642    0.1587375 -89.72  0.001084476    3.320    0.699
        57 -11.0313     89.1648    228.4097   1.1321229625e+02   1.5739377936e+01    0.4194148    0.2689716 -83.69 0.0005904109    1.725    0.420
        58  -8.2949     73.1997     83.8256   9.2521157569e+01   5.1121590878e+01    0.2126859    0.1906791  86.92 0.0008503824    1.344    0.256
        59  -9.8160     13.0417     59.9800   1.0879652329e+02   6.2727061148e+01    0.1931422    0.1447357 -46.55 0.0007154711    1.057    0.054
        60  -7.8600     59.5972     55.7640   8.8707177289e+01   5.8980946681e+01    0.1788678    0.1205393 -52.83 0.0004341905    1.572    0.364
        61 -10.7653    114.5008    242.3840   1.0975642604e+02   9.4245075906e+00    0.5486064    0.2002214 -62.97  0.002383615    3.625    0.724
        62 -10.9240     83.6046    250.0014   1.1628475677e+02   1.2624806309e+01    0.8836622    0.2530645  39.55  0.003861556    2.826    0.646
        63 -10.6529    127.3222    241.0979   1.0713850221e+02   7.6570146058e+00    0.2888599    0.2441782 -78.24  0.001961108    1.396    0.283
        64  -9.2277    138.1293     44.0303   6.0264732389e+01   4.5279143701e+01    0.2516156    0.2028446  58.76 0.0004197933    1.209    0.173
        65 -11.2809    134.3769    234.8100   1.0499158404e+02   7.5964496957e+00    0.7156041    0.3356011 -47.91  0.003515456    2.606    0.616
        66 -11.5873    198.4557     39.2306   4.8095020576e+01   3.0745183454e+01    0.7408165    0.5374908  59.42   0.00275154    1.367    0.268
        67 -10.9067    119.8715    240.8022   1.0854571623e+02   8.8680222099e+00    0.3000383    0.2450668 -66.97  0.002017717    1.448    0.309
        68  -8.9551     52.8902    241.2967   1.2116217285e+02   1.8226358777e+01    0.1912124    0.1427122 -79.31 0.0008142471    1.399    0.285
        69  -7.9054    142.3066     39.6653   5.7876172098e+01   4.4870719224e+01    0.1490633    0.1114729 -68.66 0.0007040582    1.670    0.401
