#   1 NUMBER                 Running object number                                     
#   2 MAG_AUTO               Kron-like elliptical aperture magnitude                    [mag]
#   3 X_IMAGE                Object position along x                                    [pixel]
#   4 Y_IMAGE                Object position along y                                    [pixel]
#   5 X_WORLD                Barycenter position along world x axis                     [deg]
#   6 Y_WORLD                Barycenter position along world y axis                     [deg]
#   7 A_WORLD                Profile RMS along major axis (world units)                 [deg]
#   8 B_WORLD                Profile RMS along minor axis (world units)                 [deg]
#   9 THETA_WORLD            Position angle (CCW/world-x)                               [deg]
#  10 FWHM_WORLD             FWHM assuming a gaussian core                              [deg]
#  11 ELONGATION             A_IMAGE/B_IMAGE                                           
#  12 ELLIPTICITY            1 - B_IMAGE/A_IMAGE                                       
         1 -11.1050     74.2654     55.8093   1.1169416494e+02   5.8033679364e+01     1.574557     1.051113 -72.19  0.005959256    2.239    0.553
         2 -12.5083    180.0428     25.8020   7.2027735298e+01   3.6592162135e+01     2.147715     1.066412  60.37  0.006808107    1.892    0.471
         3 -11.0864    107.9978     32.5772   8.9573306020e+01   5.5135648641e+01     1.451453    0.9294991 -34.63  0.006200717    1.608    0.378
         4 -11.9106    148.1910     20.0550   7.4923189197e+01   4.5991900978e+01     1.753665    0.9094966 -18.74  0.007020453    2.153    0.536
         5 -12.4134    163.8338     10.8268   6.9153166615e+01   4.2598131129e+01     1.872379     1.192741   6.78  0.008309065    2.021    0.505
         6 -11.3793     17.6527     40.4206   1.3574047977e+02   6.8302988058e+01     1.792586     1.112626  60.11   0.00923347    2.123    0.529
         7 -12.4056     52.1706     36.5127   1.1465605852e+02   6.5764755087e+01      2.44656     1.195852 -48.16    0.0107014    1.909    0.476
         8 -12.7688     88.0210     51.6510   1.0453929062e+02   5.6287871277e+01     2.291659     1.546522 -14.76  0.009778083    1.998    0.500
         9 -12.5545    134.6860      5.6543   7.1553213663e+01   5.1239874198e+01     1.847013    0.6893685  64.19  0.006725181    2.293    0.564
        10 -12.6188     71.7505     31.1662   1.0253048212e+02   6.3516046375e+01     2.169766    0.9744293  46.16   0.00856374    2.319    0.569
        11 -12.3586     87.6485     22.7440   9.1812184625e+01   6.1544064790e+01     1.746893     1.123397 -35.43  0.003982166    1.602    0.376
        12 -12.6435     38.3749     51.1480   1.2717852882e+02   6.4107571478e+01     3.105048     1.056359 -47.48   0.01180943    2.620    0.618
        13 -11.7849     28.7726     26.3867   1.2431435701e+02   7.0739838551e+01     1.579292    0.5639948 -49.52  0.006636091    2.277    0.561
        14 -12.2406      9.6325     26.6994   1.3731652292e+02   7.1927800756e+01     1.303159    0.4241014   2.96  0.005145558    3.835    0.739
        15 -13.5242      6.2573     10.8327   1.3498743293e+02   7.5662406228e+01     1.638851    0.9574204 -42.52  0.009546452    1.387    0.279
        16 -12.2170     19.2423     13.6645   1.2565730562e+02   7.4302643685e+01     1.076041    0.6066012 -24.45   0.00560199    1.823    0.452
        17 -12.4707     41.2395     16.9425   1.1167461641e+02   7.1273946301e+01     1.229144    0.7906123 -51.06  0.006021165    1.652    0.395
        18 -12.1710     50.4590     10.9789   1.0254396879e+02   7.0927528460e+01    0.4841085     0.349092  31.07  0.000753408    1.359    0.264
        19 -12.7855     62.6230      4.4333   9.1922325300e+01   6.9615280220e+01     2.655356    0.5469511  52.01   0.00742503    5.125    0.805
        20 -11.8351     78.1413      7.3384   8.7064570695e+01   6.5856079517e+01    0.6341772    0.4331142   4.11 0.0008641466    1.640    0.390
        21 -11.8981    124.6068     52.7965   9.2843564171e+01   4.7616827914e+01     2.572139     1.415334  -1.64  0.006798217    5.202    0.808
        22 -11.6438    110.5672     65.0585   1.0151585278e+02   4.8678522570e+01     2.472979     1.315999 -16.07   0.00674354    4.831    0.793
        23 -13.3620     98.8355      7.3866   8.0272355800e+01   6.0788582690e+01     1.160334    0.8224903  54.20  0.002308793    1.288    0.223
        24 -12.2270    111.9452     22.2988   8.3840955912e+01   5.5597844550e+01    0.8461822    0.6507844  71.22   0.00152142    1.405    0.288
        25 -10.6897    121.8664     37.7964   8.7779847770e+01   5.0789933858e+01     2.032043     1.103636  21.78  0.006657521    3.252    0.692
        26 -12.0594     68.5930     20.5142   9.8582097301e+01   6.6002081476e+01     1.151791    0.5717896  29.16  0.004006129    2.543    0.607
        27 -12.4085    121.6756     15.6095   7.8408950559e+01   5.3820730606e+01     1.838996    0.3622148  59.17  0.005130772    3.788    0.736
        28 -12.1047    130.5540     20.0130   7.8331568162e+01   5.0883181861e+01      1.35824    0.5426368  60.41  0.004746855    2.238    0.553
        29 -11.7859     58.0336     69.6716   1.2312217804e+02   5.7328319272e+01     2.034814     1.041784 -75.88  0.007435868    3.022    0.669
        30  -9.2181    222.1123     11.5467   6.3489927529e+01   2.7374481195e+01    0.3972126    0.1831118 -43.22  0.001820366    1.916    0.478
        31 -10.0147    212.8771     15.2267   6.5250595370e+01   2.9243509978e+01    0.6378939     0.236952 -36.41  0.002606413    2.288    0.563
        32  -9.6591    217.3593     14.3830   6.4634609261e+01   2.8236510624e+01    0.4563765     0.270381 -10.34  0.002025004    1.974    0.493
        33 -10.7797    243.3027     20.3664   6.4148691389e+01   2.1709442933e+01    0.6511155     0.479777  70.69   0.00394004    1.479    0.324
        34 -10.8082    232.7724     11.3738   6.2660210532e+01   2.4918411074e+01    0.9433661    0.4130695 -71.59  0.003504558    2.943    0.660
        35 -12.6569    223.8847      2.0328   6.0854561921e+01   2.7830792495e+01    0.5076631    0.2612247  81.22 0.0009405666    1.979    0.495
        36  -9.5634    230.9535     21.9084   6.5499628059e+01   2.4293518097e+01    0.4570498    0.2188521 -44.39 0.0007345421    1.871    0.466
        37  -9.6114    231.4575     17.2470   6.4258636839e+01   2.4647572839e+01    0.3549775    0.1896357 -48.23  0.001150383    1.716    0.417
        38 -10.5439    201.9950     19.3274   6.7450588372e+01   3.1546610551e+01    0.6519598    0.3568061  51.18  0.002965427    1.931    0.482
        39  -9.3703    198.0913     16.6749   6.7067942726e+01   3.2816231058e+01     0.284054    0.2342389  46.90 0.0009640436    1.308    0.236
        40  -9.0382    178.3162     15.3513   6.8855203712e+01   3.8178644158e+01    0.3389125    0.2574561  23.88  0.001702323    1.552    0.356
        41 -11.8485    114.0089      8.8750   7.7114518376e+01   5.6628202690e+01     1.455281    0.6010718  44.33  0.005354517    2.355    0.575
        42  -9.9977    242.9518     12.5412   6.2257059061e+01   2.2548226765e+01    0.3930538    0.2411554 -21.22  0.001799509    1.587    0.370
        43 -10.2006    189.8748      8.3481   6.5372468795e+01   3.5767348082e+01    0.2910738    0.2269635  62.53 0.0003179682    1.272    0.214
        44 -10.3514    196.1742      4.1223   6.3514621575e+01   3.4504685285e+01    0.7014428    0.5067768 -42.69  0.003776178    1.313    0.239
        45 -11.3673    204.2176      6.6470   6.3570177037e+01   3.2218343106e+01    0.4764842    0.3880038  25.81 0.0003002388    1.466    0.318
        46 -11.6241    209.3224      3.5815   6.2295959949e+01   3.1215956129e+01    0.5772042    0.3298723 -89.16 0.0006161662    1.803    0.445
        47  -8.8119    180.5098      7.8341   6.6166386814e+01   3.8313411957e+01    0.4198652    0.1997354 -32.31   0.00178156    2.002    0.501
        48  -9.1912    171.3658      1.2457   6.4963548228e+01   4.1382917052e+01    0.3085296     0.123345  77.26            0    2.426    0.588
        49 -10.6234    173.5126      8.6356   6.7205593244e+01   4.0139563964e+01    0.2735992    0.2566994 -18.23 0.0005412296    1.150    0.131
        50 -10.1280    175.2998      4.2224   6.5541197776e+01   4.0051563877e+01    0.4369527    0.2558129  67.51  0.001360565    1.580    0.367
        51 -10.6268    248.2359      5.8959   6.0331786352e+01   2.2033321336e+01    0.5708786     0.361152 -46.69  0.003187672    1.336    0.252
        52  -9.2287    157.8791      7.3113   6.8688304954e+01   4.4586706400e+01    0.2758827     0.197072 -68.32 0.0008719338    1.505    0.336
        53  -8.7996    241.7859      1.4356   5.9626580927e+01   2.3822421421e+01    0.2157769    0.1147554  89.43  0.001068063    2.000    0.500
        54  -8.4273    189.7407      1.3681   6.3242175052e+01   3.6425919102e+01    0.1916975    0.1177068  65.16 0.0007341755    1.557    0.358
        55 -13.2618     12.4596    107.2394   1.4719306585e+02   5.2106077072e+01     3.306792     0.857074 -50.39   0.01145831    4.415    0.774
        56  -9.2752    145.9832      1.3367   6.8069563044e+01   4.8444876691e+01    0.2096667    0.1283849  72.34            0    1.502    0.334
        57  -8.2559    110.4298      1.4074   7.4359692874e+01   5.8311622552e+01    0.1459888    0.1324701  53.57 9.667138e-05    1.023    0.022
        58 -10.0795     67.0899    115.0732   1.2957303005e+02   4.4942642553e+01    0.6172896    0.2186408  43.81  0.001900461    2.780    0.640
        59  -9.9721     91.7123    120.4727   1.2266376607e+02   3.9934500063e+01     0.410618    0.3274048 -24.54  0.002082496    1.551    0.355
        60  -8.6460    235.3218    249.6749   1.1230384405e+02  -3.1641755083e+00   0.08965959   0.06972746  29.98 0.0007047291    1.683    0.406
        61  -9.2774     17.4823    248.9736   1.5184060239e+02   2.3233104907e+01    0.1809423   0.06091852  39.52 0.0007584631    1.821    0.451
        62 -12.1519     75.3938     73.2687   1.1694871168e+02   5.3859778515e+01     1.759362      1.04125  18.66      0.00718    2.260    0.558
        63  -8.5279     25.7682    248.6397   1.5036454307e+02   2.2525764689e+01    0.1472277   0.05668693  41.00 0.0006877446    1.639    0.390
        64  -8.8567     33.9954    247.2252   1.4883874148e+02   2.1956217695e+01    0.1388046   0.06079002  34.84 0.0008818773    1.681    0.405
        65  -9.8194    141.8839    243.7939   1.2809731922e+02   9.5604043324e+00    0.2681463    0.1696126  15.37  0.001016721    1.726    0.421
        66  -9.0411    210.6022    240.2665   1.1513957745e+02   7.5490876192e-01    0.1616421   0.09997001 -31.37  0.001029686    2.041    0.510
        67  -8.9611    113.2525    238.9790   1.3317089650e+02   1.4033277887e+01    0.1178113    0.1000261 -68.50 0.0009005864    1.619    0.382
        68 -11.0999     48.6780     25.5311   1.1159960608e+02   6.8539034128e+01    0.4650048    0.2336745  32.91  0.001392606    2.057    0.514
        69  -9.5147     12.3513    232.5048   1.5238114781e+02   2.6277196578e+01    0.2489057   0.07919323  51.26  0.001475506    1.985    0.496
        70  -8.2546    226.9894    231.7412   1.1117574519e+02  -5.1474597358e-01    0.1408001   0.07004363  30.44 0.0006783504    1.499    0.333
        71 -13.2251     47.1248     88.2550   1.3193603923e+02   5.4039389038e+01     5.596418      2.01051  25.68    0.0211655    2.950    0.661
        72  -8.9888    136.6383    224.8251   1.2706061582e+02   1.2855672551e+01    0.1338295    0.1141104 -82.45 0.0008072111    1.709    0.415
        73  -8.3562     40.6605    221.6538   1.4654138287e+02   2.5433536748e+01   0.09433904   0.08205306 -16.65 -0.0001806455    1.784    0.439
        74 -11.7392     37.0101     27.4438   1.1948850496e+02   6.9661765853e+01    0.3681888    0.2593212  14.92  0.001056575    1.506    0.336
        75 -12.5754     44.1450     67.0519   1.2862368215e+02   5.9644296576e+01     1.227559    0.8516954  55.73   0.00625493    1.704    0.413
        76  -8.1625    244.5440    204.4975   1.0408789258e+02  -1.1153566533e-01    0.1156531   0.08130281  10.18 0.0008090277    1.006    0.006
        77 -10.2936     26.7741    191.6393   1.4811035738e+02   3.2279395040e+01    0.3455672    0.2368984  64.96  0.002384648    1.191    0.160
        78 -11.6789     18.0688    186.2516   1.4983494531e+02   3.4103608072e+01    0.3179563    0.2591981  15.19 0.0002657673    1.557    0.358
        79 -10.1118     11.9044    184.6532   1.5115968340e+02   3.4926484332e+01    0.2074895    0.1493849 -86.80  0.001479767    1.376    0.274
        80 -10.6524      5.1510    185.1946   1.5267183875e+02   3.5343741623e+01    0.5215389    0.1126796  45.46  0.002481023    2.691    0.628
        81  -9.8241     39.0280    177.0212   1.4446348196e+02   3.4031829320e+01    0.3342446     0.210657 -72.53  0.001825227    1.665    0.399
        82  -9.4676      1.7065    177.9150   1.5325372712e+02   3.7032998585e+01    0.1607636    0.1117769  69.18  0.001145555    1.132    0.117
        83  -8.2291     79.3374    177.3456   1.3455801406e+02   2.9229680105e+01    0.1233322   0.09858023 -15.48 0.0007048506    1.776    0.437
        84 -10.3055    106.9901    119.8141   1.1788954493e+02   3.7413021438e+01    0.4427154    0.2908399  58.00  0.001970529    1.749    0.428
        85  -9.4098     41.4896    118.4599   1.3857624276e+02   4.7095820472e+01    0.2261843    0.1816549  58.77 0.0006857567    1.182    0.154
        86  -9.2053     39.4316    115.4845   1.3889910482e+02   4.8024911185e+01    0.2647288      0.18012  70.28 0.0007706762    1.477    0.323
        87  -9.8067     12.7210    117.1775   1.4780024875e+02   4.9694965173e+01    0.3156475     0.181752  35.76   0.00161112    1.706    0.414
        88  -9.9517     97.6938    114.7531   1.1961727716e+02   4.0241287444e+01    0.3257762    0.3107046  20.32 0.0008284267    1.089    0.082
        89  -9.6306     54.7001    115.6694   1.3380747027e+02   4.6357891385e+01     0.363818     0.169016 -32.53   0.00118256    4.440    0.775
        90  -9.0559     27.8355    115.8938   1.4279766790e+02   4.8940230475e+01    0.1830951    0.1525169 -66.45 0.0002603584    1.193    0.162
        91  -8.8000    118.9701    116.0000   1.1353072215e+02   3.5974662352e+01     0.257535   0.08305323  40.45 0.0008003465    2.928    0.658
        92 -10.0932    132.9836    111.3188   1.0847960188e+02   3.4102477919e+01    0.5617986    0.3963538  33.32  0.002388843    1.412    0.292
        93 -10.0631    133.7116    104.5932   1.0656154817e+02   3.5337971684e+01    0.5718229    0.3037508 -43.33  0.002281386    1.972    0.493
        94  -9.1136     92.7575    111.9472   1.2056369689e+02   4.1753122419e+01    0.3139318    0.2519918  56.82  0.001601467    1.280    0.219
        95  -9.0271     45.3001    112.9193   1.3658775776e+02   4.8072882193e+01    0.2368616    0.1672127  42.28  0.001286032    1.389    0.280
        96  -9.3955    195.2191    112.5779   9.4413429522e+01   2.0321112175e+01    0.2138585    0.1265406  36.48 0.0009574253    1.693    0.409
        97 -10.1893    105.5927    109.5513   1.1599348656e+02   3.9995022797e+01     0.361125    0.3358318  33.14  0.001803773    1.054    0.051
        98  -9.2317     76.0252    102.7090   1.2414311352e+02   4.6676218892e+01    0.3476004    0.2876863  48.64  0.001521515    1.202    0.168
        99  -9.3004     81.0307    102.0985   1.2227960550e+02   4.6042679381e+01    0.3203033     0.203682  40.03  0.001090049    1.539    0.350
       100 -10.6383     67.4139    107.8207   1.2815387052e+02   4.6672710068e+01    0.7164072    0.4198317 -36.15   0.00308766    2.230    0.552
       101 -10.1955     74.0764    108.2451   1.2595404887e+02   4.5621390308e+01    0.3449382    0.3129388  45.54 0.0009697536    1.086    0.079
       102  -9.2399     34.6636    109.3700   1.3978399690e+02   4.9970568647e+01    0.2988593    0.2618161  -7.70  0.001844872    1.375    0.273
       103  -8.8761     38.6289    107.2259   1.3813119353e+02   5.0141921542e+01    0.1897503    0.1406612 -51.32  0.000691914    1.395    0.283
       104  -9.5175    120.5031    108.8622   1.1137025878e+02   3.7218606642e+01    0.2861827    0.2168494  41.67 0.0008479239    1.256    0.204
       105  -8.7849     53.4886    104.4859   1.3244788935e+02   4.9265198173e+01    0.3039227    0.1737904 -78.62  0.001381617    1.871    0.466
       106  -9.3195     56.0950    101.6928   1.3102552776e+02   4.9650924850e+01    0.2425544    0.2060405  41.80 0.0006799648    1.190    0.160
       107  -8.9023     97.5898    103.8784   1.1716760138e+02   4.2782440797e+01    0.3311926    0.1848927  53.00  0.001323563    2.047    0.511
       108  -9.6853    140.7540    101.4583   1.0384074947e+02   3.4422185528e+01    0.2899989     0.221943 -38.76  0.001374879    1.361    0.265
       109  -9.4458      8.8281     94.2353   1.4748416486e+02   5.5474352885e+01    0.4966862    0.1474703  36.75  0.002069281    3.126    0.680
       110  -9.2270      9.5846     99.6643   1.4762544166e+02   5.4107892155e+01    0.2606718    0.1456376  34.26 0.0008617311    1.836    0.455
       111 -10.8087      3.9637     99.7550   1.4960069573e+02   5.4354153003e+01    0.4951062    0.2914607 -84.33  0.001554063    1.436    0.304
       112  -9.1802      2.5948     75.2511   1.4839521620e+02   6.0390195386e+01    0.2251952    0.1406628 -29.94 0.0006658276    1.831    0.454
       113 -11.1805      3.1850     88.9736   1.4918668521e+02   5.7007762487e+01     0.661085    0.3677573 -67.72  0.002956141    1.543    0.352
       114 -11.0863      5.0754     80.0199   1.4777612692e+02   5.9130903857e+01    0.6030882    0.2966696 -53.76  0.002319012    1.876    0.467
       115 -11.6906     13.1561     89.1820   1.4542474755e+02   5.6502154889e+01    0.4067329    0.2948583 -82.09 0.0008662441    1.191    0.161
       116 -10.6217      9.5117     85.5061   1.4649414508e+02   5.7591632985e+01    0.2365917    0.1821398 -82.81 0.0006170343    1.109    0.099
       117  -9.5029    114.4969    100.4868   1.1101401174e+02   4.0276428310e+01    0.2893742    0.2563592 -83.17 0.0005915341    1.299    0.230
       118 -10.6188    117.4382     98.7325   1.0966358823e+02   4.0053281022e+01    0.6174824    0.4070968  43.24  0.002249523    1.461    0.315
       119 -10.3095    159.0592     96.9486   9.8048650887e+01   3.1101999424e+01    0.4835228    0.3644332  35.47  0.001544275    1.310    0.236
       120  -9.5667     62.8043    167.8156   1.3775557424e+02   3.3331041349e+01    0.2711495     0.200646  60.76 0.0009530451    1.214    0.177
       121  -9.6949    188.0314     93.7077   9.0970389134e+01   2.4926355746e+01    0.3609822    0.2961025 -46.09  0.001248716    1.333    0.250
       122 -10.5921    123.4174     80.9865   1.0277152817e+02   4.2507595763e+01    0.8561813    0.4134846  34.08  0.002946937    2.541    0.606
       123 -11.5628     96.8973     62.2615   1.0517746447e+02   5.2252201750e+01     1.062724     0.835319 -13.61  0.003470249    1.492    0.330
       124 -11.0114    105.6837     53.8416   9.9036833990e+01   5.1998882396e+01    0.7519224    0.4413415  38.75  0.001332888    1.743    0.426
       125 -10.1087    114.2592     51.7739   9.5500944389e+01   5.0355724312e+01    0.6399132    0.4456289 -33.01  0.002377196    1.482    0.325
       126  -9.7215     13.4722    164.9920   1.5007182041e+02   3.8821918028e+01    0.2301133    0.1510306  38.61  0.001496893    1.371    0.271
       127 -10.2172     89.3770     78.0670   1.1306815630e+02   5.0276591256e+01     0.692354    0.2861666  36.33   0.00244918    2.508    0.601
       128 -11.5100    118.6035     86.4716   1.0586521211e+02   4.2441501390e+01     1.173174    0.7390067  63.86  0.004620521    2.156    0.536
       129 -11.7046    123.5358     68.7286   9.8787077626e+01   4.4930006772e+01     1.307621    0.9192598 -43.40  0.005866171    1.476    0.322
       130 -10.5075    148.0021     35.0224   8.0561251152e+01   4.4187526714e+01     1.214074    0.2371437  60.14  0.003119335    4.350    0.770
       131 -10.7585    102.2711     70.7396   1.0620092061e+02   4.9324322037e+01    0.6387892    0.4132003 -58.64  0.002065224    1.870    0.465
       132 -10.7695      2.3985    159.7117   1.5260407588e+02   4.0730913384e+01    0.5340353    0.2058891  83.61  0.001702504    2.312    0.567
       133 -10.4145    131.0998     39.8158   8.6183076094e+01   4.8058385909e+01     0.660018    0.4027197  36.22  0.002044261    1.806    0.446
       134 -10.5544    134.9752     34.0910   8.3024190488e+01   4.7856279259e+01    0.4492451    0.2654295  51.21  0.000433085    1.583    0.368
       135 -11.5345    105.5578     87.0631   1.1013903160e+02   4.5076827801e+01    0.8159016    0.7751933 -83.12  0.003984017    1.132    0.117
       136 -11.8986    100.2612     78.8474   1.0946790547e+02   4.7977589287e+01     1.440407    0.7471035  59.75  0.004841557    3.057    0.673
       137  -9.2774    194.3991     90.1250   8.8813726621e+01   2.4030539978e+01    0.3306243     0.227356 -14.67  0.001299205    1.584    0.369
       138  -9.3071     74.8232     89.1700   1.2146696656e+02   5.0150504246e+01    0.3204319    0.2966445  29.33  0.001782394    1.109    0.098
       139  -9.0415      9.0766    167.4919   1.5123396654e+02   3.8627686007e+01    0.1644805   0.09888677  31.28  0.001032284    1.589    0.371
       140 -10.1514    152.8142     87.2382   9.6791206136e+01   3.4367538471e+01    0.3922897    0.2982318  39.50  0.000863629    1.285    0.222
       141  -9.0515    238.1694     86.2863   8.0949241867e+01   1.5142030012e+01    0.2183628    0.1632828  26.31  0.001227138    1.437    0.304
       142 -10.1406    160.6239     82.3040   9.3508807290e+01   3.3369134491e+01    0.4908561    0.4372062 -45.23  0.002296014    1.190    0.159
       143 -10.8029    134.2950     80.4867   9.9530469970e+01   4.0075252810e+01    0.7564103    0.4992572 -31.75  0.003055751    1.628    0.386
       144 -10.2835    138.8173     74.4347   9.6419421250e+01   4.0146263461e+01    0.6460792    0.2773641 -48.35  0.002129029    2.820    0.645
       145 -10.6226    144.1155     76.9661   9.5850515835e+01   3.8378120261e+01    0.5028424    0.3676076  -5.03  0.002178626    1.767    0.434
       146 -10.3714    150.2282     75.1924   9.3785181502e+01   3.7194206464e+01    0.7441005    0.4610556 -16.93    0.0029233    2.127    0.530
       147  -9.7331    131.9028     68.0050   9.6174990589e+01   4.3044489616e+01    0.4859281    0.2801653  55.55  0.001244127    1.793    0.442
       148  -9.0730    155.3559     70.7876   9.1198240568e+01   3.6684303635e+01    0.3288083    0.2553563 -11.82 0.0008372036    1.458    0.314
       149 -10.4954    152.1123     66.8935   9.0704436436e+01   3.8174305776e+01    0.8169162    0.3219612  49.51  0.002504828    2.407    0.585
       150 -10.0349    144.0041     70.9869   9.3983190668e+01   3.9499761933e+01    0.3444821    0.3296978 -18.12 0.0007888544    1.063    0.060
       151 -11.1853    139.7252     67.8563   9.4048643586e+01   4.1134056091e+01    0.7357127    0.6735902  74.55  0.003742629    1.186    0.157
       152  -9.9125    217.5956     79.9811   8.2288431571e+01   2.0290986164e+01    0.6811839    0.3105654 -12.34  0.002273851    3.621    0.724
       153  -9.7174     17.2423     82.4972   1.4309949744e+02   5.7941344387e+01    0.3069021    0.1658245   1.52  0.001505006    2.362    0.577
       154  -8.7900     13.6104     78.0776   1.4408380323e+02   5.9237567370e+01    0.3244461    0.1101314 -87.03 0.0007575026    3.163    0.684
       155 -11.0735    141.9163     40.5957   8.3922172027e+01   4.5053240582e+01    0.8041946     0.732223  45.06  0.003066081    1.058    0.055
       156  -9.7956     36.8562     75.6384   1.3375851398e+02   5.8226371633e+01    0.2484066    0.1958553 -60.47 0.0004926897    1.148    0.129
       157 -10.8138     16.7096    158.7464   1.4898645183e+02   3.9907903798e+01    0.3991061    0.2725658 -43.08  0.002445343    1.991    0.498
       158 -10.0545     20.0186     72.8385   1.4065562325e+02   6.0193571078e+01     0.431021    0.2946738 -29.58  0.002402183    1.639    0.390
       159  -8.8286    192.5307     73.9871   8.4713898952e+01   2.6931476508e+01    0.2312051    0.1424008 -29.77 0.0008693797    1.583    0.368
       160  -9.6150    214.8158     71.6798   8.0524909133e+01   2.2046078333e+01    0.3664121    0.2309088 -12.58  0.001048872    1.770    0.435
       161  -9.7109      5.8294     71.2772   1.4666831928e+02   6.1257969785e+01    0.4512044    0.1733992  41.69  0.001571279    2.821    0.645
       162  -9.3961      8.2078     50.6620   1.4299985976e+02   6.6245470854e+01     0.551938    0.2593884  45.57  0.002616631    2.552    0.608
       163 -11.1656     13.7261     56.7453   1.4113246426e+02   6.4527030821e+01    0.3405387    0.2312104  29.84   0.00196338    1.666    0.400
       164 -10.2700    250.2811     67.2121   7.4893192983e+01   1.5092780179e+01    0.5658749    0.1655147 -23.80  0.001971402    3.473    0.712
       165  -9.0789    206.7996     92.0024   8.7120434536e+01   2.0957525035e+01    0.2419716    0.1558271 -54.05  0.001081435    2.041    0.510
       166  -9.6709    149.1187     59.9738   8.9120788503e+01   4.0109947298e+01    0.6238303    0.3069584 -37.73  0.002363528    2.048    0.512
       167 -10.8092    157.3612     50.9743   8.4275390986e+01   3.9375079195e+01    0.9794729    0.6089083  19.50  0.003770565    2.345    0.573
       168 -10.7851    149.5780     51.4723   8.6113720123e+01   4.1361002926e+01    0.6127855    0.4927857  17.53  0.001648078    1.409    0.290
       169 -11.7144    141.5410     51.6915   8.8044997943e+01   4.3443354206e+01     1.046971    0.4103497  49.80  0.002647689    2.393    0.582
       170 -10.8786    164.9773     55.8768   8.4358096280e+01   3.6623810057e+01    0.7373006    0.5737307  -1.63   0.00266696    1.494    0.330
       171  -9.5679    178.0658     60.3378   8.3277130499e+01   3.2563504081e+01    0.4057671    0.3110502   3.51  0.001346394    1.537    0.349
       172 -11.4057    174.1653     57.1750   8.3012492511e+01   3.4036108705e+01     1.106281     0.652499 -16.89  0.001367764    2.013    0.503
       173  -8.4910     66.3708     67.1190   1.1880851962e+02   5.6744512010e+01    0.2059884    0.1363053 -68.33 0.0005289201    1.754    0.430
       174  -8.9173    189.0606     65.0035   8.2733367606e+01   2.9106916746e+01    0.2384572    0.1760239 -63.07 0.0007318049    1.651    0.394
       175  -8.5375     61.9886     62.5491   1.1930586993e+02   5.8475531870e+01    0.1972489    0.1418401  31.00 0.0005172945    1.446    0.309
       176 -10.1686    222.2764     48.0585   7.3245390602e+01   2.3372502174e+01    0.4970728    0.3089643 -58.20  0.002384754    1.850    0.459
       177  -8.8421    219.4805     60.4787   7.6901505867e+01   2.2466354786e+01    0.2396059     0.184107  80.52  0.001274414    1.540    0.350
       178  -9.9133    222.0479     57.2444   7.5713614098e+01   2.2293523945e+01    0.4037041     0.298802 -32.64  0.001344144    1.237    0.192
       179 -10.3223    186.3150     53.6610   7.9818518421e+01   3.1414470601e+01    0.8454708    0.4490165   4.97  0.002632174    4.029    0.752
       180  -9.9858    188.9288     49.3206   7.8090325467e+01   3.1338654182e+01    0.4115285    0.2662854 -53.82 0.0006396253    1.732    0.423
       181  -9.3489    158.1798     58.5391   8.6627109269e+01   3.7987129813e+01    0.5334558    0.3369021   7.69  0.002009015    2.478    0.596
       182  -9.0547    202.0865     68.8848   8.1698551808e+01   2.5386938151e+01    0.2872428    0.2011337 -10.38  0.001367243    1.586    0.369
       183 -10.4750    201.2801     57.2966   7.8561549847e+01   2.7180281112e+01    0.5768865    0.3804557  13.08  0.002552806    2.047    0.511
       184  -9.8510      3.1323     57.5672   1.4646474604e+02   6.4713794422e+01    0.3580616    0.2446611  64.36  0.001963042    1.569    0.363
       185  -9.7986     60.7253     54.4325   1.1722268223e+02   6.0545127570e+01     0.398694    0.2913382 -56.21  0.001342794    1.366    0.268
       186  -8.9427    192.8118     54.0040   7.8888313565e+01   2.9722269905e+01    0.2226178    0.1853337 -58.05 0.0004193221    1.280    0.219
       187 -11.8008     19.4909    147.9516   1.4769517740e+02   4.2071000584e+01    0.6603334    0.5678057 -62.12  0.003185548    1.342    0.255
       188  -8.7371    236.8172     48.8856   7.1849663197e+01   2.0030271392e+01    0.1988299    0.1717887  -2.63 0.0007640488    1.217    0.178
       189  -8.7794    171.3163     48.4896   8.0764705669e+01   3.6037931531e+01      0.25567     0.139441 -28.83 0.0005714411    1.848    0.459
       190 -10.5118    192.1867     39.5598   7.4659682469e+01   3.1762127194e+01    0.5696718     0.522192  42.91  0.001802875    1.134    0.118
       191 -10.1920    207.1082     44.0319   7.3986104917e+01   2.7463710299e+01    0.4905923    0.3728617 -46.45  0.002035824    1.287    0.223
       192 -10.9238    202.9767     37.7771   7.2713519004e+01   2.9242678036e+01    0.5366582    0.4323637  35.00   0.00218734    1.378    0.274
       193  -9.9526    194.6931     31.0760   7.1767340331e+01   3.2132627217e+01    0.4121587    0.2918137  10.35  0.001241954    1.785    0.440
       194 -10.2407    199.5111     31.0647   7.1174320665e+01   3.0900585864e+01    0.3285534    0.2827305 -85.59 0.0005796796    1.184    0.156
       195 -11.7121    164.4636     62.6341   8.6632346581e+01   3.5707161032e+01    0.7743789    0.6861402   6.42  0.002374355    1.198    0.165
       196  -8.3428     83.1753    154.6037   1.3079865105e+02   3.3492161586e+01       0.1891    0.1245671  23.19 0.0009437029    1.669    0.401
       197  -8.8032    248.8992     44.6009   6.9598028726e+01   1.7968318769e+01    0.2468497    0.1634491   4.10  0.001161844    1.929    0.481
       198  -9.6994    232.4931     43.4747   7.0921709354e+01   2.1602629333e+01    0.4359428    0.2534357  19.28  0.001889479    2.690    0.628
       199 -12.0228     15.8516     61.8176   1.4090041296e+02   6.3169414289e+01     0.897678    0.4389692  -8.19  0.002947262    2.677    0.626
       200  -8.7153    215.0312     42.0285   7.2458971222e+01   2.5792315434e+01    0.2250029    0.1608798  22.00  0.001119683    1.736    0.424
       201 -10.9651    162.1996     39.0613   7.9270028819e+01   3.9778557711e+01    0.5583633    0.3176884 -27.19  0.001558503    1.806    0.446
       202  -8.9277    219.1327     53.1025   7.4974432435e+01   2.3479300984e+01    0.2452368    0.1859367  -1.08 0.0006860778    1.483    0.326
       203  -9.7101    180.4477     38.9740   7.6191137861e+01   3.4898740255e+01    0.5050705    0.3474521 -51.76  0.001875658    1.545    0.353
       204  -9.2428     77.0482     41.2457   1.0475589453e+02   6.0564338321e+01    0.2579338    0.2007902  57.40 0.0008243948    1.533    0.347
       205  -8.7201      4.8243     41.1358   1.4334761874e+02   6.8662062717e+01    0.1603138    0.1179391 -44.17 0.0008444402    1.241    0.194
       206  -8.4069    229.0508     39.0234   7.0121957865e+01   2.2881737094e+01    0.1538624      0.14504 -50.01 0.0003825513    1.048    0.046
       207  -8.8342    173.8354     39.1740   7.7301867128e+01   3.6631073441e+01    0.2554705    0.2017773  87.29 0.0008551748    1.378    0.274
       208  -9.5590    168.6666     36.4053   7.7239635959e+01   3.8378407284e+01    0.3734655    0.2755347 -82.35 0.0009054583    1.582    0.368
       209  -9.9311    210.8726     32.7551   7.0353263798e+01   2.7874519021e+01    0.5083399    0.3011179 -11.73  0.001493613    1.963    0.491
       210  -9.4270     33.9474    155.5674   1.4429589711e+02   3.9126606576e+01    0.1753839    0.1124956  28.79 0.0005070914    1.563    0.360
       211  -9.9027    246.2487     33.4616   6.7123640487e+01   1.9730390016e+01     0.470528    0.2077536  50.33  0.001667658    2.640    0.621
       212 -10.8333    237.1169     32.7470   6.7738718969e+01   2.1774373910e+01    0.4525782    0.3831687 -75.94  0.001757467    1.235    0.190
       213  -8.9514    242.4406     31.4767   6.6957149240e+01   2.0752084859e+01    0.2309764    0.1764179 -29.17 0.0005943365    1.175    0.149
       214  -8.1701    218.5095     33.4735   6.9730500594e+01   2.5952920003e+01    0.1361492    0.1256997 -46.22 7.793537e-05    1.005    0.004
       215  -9.4734     38.8570     32.8779   1.2064028883e+02   6.8269545195e+01     0.426414    0.2009243  10.82  0.001651166    3.159    0.683
       216 -10.4853    226.5109     28.7319   6.7670063985e+01   2.4598258393e+01    0.6212992    0.2806472 -43.73  0.002757991    2.023    0.506
       217  -8.8519     52.9081    151.5544   1.3878154484e+02   3.8067547992e+01    0.1924252    0.1168351  32.40  0.001017348    1.562    0.360
       218  -9.8148     30.2116    145.8180   1.4460693230e+02   4.1661893114e+01     0.345298    0.2138596  79.74  0.001046931    1.509    0.337
       219  -9.6997    218.5294     25.2996   6.7502615098e+01   2.6840656535e+01    0.5199021    0.2259164  75.29  0.002124605    2.530    0.605
       220 -10.4800     35.0227    150.0142   1.4359057328e+02   4.0269552885e+01     0.348642    0.2637514  40.33  0.001195647    1.243    0.196
       221 -10.7253     38.9095    145.8398   1.4216582247e+02   4.0846731841e+01    0.4583325    0.3341277 -88.75  0.001651553    1.290    0.225
       222 -10.0056     67.0971    148.3812   1.3445009747e+02   3.7071852066e+01      0.25875    0.1920065  89.71  0.001243988    1.397    0.284
       223  -8.9870    217.3131     21.3187   6.6530637583e+01   2.7549512190e+01    0.2213207     0.193078 -12.03 0.0007063273    1.227    0.185
       224  -9.5815    214.2330     20.9797   6.6723027803e+01   2.8330141249e+01    0.2755211    0.2221048  12.59 0.0008755858    1.481    0.325
       225  -8.6467    208.6693     25.4393   6.8522950671e+01   2.9225925913e+01    0.1847686    0.1251273  57.88 0.0009324848    1.519    0.342
       226  -8.7190    201.3315     25.1355   6.9220900467e+01   3.1099433400e+01    0.1991163    0.1632815 -35.59 0.0006994672    1.173    0.147
       227  99.0000     18.5076    120.4979   1.4620109190e+02   4.8521955276e+01    0.6690813    0.4093762 -68.71  0.003779861    1.515    0.340
       228  -9.5474      4.9098    147.3304   1.5155904711e+02   4.3243685551e+01    0.3061799    0.1849812  22.78  0.001873861    1.794    0.442
       229 -10.2187      7.1457    142.9176   1.5079073820e+02   4.4079942425e+01    0.6746525    0.3338122  23.06  0.003720096    2.124    0.529
       230 -10.4877     97.8870     22.5006   8.8134341804e+01   5.9138409654e+01    0.3827796    0.2718649  55.99 0.0004851026    1.389    0.280
       231 -10.2279     27.0451    127.3837   1.4408710286e+02   4.6233080586e+01    0.7862685    0.3772117 -67.39  0.003899175    1.919    0.479
       232 -10.3588      3.5584    135.3627   1.5147054080e+02   4.6002923002e+01    0.4705863    0.2659179  70.25  0.002068635    1.505    0.336
       233  -9.8719      9.1173    134.8402   1.4988226478e+02   4.5782674658e+01     0.246958    0.2173725 -62.14 0.0008207362    1.301    0.231
       234 -11.4607     13.6578    129.4088   1.4827481927e+02   4.6743413186e+01    0.7587625    0.3593614  73.36  0.003788905    1.999    0.500
       235 -10.0278    177.7060     19.9754   7.0443186643e+01   3.7862650314e+01    0.3396087     0.280791 -44.85  0.001182627    1.205    0.170
       236 -10.2279     20.0525    128.4099   1.4629767449e+02   4.6530422144e+01    0.3518658    0.2591006 -28.37  0.001095904    1.794    0.443
       237  -8.6887     60.4935    147.5114   1.3621526067e+02   3.8095941115e+01    0.1311989    0.1180514  61.99 0.0001974925    1.031    0.030
       238  -8.4862     61.4731     15.6413   9.9331645077e+01   6.8183198702e+01    0.1368165    0.1242126  13.44 0.0002144818    1.068    0.064
       239 -10.1439     47.1774    137.2084   1.3893349510e+02   4.2007704076e+01    0.5912802    0.1910622  50.56  0.002174656    3.222    0.690
       240  -8.5760     64.5371     13.2663   9.6437994819e+01   6.7964163963e+01    0.1997367    0.1281531 -17.29  0.000948779    1.685    0.406
       241  -8.3776    192.4248     12.5020   6.6389952547e+01   3.4701887909e+01    0.1376897     0.132209 -76.90 3.407675e-05    1.037    0.036
       242 -10.0273     55.2226    131.9935   1.3589203708e+02   4.2344977551e+01     0.298136    0.2138282 -84.63   0.00122453    1.388    0.280
       243 -10.3927     55.4944    128.5060   1.3535716960e+02   4.3146812651e+01    0.6017847    0.2863984 -54.31  0.002423919    2.167    0.539
       244 -10.1717     22.3796    137.0940   1.4621241143e+02   4.4322268532e+01    0.4868317     0.205289 -63.80   0.00233232    2.273    0.560
       245  -9.7721     64.0544    138.2131   1.3403242356e+02   3.9802061794e+01    0.2707281    0.1628783  49.62  0.001346443    1.567    0.362
       246  -8.7222     98.4751    135.4779   1.2348725385e+02   3.5374904567e+01    0.1447074    0.1325287  50.62 0.0001999212    1.015    0.015
       247 -10.7109     65.2065    130.4440   1.3261057415e+02   4.1486423486e+01    0.6464784    0.2960784  47.48  0.002748021    2.139    0.532
       248  -8.6331     78.3315    127.6653   1.2812537185e+02   4.0334812807e+01    0.2894237    0.1693151  69.34  0.001206448    2.335    0.572
       249 -10.4964     72.4764    128.8680   1.3012850987e+02   4.0885833884e+01     0.530013     0.324977 -62.35   0.00212321    1.648    0.393
       250  -9.3855     74.0022    125.2144   1.2906166048e+02   4.1540139376e+01    0.3505174    0.1911863  33.11  0.001318938    1.780    0.438
       251 -10.2198     54.4992    137.5073   1.3678648523e+02   4.1124477169e+01    0.4716583    0.2952386 -71.11  0.002077044    1.579    0.367
       252 -10.6424     38.0025    127.0116   1.4065332994e+02   4.5358429838e+01    0.3044826    0.2138612 -56.68  0.001153079    1.489    0.328
       253  -9.4511     95.8045    130.1039   1.2328009036e+02   3.7033462606e+01    0.2735165    0.2016101 -35.70  0.001350972    1.626    0.385
       254 -10.3764     47.9785    125.5451   1.3734508888e+02   4.4704111652e+01    0.3434922    0.1792093 -72.31    0.0016263    1.850    0.459
       255 -10.7655     67.6429    122.6481   1.3065661748e+02   4.3032258948e+01    0.6876222    0.3447469 -42.77  0.002821386    2.531    0.605
