#   1 NUMBER                 Running object number                                     
#   2 MAG_AUTO               Kron-like elliptical aperture magnitude                    [mag]
#   3 X_IMAGE                Object position along x                                    [pixel]
#   4 Y_IMAGE                Object position along y                                    [pixel]
#   5 X_WORLD                Barycenter position along world x axis                     [deg]
#   6 Y_WORLD                Barycenter position along world y axis                     [deg]
#   7 A_WORLD                Profile RMS along major axis (world units)                 [deg]
#   8 B_WORLD                Profile RMS along minor axis (world units)                 [deg]
#   9 THETA_WORLD            Position angle (CCW/world-x)                               [deg]
#  10 FWHM_WORLD             FWHM assuming a gaussian core                              [deg]
#  11 ELONGATION             A_IMAGE/B_IMAGE                                           
#  12 ELLIPTICITY            1 - B_IMAGE/A_IMAGE                                       
         1 -14.4720     68.4671    144.1402   1.1131549234e+02   3.7407738143e+01     4.753796     1.977069  65.76  0.006635222    5.203    0.808
         2 -14.1217    217.0103     14.3748   4.3579237315e+01   2.8711912269e+01     1.369049     1.025156  31.81  0.003308585    1.670    0.401
         3 -13.7368    193.9356     37.1501   5.2906957252e+01   3.1911485679e+01     1.580098      1.02045  22.44  0.003659224    2.158    0.537
         4 -14.1502    202.1481     30.8883   4.9935320857e+01   3.0580523978e+01     1.534343     1.321795   1.86  0.006866917    1.324    0.244
         5 -12.4793    210.0013     22.6708   4.6623536984e+01   2.9551958722e+01    0.5596959     0.416643  31.50  0.001082171    1.651    0.394
         6 -12.2017      1.9362     23.4786   1.0948142152e+02   7.1613095957e+01    0.8488692    0.1406258 -62.98  0.002715815    5.121    0.805
         7 -12.4083      2.1802      4.3079   1.0138037287e+02   7.5301341931e+01    0.7218242    0.3075421 -60.31  0.003567273    2.645    0.622
         8  -9.7981     59.5024      7.4558   7.2185231998e+01   6.7796361451e+01    0.1301651    0.1090884  -1.56 0.0002096362    1.009    0.009
         9 -11.2634     43.4555      4.0907   7.7266821494e+01   7.0855207123e+01    0.2242899    0.1925582   8.71 0.0005987785    1.167    0.143
        10 -11.0085    189.6550     15.1096   4.6624640164e+01   3.5647182822e+01    0.2486374    0.1923791 -85.99 0.0006738768    1.309    0.236
        11 -15.5135    104.8965    247.4939   1.1533865830e+02   1.2363100543e+01     9.796728     1.739521  38.05   0.03226411    5.569    0.820
        12  -9.7386     96.4981    192.6987   1.1133111590e+02   2.2926312520e+01    0.2398841    0.1943951 -21.53 0.0008332054    1.966    0.491
        13  -9.0205    180.3168    192.6642   9.4395766148e+01   8.8632485688e+00    0.1234718    0.1008921  73.48 0.0007048111    1.697    0.411
        14  -9.1792    147.1492    185.3874   9.9767869451e+01   1.5947990222e+01    0.1892308    0.1109413  50.42 0.0005537468    1.626    0.385
        15 -10.2649    207.7039    183.6029   8.7660821250e+01   5.3951974800e+00    0.2034663    0.1602948 -53.02   0.00112633    1.755    0.430
        16 -11.9754     66.6715    181.8729   1.1640193714e+02   2.9321479346e+01      0.35544    0.2586744 -41.92  0.001823615    2.011    0.503
        17 -11.8522     71.4958    176.2744   1.1474630691e+02   2.9851813096e+01     0.270874     0.241243 -44.04 0.0009199252    1.507    0.337
        18  -9.7857    210.8713    179.9484   8.6398753362e+01   5.3636490132e+00    0.3245109    0.1477344 -22.07  0.001291673    3.133    0.681
        19  -9.1038     99.4961    180.4734   1.0914428356e+02   2.4892382288e+01    0.1300156      0.11274  66.41 0.0001688309    1.007    0.007
        20 -13.9964      8.0176    250.0949   1.3121715943e+02   2.3370663917e+01    0.4883338    0.2844135  34.38  0.002388416    2.012    0.503
        21 -13.4308     68.0538    162.5168   1.1389139626e+02   3.3294455492e+01    0.6002073    0.3930439 -38.59  0.001460677    2.319    0.569
        22 -14.4269     65.7691    243.7228   1.2170269513e+02   1.8075250734e+01      2.66081    0.6898053  48.76  0.006295533    2.677    0.626
        23  -8.9307    166.4469    173.5382   9.3754949221e+01   1.4533683485e+01      0.13524     0.124144  47.62   0.00080534    1.093    0.085
        24 -11.6386    127.5317    173.3292   1.0196384289e+02   2.1675483701e+01    0.5931374    0.1157763  41.13  0.001688496    4.706    0.788
        25 -10.5016    195.1771    169.5874   8.7310394137e+01   9.7944787335e+00    0.3399981    0.2704135  48.65  0.001934452    1.331    0.249
        26 -14.3675      2.5633    247.0733   1.3194447179e+02   2.4364018039e+01    0.7575144    0.3150884 -77.31  0.004047339    2.334    0.572
        27 -11.4723     33.5009    165.4875   1.2207346923e+02   3.6730284338e+01    0.2636131    0.1768615 -69.84  0.001106626    1.412    0.292
        28  -9.8885    137.5002    170.4826   9.9314753570e+01   2.0454093528e+01    0.1362206    0.1259693  47.12 5.908504e-05    1.035    0.034
        29 -10.7562     73.1338    204.6148   1.1731085248e+02   2.3948081004e+01    0.3533954    0.2642451  68.93  0.001395947    1.107    0.097
        30  -9.7781    174.8500    148.8381   8.7085627727e+01   1.7333600542e+01    0.1937637    0.1749944  80.72  0.000473326    1.324    0.245
        31 -10.7129    134.1712    146.7274   9.5629070344e+01   2.5878060628e+01    0.7114218    0.1886337 -53.38  0.002001714    4.622    0.784
        32 -11.6925     80.5652    166.1630   1.1146468431e+02   3.0751800781e+01    0.3863868    0.2561781  78.81 0.0003927941    1.589    0.371
        33 -10.6304     38.8039    146.3472   1.1899968886e+02   4.0466686645e+01    0.2748755    0.1940558  59.05 0.0008286419    1.335    0.251
        34 -10.0455    100.4953    144.4468   1.0331672391e+02   3.2471055677e+01     0.275365    0.2123815  63.36 0.0008829986    1.300    0.231
        35 -10.1069    103.0601    140.7086   1.0199152177e+02   3.2880247990e+01    0.3788812    0.2717336 -30.00  0.001230132    1.940    0.484
        36 -12.4089     88.3117    143.1742   1.0614520999e+02   3.4733988432e+01    0.4223994    0.2959777  29.51 0.0005357668    1.710    0.415
        37 -11.7707     30.6012    144.1100   1.2077703962e+02   4.1811046503e+01    0.4368823    0.1935635  33.37  0.002208489    2.428    0.588
        38  -9.6917     36.7047    140.5245   1.1888220989e+02   4.2030141475e+01     0.160769    0.1045598  52.89 0.0005737793    1.506    0.336
        39  -9.2445     79.4548    139.5038   1.0778865261e+02   3.6928746864e+01    0.1387758    0.1207998  88.00 4.124998e-05    1.035    0.033
        40 -11.4618     26.0327    137.4671   1.2124538614e+02   4.3773175848e+01    0.3705657    0.1525719  44.59  0.001162313    2.359    0.576
        41 -12.7596     86.6511    159.7336   1.0915307542e+02   3.1260943964e+01     1.078978    0.8200508  85.74   0.00065727    1.295    0.228
        42 -10.9792     98.1095    128.5693   1.0090325225e+02   3.6507273204e+01    0.2831882    0.2604345  35.89 0.0004333689    1.213    0.175
        43 -10.1570    110.9696    132.0402   9.8277401206e+01   3.3444405746e+01    0.3048767    0.2508704   1.67  0.001086436    1.670    0.401
        44 -10.1426    106.0142    130.7380   9.9280511366e+01   3.4631656387e+01     0.322479    0.2508342  66.45  0.001251304    1.368    0.269
        45 -10.0060    160.5759    127.7819   8.5378317898e+01   2.4361295460e+01    0.2174271    0.1418001 -53.00 0.0009528533    1.686    0.407
        46  -9.4148    125.6955    127.3278   9.3532896940e+01   3.1704288017e+01    0.1525378    0.1164022  87.27 0.0006793441    1.649    0.394
        47 -10.2171    117.0682    126.1822   9.5458142782e+01   3.3629736195e+01     0.270059    0.2199917 -68.63  0.001342921    1.259    0.206
        48 -11.8350     20.7283    125.5736   1.2139255971e+02   4.7010182422e+01    0.3041813    0.2593254  15.06  0.002085246    1.604    0.376
        49 -10.1135     66.9680    124.5247   1.0858401257e+02   4.2239766155e+01    0.1988294    0.1336386  39.08  0.001037349    1.608    0.378
        50  -9.6753    107.7018    120.2578   9.6577737386e+01   3.6727102758e+01    0.2019758    0.1852078 -81.80 0.0004543749    1.061    0.058
        51 -11.0906     23.1118    116.9363   1.1976823119e+02   4.8851921840e+01    0.2455494    0.1429814 -70.56  0.001382746    1.378    0.274
        52 -10.7099     53.0003    110.7201   1.1016170873e+02   4.7343384659e+01    0.1881803    0.1722368 -85.01  0.001178799    1.090    0.083
        53  -9.7744    205.5335    110.2066   7.1838827752e+01   1.7614980431e+01    0.2586036    0.2086673  46.24 0.0005925279    1.293    0.226
        54 -10.0464    167.5355    112.4991   8.0013722391e+01   2.5832960561e+01     0.332433    0.2542575 -76.95  0.001498207    1.783    0.439
        55 -10.2796     92.8133    103.6576   9.6819567140e+01   4.3239158650e+01    0.3613787    0.2468717  71.52    0.0010821    1.963    0.491
        56 -11.0678     42.0845    104.3108   1.1234054300e+02   5.0112692866e+01    0.2882352     0.214202  60.37   0.00116436    1.460    0.315
        57  -9.7453     33.1479    100.2028   1.1442655303e+02   5.1984849926e+01    0.1808627    0.1355904  82.29 0.0006174002    1.337    0.252
        58 -11.7681      1.6733     87.9460   1.2273385755e+02   5.7170803275e+01    0.6084798   0.09404365 -74.87   0.00185211    5.030    0.801
        59  -9.2499     24.9560     82.4754   1.1404867387e+02   5.6943134609e+01      0.15277    0.1284491  26.19 0.0003609812    1.477    0.323
        60  -8.7471    184.3374     77.3114   6.6704485392e+01   2.8287867859e+01    0.1617443    0.1202314  18.36 0.0007045173    1.688    0.407
        61  -9.2105     54.4783     65.4968   9.9127211953e+01   5.7880820760e+01    0.1375471    0.1188503 -51.63 0.0002591868    1.035    0.033
        62 -10.2870     13.5639     59.8849   1.1381273616e+02   6.3038468017e+01      0.18365    0.1755028  69.37 0.0003796499    1.288    0.224
        63 -11.4733    149.7776     53.5720   6.6080137645e+01   4.1042319670e+01    0.6819872    0.4014905 -76.74  0.002179523    3.469    0.712
        64 -12.2001    145.3835     50.0745   6.5815676784e+01   4.2722927158e+01    0.8867429    0.5082887 -76.44  0.002737333    3.980    0.749
        65 -14.1936     41.2384    210.2769   1.2383391508e+02   2.6793965367e+01     1.152515    0.6797878 -62.62  0.001397488    1.972    0.493
        66 -10.6673     78.1894    236.9427   1.1909401770e+02   1.7594393717e+01     0.190079    0.1205675  50.57 0.0005864226    1.199    0.166
        67 -16.2607     42.4706    193.1487   1.2240291018e+02   2.9968364123e+01     8.620308      3.02261  68.82   0.03184846    4.017    0.751
        68 -11.0455     94.6111    233.6821   1.1592567055e+02   1.5919215183e+01    0.2173923    0.1863842 -82.33 0.0008613003    1.343    0.255
        69 -11.6758    149.5609     45.4293   6.3270544142e+01   4.2378819122e+01    0.6725664    0.3979282 -76.43  0.002124871    3.124    0.680
        70  -9.4748     95.1691     41.8151   7.5971227376e+01   5.5821727525e+01    0.2954053    0.1512443 -46.32  0.001202815    2.121    0.528
        71 -16.3989      7.2019    201.6904   1.2957810083e+02   3.1866035495e+01     5.356409     1.572004  86.45   0.02422369    3.486    0.713
        72 -11.5814    193.6798    194.1322   9.2131351197e+01   6.3141542215e+00    0.6579477     0.486455 -60.41  0.003697943    2.066    0.516
        73  -8.9618    153.3190    195.6764   1.0014989960e+02   1.3089979541e+01    0.1283122   0.09562595  69.57 0.0002538353    1.673    0.402
        74 -11.4780    183.9843    215.4785   9.7364033338e+01   4.9196914036e+00    0.2594676    0.2246134 -62.21   0.00176235    1.619    0.382
