#   1 NUMBER                 Running object number                                     
#   2 MAG_AUTO               Kron-like elliptical aperture magnitude                    [mag]
#   3 X_IMAGE                Object position along x                                    [pixel]
#   4 Y_IMAGE                Object position along y                                    [pixel]
#   5 X_WORLD                Barycenter position along world x axis                     [deg]
#   6 Y_WORLD                Barycenter position along world y axis                     [deg]
#   7 A_WORLD                Profile RMS along major axis (world units)                 [deg]
#   8 B_WORLD                Profile RMS along minor axis (world units)                 [deg]
#   9 THETA_WORLD            Position angle (CCW/world-x)                               [deg]
#  10 FWHM_WORLD             FWHM assuming a gaussian core                              [deg]
#  11 ELONGATION             A_IMAGE/B_IMAGE                                           
#  12 ELLIPTICITY            1 - B_IMAGE/A_IMAGE                                       
         1 -12.9555    180.5332     39.4422   6.1310795549e+01   3.5193825937e+01      1.36734     1.045372  19.35  0.004168237    1.529    0.346
         2 -12.4712    200.4620      9.7124   4.9179825223e+01   3.3358777058e+01     1.054609    0.5609768  59.43  0.004688108    1.781    0.439
         3 -11.8092    199.3798      3.8466   4.7519946851e+01   3.4216732050e+01     1.008762    0.3597763  62.99  0.003814114    2.470    0.595
         4  -8.6785     67.1602    225.9612   1.2314668410e+02   2.2549221068e+01    0.2741331   0.09310292  44.14  0.001191793    2.160    0.537
         5 -19.4769     37.7189    147.1203   1.2260179899e+02   4.0767620370e+01     17.63311     3.271099 -73.31   0.05650024    5.431    0.816
         6 -10.8689     70.5323    196.5372   1.2024292174e+02   2.7143205242e+01    0.3844475    0.2540337 -47.32  0.001793994    2.284    0.562
         7  -9.4869    193.8089    195.9491   9.6627255153e+01   7.5368966905e+00    0.4477137    0.2433093 -62.45  0.001607538    5.883    0.830
         8  -8.5922    159.6875    196.7037   1.0303845280e+02   1.3359997044e+01    0.1205545   0.08947024  19.24 0.0003620918    1.599    0.375
         9  -9.2982     81.9333    194.8954   1.1788725639e+02   2.5923711518e+01    0.2656562    0.1764091  50.64  0.001722126    1.244    0.196
        10 -10.7637     98.3433    190.5563   1.1419886901e+02   2.4366227322e+01    0.2883065      0.19442  67.41  0.001171587    1.406    0.289
        11 -10.1249     76.2749    208.2691   1.2017400067e+02   2.4326436314e+01    0.3002587    0.2336763  45.96  0.001393972    1.285    0.222
        12  -9.9494    149.3190    187.6787   1.0370104498e+02   1.6572404813e+01    0.2290949    0.1833314  62.24  0.001427947    1.261    0.207
        13  -9.2656    136.7646    185.3946   1.0584898034e+02   1.9119595584e+01    0.1787926    0.1070142  36.87 0.0004617123    1.593    0.372
        14 -10.7347     99.2868    180.8581   1.1286741743e+02   2.6004576476e+01    0.2612602    0.1978002  41.79 0.0009591782    1.297    0.229
        15  -9.1944     93.9936    181.2325   1.1400356353e+02   2.6726416248e+01    0.2076124    0.1103574  61.57  0.000726899    1.937    0.484
        16  -8.6274    149.1919    180.0220   1.0255726013e+02   1.7858598578e+01    0.1991338    0.1439859  88.56 0.0008338781    1.980    0.495
        17  -9.0501    204.1723    176.1381   9.1358880710e+01   8.3771149666e+00    0.2011499    0.1607378  15.95  0.001168629    1.195    0.163
        18 -10.0381    142.0357    175.5610   1.0330501682e+02   1.9893995476e+01    0.2783007    0.1574747  29.75  0.001300538    2.158    0.537
        19  -9.8299     59.2617    207.5312   1.2323049979e+02   2.6599381526e+01    0.3031742    0.1584145 -58.75  0.001359435    2.366    0.577
        20 -11.8505    102.0591    171.9014   1.1114349970e+02   2.7276561472e+01    0.5897866    0.3098008  53.39  0.003001388    1.759    0.432
        21 -10.0620    124.7248    171.9895   1.0634872224e+02   2.3553626341e+01    0.2219556    0.1851028 -39.97  0.001358915    1.489    0.328
        22  -8.8887    164.2680    170.8585   9.8026415153e+01   1.6629877421e+01    0.1882066    0.1685389  65.53 0.0007582784    1.202    0.168
        23  -9.5400    110.9329    168.2835   1.0874101342e+02   2.6555846481e+01    0.1880922    0.1513236  54.79  0.001153636    1.089    0.082
        24  -8.5578    192.4994    164.9171   9.1436236868e+01   1.2196098821e+01    0.1840415    0.1322726 -32.39  0.001013055    1.535    0.348
        25 -10.3338     96.7720    158.5433   1.1045875438e+02   3.0735226228e+01    0.2313814    0.2252422  89.43  0.000297015    1.219    0.180
        26 -11.4595     60.8820    215.6296   1.2351940364e+02   2.5016766625e+01    0.3419574    0.1739124  53.29  0.001522963    1.491    0.329
        27  -9.0243    189.9964    155.4962   9.0082791804e+01   1.4139085749e+01     0.216105    0.1234618  43.95 0.0006761103    1.583    0.368
        28 -11.1833    101.3233    152.1982   1.0848139609e+02   3.1307159687e+01    0.4745225     0.395167 -28.71  0.001867668    1.661    0.398
        29 -11.8590     86.0792    152.7828   1.1207758592e+02   3.3535143526e+01    0.3403046    0.2922644 -46.50 0.0007946192    1.444    0.307
        30  -9.9013    134.0813    146.4164   1.0002077835e+02   2.6737096789e+01    0.7059419     0.182023 -54.91  0.001946459    5.631    0.822
        31  -8.6335    174.7611    149.0266   9.1803803153e+01   1.8253472132e+01    0.1739985    0.1189781 -40.54 0.0004240647    1.594    0.373
        32 -10.2043    110.8257    138.1878   1.0390273600e+02   3.2617148833e+01    0.3732144    0.2729675 -29.98  0.001902311    1.912    0.477
        33 -10.6496    100.1698    137.5850   1.0636636319e+02   3.4543269586e+01      0.25887    0.2499961  52.32 0.0005187781    1.167    0.143
        34 -10.0295    105.9536    130.9558   1.0375377555e+02   3.4983040652e+01    0.3458241    0.2855382  85.94  0.001154504    1.243    0.195
        35  -9.2734    117.0736    129.1117   1.0066330464e+02   3.3401392491e+01     0.207828    0.1912461  -0.92 0.0006029693    1.332    0.249
        36  -9.0330    160.9679    127.6142   9.0144217003e+01   2.4937949865e+01    0.3029643    0.1530341 -52.71  0.001192835    2.410    0.585
        37  -9.4758    105.3479    124.8103   1.0272333718e+02   3.6402902469e+01    0.2374177    0.2168038  10.45 0.0005902071    1.350    0.259
        38 -10.8365     65.3642    210.4528   1.2234131032e+02   2.5345971417e+01    0.3320214    0.2055436  59.53  0.001307433    1.253    0.202
        39  -8.2420    111.8350    118.3649   9.9753335039e+01   3.6633816306e+01    0.1874891    0.1321645  33.15 0.0001643482    1.594    0.373
        40  -9.2602    168.4857    113.2265   8.5117018074e+01   2.5956361492e+01    0.2844206    0.2346065 -87.73 0.0008590114    1.539    0.350
        41  -8.6763    205.7988    110.1761   7.6923984640e+01   1.8026123982e+01    0.2039795    0.1654342  17.66  0.000589988    1.292    0.226
        42 -12.3196     69.3511    218.5443   1.2223569644e+02   2.3484058858e+01    0.2633161    0.1614994  64.03 0.0007535964    1.316    0.240
        43  -8.8554    176.6658     75.2582   7.3112347462e+01   3.0737331102e+01    0.2318847    0.2217656  74.54 0.0004670832    1.094    0.086
        44 -10.9985    172.4620     71.5611   7.2866184509e+01   3.2406347811e+01    0.6186201    0.3979681 -83.56 0.0007903758    2.732    0.634
        45 -11.3065     73.7737    213.1280   1.2102975518e+02   2.3825044403e+01    0.2134604    0.1773476  70.18 0.0003999667    1.154    0.134
        46  99.0000     12.4227    205.8299   1.3139595963e+02   3.1875401511e+01    0.4267494    0.1057249  42.23  0.002343941    2.724    0.633
        47 -12.1400    166.3109     54.1569   6.8693459837e+01   3.6787051414e+01    0.7627757    0.5637357 -23.27  0.001214468    1.413    0.292
        48  -9.7257     85.9576    201.6528   1.1776571994e+02   2.4169266340e+01    0.4396025    0.1740148  57.44   0.00208076    2.557    0.609
        49 -11.4190    247.9116    246.5455   9.5305435343e+01  -6.2219398983e+00    0.4281431    0.2852933   4.37   0.00329025    1.410    0.291
        50 -11.6246    185.3349     32.2660   5.8234124646e+01   3.4851061400e+01    0.6497118    0.5102271  33.92  0.001747023    1.376    0.273
        51  -8.3308    161.4357    200.4697   1.0325536208e+02   1.2497372676e+01    0.1237178    0.1013446  43.53 0.0001906422    1.015    0.015
        52 -10.2697    152.6647    198.6079   1.0463890500e+02   1.4270424374e+01    0.2733648    0.1546983 -46.76  0.001503321    2.158    0.537
        53  -8.9808    167.8477    231.9428   1.0627020519e+02   7.1711515553e+00    0.1970067    0.1329794  34.30  0.001010425    1.245    0.197
