#   1 NUMBER                 Running object number                                     
#   2 MAG_AUTO               Kron-like elliptical aperture magnitude                    [mag]
#   3 X_IMAGE                Object position along x                                    [pixel]
#   4 Y_IMAGE                Object position along y                                    [pixel]
#   5 X_WORLD                Barycenter position along world x axis                     [deg]
#   6 Y_WORLD                Barycenter position along world y axis                     [deg]
#   7 A_WORLD                Profile RMS along major axis (world units)                 [deg]
#   8 B_WORLD                Profile RMS along minor axis (world units)                 [deg]
#   9 THETA_WORLD            Position angle (CCW/world-x)                               [deg]
#  10 FWHM_WORLD             FWHM assuming a gaussian core                              [deg]
#  11 ELONGATION             A_IMAGE/B_IMAGE                                           
#  12 ELLIPTICITY            1 - B_IMAGE/A_IMAGE                                       
         1 -14.9431    173.0751     46.2962   6.2690685806e+01   3.5772379646e+01     1.342048    0.9860788  15.91  0.003939108    1.689    0.408
         2 -15.0023    190.7514     16.2886   5.0519120663e+01   3.4832398349e+01     1.007343     0.928131 -35.47  0.003745687    1.110    0.099
         3 -10.9053    139.0222    243.5820   1.1088539009e+02   9.3459177178e+00    0.2014801    0.1036889 -53.04 0.0008843747    2.595    0.615
         4 -11.9339     88.0493    250.1586   1.1999419126e+02   1.5622570431e+01    0.1879296    0.1224737  36.24  0.001337275    1.599    0.375
         5 -17.7579     69.8655    220.2571   1.2083912827e+02   2.2660642114e+01     7.763609     4.991892 -76.20   0.05355201    1.648    0.393
         6 -13.7559    112.7759    195.9526   1.1029071421e+02   2.0729350718e+01    0.5952698    0.3852926  16.83  0.002710589    2.849    0.649
         7 -14.4653    109.8911    187.6351   1.0981867776e+02   2.2679438644e+01    0.8130313    0.5689586 -39.65  0.004664072    2.002    0.500
         8  -9.7842     12.7341    206.0374   1.3006328085e+02   3.1524689961e+01    0.2845485    0.1297383  35.39  0.001806081    2.234    0.552
         9 -11.5865    193.3323    205.3153   9.6349010308e+01   5.7168435630e+00    0.1259747   0.08311893  17.62 0.0003751576    1.685    0.406
        10 -19.0825     49.9587     94.4260   1.1010474267e+02   5.1231730292e+01     16.44509    0.8537296 -62.13    0.0254866   17.253    0.942
        11 -12.1765    133.0654    194.9850   1.0614992808e+02   1.7589069138e+01    0.1948642    0.1612483  52.30 0.0004671974    1.021    0.021
        12 -10.5440     97.8625    249.1347   1.1830411366e+02   1.4458803057e+01    0.1513391   0.09714487  60.43 0.0005805969    1.275    0.216
        13 -12.1614    148.2103    228.3558   1.0759446721e+02   1.0003022345e+01    0.1987115    0.1600912 -77.03 0.0009072182    1.651    0.394
        14 -11.3113    126.5705    227.9919   1.1139848024e+02   1.3402868003e+01     0.228608    0.1329096  48.37 0.0007261797    1.334    0.251
        15 -12.8017    204.5931    190.6489   9.1926103753e+01   5.7159716884e+00    0.2783055     0.184854  55.01    0.0010433    1.787    0.440
        16 -11.6643    112.4452    205.4538   1.1149330863e+02   1.9141672148e+01    0.2177646    0.1687265  61.49 0.0005700691    1.120    0.107
        17 -11.7247    185.8967    185.1342   9.4390579377e+01   9.8288783305e+00    0.1888083    0.1656596  53.27 0.0004299577    1.244    0.196
        18 -13.2599    107.9550    203.0073   1.1207712228e+02   2.0250288423e+01    0.5083435    0.3899703  48.23  0.001940685    1.123    0.110
        19 -13.5195    162.2152    225.7047   1.0479053961e+02   8.1446093761e+00    0.3827526    0.2046288  51.23  0.001835838    1.719    0.418
        20 -13.5315    166.9706    222.5897   1.0354373317e+02   7.7972520833e+00    0.2978653    0.2526773 -59.51  0.001024083    1.571    0.363
        21 -12.9938    187.0853    175.6369   9.2486552170e+01   1.1030868059e+01    0.3338089    0.3248032   3.16  0.001004023    1.164    0.141
        22 -12.2930    185.5165    169.9837   9.1744629338e+01   1.2197436961e+01     0.286298    0.2353434 -53.42  0.001096964    1.500    0.333
        23 -11.4225    193.4782    170.9578   9.0414077131e+01   1.0536360103e+01    0.2058337    0.1656318  36.66 0.0005320436    1.101    0.092
        24 -11.7308     24.5160    165.9670   1.2549049934e+02   3.8059703347e+01    0.4100856     0.217969  14.46  0.002032607    3.803    0.737
        25 -15.0950    133.9042    145.5861   9.7879715273e+01   2.6554766135e+01     1.448485    0.4216689 -54.99  0.004258812    4.763    0.790
        26 -14.0494    129.2419    140.0173   9.7860632544e+01   2.8562865288e+01    0.4256715    0.3875696 -61.91 0.0008896968    1.140    0.123
        27 -10.6581    135.0144    241.0357   1.1130356414e+02   1.0284352000e+01    0.1452065    0.1155001  24.28 0.0003270222    1.492    0.330
        28 -12.0309     14.9871    151.2124   1.2646683399e+02   4.1977157871e+01    0.2245985    0.1480913 -57.27  0.001037911    1.729    0.422
        29 -13.6066    141.9830    139.3884   9.4808464646e+01   2.6198590623e+01    0.4634451     0.268201 -41.01  0.001805954    1.906    0.475
        30 -11.6967    174.8790    149.1489   8.9758618409e+01   1.7722046516e+01    0.2136513    0.1929207  70.41 0.0006240801    1.252    0.201
        31 -12.1073    159.2634    146.3064   9.2430870197e+01   2.1404365921e+01    0.2762424    0.2024432  87.66  0.001230656    2.042    0.510
        32 -14.0361    144.2593    147.0765   9.5849365840e+01   2.4255481684e+01    0.5891339    0.3332906 -64.63  0.002437106    2.572    0.611
        33 -12.4965      9.5472    145.1991   1.2724968010e+02   4.3689603461e+01    0.2220273    0.1325765  67.02  0.000642001    1.446    0.308
        34 -13.1989    153.2209    219.4714   1.0559991827e+02   1.0453060754e+01    0.3165134    0.2191558  18.26  0.001264496    1.878    0.467
        35 -14.3222    135.6024    126.5362   9.3537852852e+01   3.0050167572e+01     1.511264    0.2911644 -50.34  0.003517133    6.640    0.849
        36 -13.0557    107.2130    122.8101   9.9729468558e+01   3.6281930754e+01    0.3055619    0.2981797  -3.91 0.0006668304    1.180    0.152
        37 -12.5254    127.1210    123.1884   9.4832683951e+01   3.2437137460e+01    0.2185935    0.2034507   9.90 0.0004720385    1.226    0.184
        38 -13.1115    113.2307    117.2785   9.6992543126e+01   3.6371258216e+01    0.3647643    0.2438635 -64.67  0.000282618    1.649    0.394
        39 -11.9466    168.2251    113.2123   8.2987529548e+01   2.5615495145e+01    0.3708996    0.2857268 -82.67  0.001025608    1.796    0.443
        40 -12.1287    160.7812    127.8883   8.8111874174e+01   2.4516620424e+01    0.2803771    0.2117188 -63.91  0.001363283    1.616    0.381
        41 -10.8842    231.1495    113.8242   7.1378708333e+01   1.1521552535e+01    0.2013373    0.1895416 -34.87 0.0007228117    1.162    0.140
        42 -11.6293    125.3190    238.1559   1.1267586361e+02   1.2123029314e+01    0.2712358    0.1307341 -56.82  0.001594828    2.687    0.628
        43 -11.0986    205.7071    110.0518   7.4799094522e+01   1.7645000699e+01     0.208961    0.1859976 -17.86 0.0005983374    1.097    0.089
        44 -11.7375    132.6801    229.4556   1.1047203374e+02   1.2257039353e+01    0.2605771    0.1999214 -18.04  0.001322557    2.154    0.536
        45 -10.4619    149.3156     82.3312   7.8853798157e+01   3.5776486879e+01    0.1589244    0.1216635  11.47 0.0007046172    1.683    0.406
        46 -13.8062    159.8147     60.6359   6.9857996198e+01   3.6999853060e+01    0.5127354    0.4686913  43.56 0.0009824806    1.090    0.082
        47 -10.4244     13.5842     59.7689   1.1571396627e+02   6.2306731428e+01    0.1591717   0.09656906 -75.94 0.0003860418    1.510    0.338
        48 -13.6904    102.7930    241.0006   1.1680427830e+02   1.4953947126e+01    0.5836399    0.1935092 -55.66  0.002978261    3.822    0.738
        49 -12.9335    177.7212     39.1536   5.9605052920e+01   3.5539441059e+01    0.4048471    0.3558915  23.67 0.0008830504    1.227    0.185
