#   1 NUMBER                 Running object number                                     
#   2 MAG_AUTO               Kron-like elliptical aperture magnitude                    [mag]
#   3 X_IMAGE                Object position along x                                    [pixel]
#   4 Y_IMAGE                Object position along y                                    [pixel]
#   5 X_WORLD                Barycenter position along world x axis                     [deg]
#   6 Y_WORLD                Barycenter position along world y axis                     [deg]
#   7 A_WORLD                Profile RMS along major axis (world units)                 [deg]
#   8 B_WORLD                Profile RMS along minor axis (world units)                 [deg]
#   9 THETA_WORLD            Position angle (CCW/world-x)                               [deg]
#  10 FWHM_WORLD             FWHM assuming a gaussian core                              [deg]
#  11 ELONGATION             A_IMAGE/B_IMAGE                                           
#  12 ELLIPTICITY            1 - B_IMAGE/A_IMAGE                                       
         1 -14.3380    208.2843      5.3124   5.4052064949e+01   3.3027891251e+01     1.283835    0.8908619  62.18  0.006834797    1.499    0.333
         2 -12.6899    189.9402     15.1895   5.7930251881e+01   3.5997151091e+01    0.5198757    0.3595782 -87.63  0.001968897    1.273    0.214
         3 -15.0150    186.5086     33.9693   6.2582618460e+01   3.4601008395e+01     1.956033      1.26837  27.23  0.009362034    2.852    0.649
         4 -11.6829    111.7709    217.4357   1.2017974395e+02   1.3001962326e+01    0.3067115    0.2727023 -44.22 0.0009478945    1.267    0.211
         5 -18.5831     45.6647    246.5204   1.3769167736e+02   1.6478481347e+01     7.322672     5.425303  32.93   0.04585136    1.622    0.383
         6 -11.2215     95.1961    200.2281   1.2142161170e+02   1.9772495209e+01    0.3732529    0.2492595 -81.85 0.0005454145    1.716    0.417
         7 -11.7674    156.3867    199.8664   1.0693479559e+02   8.9290914659e+00    0.5872061    0.3793758 -89.20  0.002176472    3.134    0.681
         8 -11.2017    152.7325    194.0546   1.0667048744e+02   1.0894337740e+01    0.3745338     0.211681  48.80  0.001157978    1.861    0.463
         9 -12.0482    101.9549    197.3211   1.1933191146e+02   1.9343453146e+01    0.6859825    0.4262728 -22.28  0.002547994    3.231    0.691
        10 -12.1802    192.9216    194.2109   9.7873606560e+01   3.3946748812e+00     1.007053    0.5023377 -63.19   0.00316073    4.359    0.771
        11 -11.4881    141.1327    198.0097   1.1010263172e+02   1.2176255039e+01    0.3333403    0.2421232 -70.32  0.000814178    1.626    0.385
        12 -12.3116    113.5333    208.6077   1.1839915835e+02   1.4707685032e+01    0.4172488    0.3141537  66.03  0.002107822    1.420    0.296
        13 -10.7122    121.1547    197.4804   1.1473549168e+02   1.5952207328e+01    0.2573486    0.2066926 -58.44 -3.342983e-05    1.258    0.205
        14 -11.3478    208.4082    196.6315   9.5205265282e+01   1.9987676164e-01    0.2499209    0.1737514 -41.58 0.0007595093    1.370    0.270
        15 -12.8606    105.8151    204.1288   1.1950224029e+02   1.7071608667e+01    0.6050612    0.5150061 -75.92   0.00303762    1.172    0.147
        16 -11.8357    106.4256    210.7319   1.2039044234e+02   1.5430199825e+01    0.4280395    0.3660008  57.50  0.001299104    1.103    0.093
        17 -10.9813     59.1380    188.4215   1.2842873646e+02   2.8086832968e+01     0.384176    0.2428995 -47.53  0.001682674    1.761    0.432
        18 -11.9168    110.3348    188.7613   1.1583466942e+02   1.9958388405e+01    0.5291669    0.3392752  -8.46  0.001853622    3.509    0.715
        19 -10.7263    151.9196    183.9215   1.0488295234e+02   1.3333793297e+01    0.2384308    0.1873408  83.97 0.0006336629    1.641    0.391
        20 -10.1333     53.3026    181.2760   1.2888199864e+02   3.0629817116e+01    0.2283211    0.1861679 -40.25  0.000833064    1.459    0.314
        21 -10.8199     99.3985    180.7239   1.1714737116e+02   2.3827612437e+01    0.2572262    0.2524791 -27.57 0.0005810024    1.145    0.126
        22 -10.1018    206.7404    178.5672   9.1920971812e+01   4.0437090923e+00    0.3130987    0.2006914   4.19  0.001270886    2.635    0.621
        23 -11.4710    145.6056    178.7903   1.0534390868e+02   1.5740418840e+01    0.4608877    0.2287432  31.64  0.001681851    2.425    0.588
        24 -10.1176    219.2923    177.3389   8.9254127618e+01   2.0478755400e+00    0.1437746    0.1042981 -12.89 0.0002309996    1.647    0.393
        25 -10.9326    167.1794    175.1364   9.9581733931e+01   1.2327765110e+01    0.5522681    0.3215915 -71.71  0.001890085    3.203    0.688
        26 -12.1582      7.6182    214.8476   1.4258660091e+02   2.7728863594e+01       0.3994    0.2177582  13.18  0.001934432    3.541    0.718
        27  -9.4880     69.4951    172.9894   1.2352124495e+02   3.0497793424e+01      0.21027    0.1332247 -65.20 0.0009884913    1.464    0.317
        28 -10.4679    201.9576    170.0595   9.1108749998e+01   6.6558420781e+00    0.4605532    0.1930025 -52.62  0.001546263    2.761    0.638
        29 -10.5289    204.1947    166.0204   8.9816507169e+01   7.0602592736e+00    0.6422517    0.2399026 -51.98  0.002118684    3.145    0.682
        30 -10.0024     64.7690    170.6700   1.2437986724e+02   3.1753128842e+01    0.2513894    0.1724605  47.91  0.001252869    1.517    0.341
        31 -11.8361    194.5219    167.7372   9.2123120762e+01   8.5599197885e+00     0.390237    0.3544751 -65.87 0.0008405633    1.186    0.157
        32 -10.9608    190.1369    160.6831   9.1516904510e+01   1.0911826735e+01    0.3607663    0.2762764 -56.98 0.0009760075    1.354    0.262
        33 -11.3733    189.5089    155.0974   9.0430543490e+01   1.2227614970e+01    0.4547088    0.3998764 -63.71  0.001404215    1.180    0.152
        34 -10.9552    110.5054    211.4955   1.1956008252e+02   1.4563623908e+01    0.2615179    0.2318144  89.80    0.0008596    1.124    0.110
        35 -10.3536    161.4712    166.6272   9.9083878401e+01   1.5383496992e+01    0.3021485    0.2112465 -80.66 0.0008099623    2.128    0.530
        36 -10.2520     72.2021    166.9716   1.2181157128e+02   3.1621460034e+01    0.2369881    0.2089772  43.65  0.000631391    1.212    0.175
        37 -12.3944    129.6973    211.4195   1.1510653481e+02   1.1238931449e+01    0.5933776     0.347253 -84.75  0.002122838    3.361    0.702
        38 -10.9801    230.3962    166.1973   8.4967339101e+01   2.2593125838e+00     0.204662    0.1183189 -50.24 0.0004864744    1.698    0.411
        39  -9.7978      2.5800    161.9275   1.3905367497e+02   4.0542182765e+01    0.1643226    0.1505144  66.02 0.0005238412    1.253    0.202
        40 -12.5594     98.7500    153.9913   1.1220337288e+02   3.0602707671e+01    0.7002299    0.4632274 -37.07  0.003070592    1.732    0.423
        41 -11.6787    133.7704    144.9968   1.0098007730e+02   2.6093972373e+01      1.31742    0.3282811 -54.60  0.002912992    5.951    0.832
        42 -10.3197    113.1812    150.9856   1.0768474602e+02   2.8713066901e+01    0.2640937    0.1810457 -83.78  0.001074237    2.046    0.511
        43 -10.1338    145.8345    149.8757   9.9094058855e+01   2.2458664265e+01    0.2220568    0.1875317 -82.04 0.0006447502    1.339    0.253
        44 -10.4907    174.5980    149.1896   9.2286705167e+01   1.6582504133e+01    0.2805364    0.2237323  48.78 0.0006757418    1.307    0.235
        45  -9.2068    118.6459    147.3128   1.0542578842e+02   2.8560406576e+01    0.1640497    0.1229069  79.47 0.0007044972    1.733    0.423
        46 -10.7681    143.4963    145.5035   9.8667333496e+01   2.3963986790e+01    0.3041356    0.1485156 -58.79  0.001041394    2.504    0.601
        47 -12.3999    108.8281    139.9318   1.0639983669e+02   3.2227251404e+01    0.6917922    0.4044427 -30.82  0.002619862    2.365    0.577
        48 -10.1139     86.7895    143.6076   1.1335113521e+02   3.5222064234e+01    0.2058818     0.137651  49.25  0.000440052    1.626    0.385
        49 -12.4574     97.8245    139.3718   1.0932225108e+02   3.4376284040e+01    0.2916766    0.2897316 -50.72 0.0004056118    1.050    0.048
        50 -10.8143    141.8607    138.4284   9.7421062868e+01   2.5947140256e+01    0.2756637    0.1845051 -43.18 0.0009306968    1.488    0.328
        51 -11.6860    105.8108    130.3672   1.0500758315e+02   3.5087840980e+01     0.518887    0.3310826 -55.30  0.002270722    1.559    0.358
        52 -11.5963    103.9279    126.0458   1.0449929018e+02   3.6460427411e+01     0.347594    0.2913435  -6.48 0.0008083826    1.426    0.299
        53 -11.6116    135.7720    127.5921   9.6335446722e+01   2.9714301889e+01    0.6767841    0.1890406 -49.89   0.00186816    3.760    0.734
        54 -11.3683    115.9425    130.0363   1.0213693842e+02   3.3215445807e+01    0.3770283     0.298099 -11.63 0.0007688722    1.626    0.385
        55 -10.7268    160.3834    127.6779   9.0439666297e+01   2.4366156962e+01    0.3457826     0.258513 -84.16  0.001527746    1.752    0.429
        56 -11.0864    120.3602    124.3749   9.9558873190e+01   3.3645184206e+01    0.3093326    0.2372562 -34.82 0.0008580027    1.380    0.275
        57 -10.3429    111.0140    119.0328   1.0077549620e+02   3.6726127120e+01    0.2231141    0.2198194 -58.82 0.0003283423    1.020    0.019
        58 -10.6052    168.1590    113.1096   8.5166698648e+01   2.5722100492e+01    0.3392522    0.2630553 -81.18 0.0009792333    1.536    0.349
        59 -11.1521    135.0000    111.4974   9.2469782522e+01   3.3429554139e+01     0.602855   0.08701342 -44.81  0.001246392    6.868    0.854
        60 -19.2046     22.3860    100.4419   1.2419586789e+02   5.3534518339e+01     18.12658     1.828336 -61.63   0.03808418    9.766    0.898
        61 -10.4294    205.6380    110.0972   7.7239303031e+01   1.8030739943e+01    0.2604673    0.2113408  50.43 0.0006596616    1.353    0.261
        62 -11.5634    119.0940    109.8356   9.6186883764e+01   3.7147391830e+01    0.5426107    0.2555857  46.46  0.002058019    2.172    0.540
        63  -9.9129     41.5191     91.9576   1.1569224040e+02   5.3558378338e+01      0.18649    0.1651549 -15.30 0.0004269898    1.109    0.099
        64 -12.5997    112.7375    196.0429   1.1651164280e+02   1.7787889585e+01    0.8101109    0.4905729   8.57  0.002784027    3.641    0.725
        65  -9.4852    152.5317     80.4568   8.0139398426e+01   3.5560498635e+01    0.1455045    0.1376456  80.47 8.270583e-05    1.014    0.014
        66  -9.1802     73.4746     73.4541   9.9498493136e+01   5.2918090849e+01    0.1351614    0.1223402  -5.73 0.0001051497    1.008    0.007
        67 -12.3123    167.7779     67.5802   7.3744227601e+01   3.4181166151e+01    0.7022695    0.4047419 -78.62  0.001383143    2.977    0.664
        68  -9.8242    169.1373    236.8664   1.1063458158e+02  -7.9853643077e-01    0.1894755    0.1755395  49.82 0.0003470506    1.179    0.152
        69 -10.0951     93.7472    205.0377   1.2249989217e+02   1.8862020897e+01    0.3455732    0.2078735  34.18  0.001256128    1.753    0.429
        70 -13.6956    172.0608     48.9727   6.8295791181e+01   3.5958488279e+01    0.7472392    0.7046086 -27.00 0.0008514595    1.280    0.219
