#   1 NUMBER                 Running object number                                     
#   2 MAG_AUTO               Kron-like elliptical aperture magnitude                    [mag]
#   3 X_IMAGE                Object position along x                                    [pixel]
#   4 Y_IMAGE                Object position along y                                    [pixel]
#   5 X_WORLD                Barycenter position along world x axis                     [deg]
#   6 Y_WORLD                Barycenter position along world y axis                     [deg]
#   7 A_WORLD                Profile RMS along major axis (world units)                 [deg]
#   8 B_WORLD                Profile RMS along minor axis (world units)                 [deg]
#   9 THETA_WORLD            Position angle (CCW/world-x)                               [deg]
#  10 FWHM_WORLD             FWHM assuming a gaussian core                              [deg]
#  11 ELONGATION             A_IMAGE/B_IMAGE                                           
#  12 ELLIPTICITY            1 - B_IMAGE/A_IMAGE                                       
         1  -9.7568     29.6164     17.5454   7.9103377585e+01   6.9821457217e+01    0.4022867    0.1940438 -27.02  0.001392259    1.979    0.495
         2 -10.9060     57.3394     13.3964   6.4919343904e+01   6.6230410334e+01    0.5361886    0.2764686  24.89  0.001563246    2.131    0.531
         3 -11.6549    111.6072     19.4518   5.1581921200e+01   5.4514153683e+01    0.4869301    0.3457032  45.94  0.002579896    1.265    0.209
         4 -11.0172    149.9135     18.4385   4.4085268949e+01   4.5435945766e+01    0.3179329    0.2753348  88.45 0.0004987167    1.116    0.104
         5 -10.1068    154.8280     16.2058   4.2663924350e+01   4.4454486682e+01    0.4345361    0.2623208 -20.67  0.002193199    1.944    0.486
         6  -9.8400    156.3775     10.7681   4.0807171591e+01   4.4602028332e+01    0.2740722    0.2390611 -51.19  0.001031387    1.214    0.176
         7  -9.5272    158.5022      7.4526   3.9544131134e+01   4.4387689475e+01    0.2337857    0.1864667  63.59 0.0005417494    1.144    0.126
         8 -10.4475     86.6016     15.9442   5.6475734140e+01   6.0366142043e+01    0.4447057    0.2600268 -42.04  0.001839885    2.112    0.526
         9 -10.5614    101.8138     16.0941   5.2566233258e+01   5.7069537444e+01    0.4151821    0.2856389  15.62  0.001172087    1.625    0.385
        10  -9.9734     23.4850      2.4867   7.4332256769e+01   7.2535662727e+01    0.3125742   0.09434412  33.91  0.001401217    3.239    0.691
        11 -10.8124      4.4295      3.7932   8.5966257680e+01   7.4392181050e+01    0.5908467    0.3345726   0.42  0.002899744    1.728    0.421
        12 -10.0332     17.9274      3.8493   7.8090384048e+01   7.3033219973e+01    0.3025654    0.2805965  57.55  0.002108186    2.088    0.521
        13  -9.5794     19.0207     10.9554   8.1291721517e+01   7.1969069634e+01    0.1818471    0.1218463  -9.57 0.0006988795    1.272    0.214
        14 -11.1122     14.8010      7.6532   8.1904004204e+01   7.2871536087e+01    0.4472606    0.3838185  42.43  0.002221249    1.935    0.483
        15  -8.7901     77.9773     12.9926   5.7715526723e+01   6.2423974985e+01    0.2022447    0.1350698 -19.34  0.000378018    1.546    0.353
        16 -10.3611     10.8866     15.1781   8.7898910168e+01   7.2151311753e+01     0.307161    0.2240055  -1.57  0.002045245    1.208    0.172
        17 -10.4553    186.0205     13.5082   3.8010190354e+01   3.7115891517e+01    0.3674602    0.2082586 -66.86   0.00122811    1.880    0.468
        18 -11.3226    181.1928     13.4551   3.8525118728e+01   3.8285218229e+01    0.8381664    0.3480804  50.22  0.003494814    2.647    0.622
        19 -12.0219    122.2688     11.3026   4.6407313830e+01   5.2809597779e+01    0.6766123    0.3069186  58.16  0.002353607    1.851    0.460
        20 -11.1782    127.2592      4.8578   4.3266856345e+01   5.2175201110e+01    0.3770887    0.2373711  52.94 0.0004420948    1.384    0.278
        21 -10.0571    216.4376      7.4979   3.3731192063e+01   3.0649680733e+01    0.3107315    0.1868625 -41.49  0.001312655    1.556    0.357
        22 -10.5961    210.5721      9.9266   3.4772771240e+01   3.1724411003e+01    0.3988379    0.2495112 -61.99    0.0022666    1.451    0.311
        23 -10.5269    212.8048      5.2618   3.3508258092e+01   3.1698756841e+01    0.3422511    0.2340575 -40.66  0.001411575    1.437    0.304
        24 -10.8192     47.2417      9.4946   6.6990651681e+01   6.8341383849e+01    0.3958707    0.2473557   5.50  0.001344751    1.642    0.391
        25  -9.3833    250.1833      9.8085   3.1820345369e+01   2.3174574999e+01    0.1436211    0.1360271 -65.60  0.001072644    1.348    0.258
        26  -9.3082     92.9911     10.1785   5.2347416189e+01   5.9565113617e+01    0.1833271    0.1668143  82.05 0.0005207908    1.317    0.241
        27 -10.5880     30.1785     24.3017   8.2017656130e+01   6.8757846517e+01    0.4130897    0.1551159 -40.21  0.001930451    2.399    0.583
        28  -9.8907    237.5167      8.1592   3.2322355271e+01   2.5979578203e+01     0.273139    0.1703713  -7.15  0.001380771    3.032    0.670
        29  -9.7614     85.7787      9.0894   5.3769476907e+01   6.1198368629e+01    0.2433136    0.1724891  70.72 0.0008734536    1.694    0.410
        30  -9.3251    102.4999      7.5375   4.9027715030e+01   5.7700520002e+01    0.3119757    0.1484637  31.72  0.001217437    2.429    0.588
        31  -9.7791     78.6638      6.7751   5.4734460636e+01   6.2871738575e+01    0.3448353    0.2460067  22.99  0.002086168    1.310    0.237
        32  -9.8202     25.1233      7.1974   7.6072437996e+01   7.1757695232e+01    0.1971885     0.140433 -24.29 0.0005545467    1.285    0.222
        33 -10.3117    107.0821      4.6446   4.6922111583e+01   5.6901994819e+01    0.4595071    0.2654223 -51.52  0.002058308    2.349    0.574
        34  -8.9268    102.0704      1.5261   4.6746749203e+01   5.8276326133e+01    0.1917643    0.1098027  61.40 0.0005544386    1.533    0.348
        35  -9.2602    199.9205      3.8862   3.4247888818e+01   3.4791454516e+01    0.3862685   0.09409436 -42.97  0.001486452    3.355    0.702
        36 -10.1356     85.0933      1.4316   5.0631229411e+01   6.1983088104e+01    0.3439775    0.1427982  63.61 0.0006317483    2.472    0.595
        37  -8.8280     65.1160      5.3465   5.8256901378e+01   6.5646578627e+01    0.1690106    0.1360991  31.24 0.0005983763    1.069    0.065
        38 -10.2670     38.7350      4.9951   6.8308818392e+01   7.0151607003e+01    0.2836465    0.1470635  40.83  0.001019963    1.861    0.463
        39  -9.1592     41.9954      1.4780   6.4985212145e+01   7.0015644480e+01    0.2443656     0.132788  47.58  0.001385952    1.956    0.489
        40  -8.7722    247.6723      4.6835   3.0952694625e+01   2.4245772360e+01    0.1031583   0.08752991  49.17 0.0007045334    1.676    0.404
        41  -9.0789    241.8019      1.9815   3.0769904484e+01   2.5740223980e+01    0.1471294    0.1341347  86.13  0.001063683    1.319    0.242
        42  -9.5389     54.2521      1.9985   6.0395864594e+01   6.7923578417e+01    0.2825509    0.1473917  43.98 0.0009583369    1.679    0.404
        43  -8.8441     34.3928      1.8654   6.8585453200e+01   7.1127961197e+01    0.1525633   0.09081307  -9.66 0.0003301396    1.604    0.377
        44 -10.0097     22.9379     15.7854   8.1636406080e+01   7.0854651150e+01    0.3330149    0.3168953  85.30  0.001989728    1.937    0.484
        45  -8.9952    228.8821      1.4923   3.1500541939e+01   2.8526764360e+01    0.1729055     0.102085  83.71 0.0009517596    1.521    0.342
        46 -10.4664     90.3553      3.3704   5.0151987788e+01   6.0711186375e+01    0.3292441    0.2451701  72.88  0.001273368    1.519    0.342
        47  -9.5703     64.7317      1.3895   5.6464836593e+01   6.6066430959e+01    0.2089647     0.107868  56.14   0.00109053    1.954    0.488
        48  -9.0713     45.9312    112.8027   1.0276933629e+02   4.8576125776e+01    0.2549127    0.1594159  -7.99   0.00114384    2.475    0.596
        49  -9.4036     49.9423    111.3705   1.0116907715e+02   4.8464963496e+01    0.2326923    0.1785528 -74.15 0.0005292093    1.292    0.226
        50 -11.0762     20.7137    109.6341   1.1041080972e+02   5.1752879309e+01    0.4008285    0.2618233  44.17  0.001354392    1.790    0.441
        51  -8.3619    127.9708    109.6864   7.7080535737e+01   3.5525224940e+01    0.2565594    0.1259111  26.09 0.0007047142    4.298    0.767
        52  -8.5077    100.3193    109.3126   8.4763859124e+01   4.1202829473e+01    0.1555949    0.1201738 -13.71 0.0007037001    1.648    0.393
        53  -8.9136     34.7077    108.4968   1.0561215651e+02   5.0806493698e+01    0.2514014    0.1039414 -63.00   0.00058979    2.030    0.507
        54 -10.1952      6.9026    108.4699   1.1468540067e+02   5.2995527294e+01    0.2979202    0.2413011 -89.27  0.001037769    1.203    0.169
        55  -9.7068      8.1832    103.5666   1.1355906988e+02   5.4090702173e+01    0.2535992    0.1612509 -56.85 0.0007771113    1.275    0.216
        56  -8.9594     11.5277    101.9983   1.1220619325e+02   5.4252990645e+01    0.2012402    0.1017704 -66.75 0.0007712094    1.569    0.363
        57  -8.6996     42.5688    108.4828   1.0300207538e+02   5.0005456918e+01     0.138215    0.1186266 -60.19  0.000806349    1.013    0.013
        58 -10.4602     61.0813    106.6921   9.6470868338e+01   4.8194819185e+01     0.298109    0.1784364 -47.69 0.0001865578    1.521    0.342
        59  -9.0810     56.9935    103.0000   9.6965557758e+01   4.9623804317e+01    0.3460781     0.128551  22.08  0.001106108    4.308    0.768
        60 -10.2929     61.6551    101.6663   9.5075880404e+01   4.9322156744e+01    0.3045684    0.2002124 -34.82  0.001462872    1.624    0.384
        61 -10.6336     79.9858    103.5374   8.9523991007e+01   4.6129216333e+01    0.3731812    0.2969669 -19.24  0.001598513    1.450    0.310
        62  -9.2028     17.1431    103.9093   1.1064098196e+02   5.3406899967e+01     0.238324    0.1349213 -32.99  0.001210853    2.032    0.508
        63  -8.1666    134.3401    103.3097   7.3660671173e+01   3.5520872401e+01    0.1605445    0.1258027   3.74 0.0007044508    1.690    0.408
        64  -9.3807    108.4587    103.0665   8.0676865661e+01   4.1054335304e+01    0.2950014     0.212193  24.13 0.0006879168    1.671    0.401
        65  -9.9901     45.0865    101.7875   1.0073339807e+02   5.1351649872e+01    0.2690609    0.2206191  56.06 0.0006676508    1.434    0.303
        66  -9.6744     53.2939    100.3830   9.7602216751e+01   5.0719206761e+01    0.2766462    0.1889154 -38.39 0.0005346774    1.452    0.311
        67  -9.9624     53.4475     97.4835   9.6853389007e+01   5.1388818474e+01    0.2706241    0.2414834 -56.53 0.0005454603    1.056    0.053
        68  -9.9017     69.1966     96.4760   9.1210070394e+01   4.9464911480e+01    0.3158726    0.2345807 -52.90 0.0008816822    1.245    0.197
        69 -10.2710     16.4208     95.4143   1.0940885083e+02   5.5486373325e+01    0.2758461    0.2076579  60.39 0.0005263045    1.625    0.385
        70  -8.3291    148.0043     96.2354   6.8294664120e+01   3.3881847693e+01    0.1956575    0.1312474  50.20 0.0001955275    1.518    0.341
        71  -9.7207     79.2957     94.5141   8.7311148375e+01   4.8328903001e+01    0.3537168    0.2595787  -7.13  0.001671926    1.784    0.440
        72  -9.9074     35.0792     95.1302   1.0275722765e+02   5.3988099061e+01    0.2178679     0.156979 -41.05  0.001220796    1.294    0.227
        73  -9.8585    116.5168     93.5686   7.5653076039e+01   4.1470750154e+01    0.2837391    0.2500064 -84.99 0.0006954049    1.319    0.242
        74  -8.6160    132.2484     93.6128   7.1432130892e+01   3.8021098964e+01    0.2068289    0.1465689  37.90 0.0003469238    1.504    0.335
        75  -8.5250    109.2955     92.6999   7.7460161119e+01   4.3159827170e+01    0.1495814    0.1222998 -85.93 0.0002756631    1.573    0.364
        76 -10.1437     87.6536     89.9631   8.3283687500e+01   4.7910908633e+01    0.6138319    0.3882687 -78.19  0.001687282    3.114    0.679
        77  -8.6209     52.2441     91.6491   9.5821055643e+01   5.2905858973e+01     0.133155    0.1046409 -85.30 0.0002325646    1.581    0.368
        78 -10.3647     35.0696     89.8418   1.0157201698e+02   5.5232565412e+01    0.3745497    0.2018035  20.20  0.001472235    2.218    0.549
        79  -8.8148    139.8407     88.8811   6.8137302776e+01   3.7241484564e+01    0.2124938    0.1816083 -71.11 0.0006456347    1.307    0.235
        80 -10.8817    120.9436     87.2987   7.2555387839e+01   4.1820126706e+01    0.5440053    0.3723699  34.88  0.001386774    1.594    0.373
        81  -8.9834    126.9924     87.3031   7.0933591274e+01   4.0481874683e+01    0.2062112    0.2006378  56.33 0.0004430587    1.051    0.049
        82  -8.7687     63.3111     89.3082   9.1292387167e+01   5.1969351891e+01    0.1459102    0.1026751 -23.94  0.000418933    1.621    0.383
        83  -9.6581     57.0313     89.0204   9.3430477078e+01   5.2897253534e+01    0.2066842    0.1691841  81.73 0.0006820156    1.599    0.374
        84  -9.7071     47.9142     89.0381   9.6706711654e+01   5.4034348466e+01    0.2062453    0.1730636 -38.53 0.0002998004    1.089    0.082
        85 -10.6392    131.5069     86.6921   6.9575851233e+01   3.9586224403e+01    0.2877383    0.2677444 -26.89 0.0003507805    1.086    0.079
        86  -9.8218    102.6880     86.2095   7.7465245432e+01   4.5870286210e+01    0.2709619      0.18175 -47.35 0.0009814268    1.471    0.320
        87 -10.1653     29.3578     85.2000   1.0260856673e+02   5.6843652666e+01    0.4235051    0.2587241  -0.54  0.002004418    2.145    0.534
        88  -9.3711     81.9615     84.9429   8.3648636959e+01   5.0003152213e+01    0.2144115    0.2028881 -27.59 0.0003440579    1.022    0.022
        89  -9.6565     80.0188     80.9598   8.3081506723e+01   5.1189381956e+01     0.213192    0.1953615 -25.16            0    1.021    0.021
        90 -10.3380     76.0176     83.2234   8.5131395400e+01   5.1374443799e+01    0.3182079    0.2887511 -31.08 0.0005263586    1.017    0.017
        91 -10.1846     71.5557     83.1678   8.6651118517e+01   5.2103052173e+01    0.3010273    0.2511723 -73.11  0.001615258    1.449    0.310
        92 -10.5129     39.4119     84.0223   9.8558027256e+01   5.6134442713e+01    0.4488529    0.1777426 -49.84  0.001102304    2.071    0.517
        93  -8.8504    139.2281     83.7079   6.6751371621e+01   3.8390970539e+01     0.245215    0.1265984 -29.33 0.0006645255    2.358    0.576
        94  -9.4578    109.3852     88.2408   7.6100515560e+01   4.4084728043e+01    0.2192118    0.1404396 -52.74 0.0003941201    1.659    0.397
        95  -9.9081    113.2374     81.2675   7.2844434941e+01   4.4698557009e+01    0.2841084    0.2273293   0.02  0.001298663    1.513    0.339
        96 -10.2541     54.8078     80.6205   9.1905417008e+01   5.5078600179e+01    0.3354232    0.2863597 -18.81  0.001712214    1.168    0.144
        97  -9.4191    108.4346     80.8190   7.4086304445e+01   4.5801711547e+01    0.2684205    0.2050447  32.00 0.0008604965    1.387    0.279
        98 -10.7898    104.4760     78.7306   7.4592702264e+01   4.7037180222e+01    0.3887256    0.3051482 -49.88 0.0008812685    1.316    0.240
        99 -10.5857    108.2739     74.7606   7.2196952422e+01   4.7025177634e+01    0.5443208    0.3334386 -12.42  0.001739185    2.744    0.636
       100  -8.9337    103.6244     72.7139   7.2898381933e+01   4.8387517823e+01     0.237818    0.1724781 -56.67  0.000273789    1.610    0.379
       101 -10.4111     97.0195     80.8934   7.7549311778e+01   4.8090172709e+01     0.288971    0.2428935 -43.57            0    1.164    0.141
       102 -10.3269     98.7198     75.9942   7.5457564816e+01   4.8742905578e+01    0.3194286    0.2939025 -81.35  0.001087608    1.283    0.220
       103 -12.2728     98.1936     69.1295   7.3352588115e+01   5.0174631843e+01    0.5691052    0.4583848  15.81  0.001773878    1.358    0.264
       104  -8.9776     65.5113     80.9489   8.8116377862e+01   5.3509870987e+01     0.212386    0.1292752 -49.11 0.0004091896    1.513    0.339
       105  -9.6922      6.9689     80.2369   1.1001164169e+02   5.9614817664e+01    0.2028876    0.1446881 -61.01 0.0003574812    1.122    0.109
       106  -9.0466    154.9604     79.3139   6.1829668464e+01   3.5479352299e+01    0.2133322    0.1895539  59.66 0.0002315151    1.131    0.116
       107  -9.9185     49.3408     76.7615   9.2838116135e+01   5.6622058826e+01     0.301003    0.2317017 -22.29  0.001263308    1.318    0.241
       108 -10.0452     55.6413     74.4395   8.9767599966e+01   5.6310646039e+01     0.472974    0.3002518 -16.39  0.002225172    2.035    0.509
       109 -11.2934     76.1150     75.1929   8.2598767298e+01   5.3056417787e+01    0.6629774    0.3151715  31.63   0.00189042    2.404    0.584
       110  -9.6816      2.3297     73.2724   1.1044273896e+02   6.1432211812e+01    0.2103629    0.1617878 -28.50 0.0005077896    1.318    0.241
       111  -9.9212     45.5424     72.7029   9.3110214483e+01   5.7960885591e+01    0.3646256    0.2009083 -49.35  0.001541291    1.576    0.365
       112 -10.3294    152.6914     73.2484   6.0525321392e+01   3.7108347377e+01    0.4090172    0.1917717 -42.49  0.001568529    2.114    0.527
       113  -8.5249     30.5272     72.5185   9.8992056957e+01   5.9590546243e+01    0.1288362    0.1110005 -46.97 0.0001520861    1.069    0.065
       114 -11.1931    137.0174     69.5306   6.2931295532e+01   4.1514653753e+01    0.4977917     0.265794  45.56 0.0004407693    1.894    0.472
       115 -10.1245     64.1744     70.6707   8.5405175478e+01   5.5884742071e+01    0.3840985    0.2451718  39.42  0.001150587    1.712    0.416
       116 -10.0269     60.1790     65.8935   8.5326760071e+01   5.7446156829e+01    0.4258789     0.264957 -19.82  0.001998868    1.970    0.492
       117  -8.7719     39.2041     71.5759   9.5271542096e+01   5.8921539534e+01    0.1742311    0.1218535   1.64  0.000607165    1.658    0.397
       118  -9.2530     17.9044     70.3851   1.0354252520e+02   6.1112156627e+01    0.2852749     0.123942 -51.82 0.0009995484    1.763    0.433
       119 -10.0498      5.0017     74.9868   1.0973506888e+02   6.0909678528e+01      0.30237    0.1626821 -54.11  0.001702617    1.408    0.290
       120  -9.3240    119.4737     69.0079   6.7190294958e+01   4.5657980451e+01    0.3044341    0.1971255  36.30  0.001091868    1.663    0.399
       121  -9.5636     89.9821     67.8069   7.5496883945e+01   5.2034884127e+01    0.3762951    0.3246359 -72.76  0.002023104    1.477    0.323
       122 -10.0534     90.3441     62.0656   7.3394586509e+01   5.3030675220e+01    0.5074626    0.3439023  81.48  0.001997916    3.194    0.687
       123 -11.2469     95.7772     57.5640   7.0085097355e+01   5.2746408648e+01    0.5971665    0.4626384 -27.97  0.002757146    1.283    0.221
       124 -10.0068    153.9753     66.9716   5.8370067295e+01   3.7871124413e+01     0.238671    0.2269213  71.23 0.0005360941    1.035    0.034
       125  -9.7739     70.6553     66.4339   8.1637831231e+01   5.5722799103e+01    0.2408186    0.2100405 -15.11 0.0001903279    1.077    0.072
       126  -9.5427     71.3658     62.3723   7.9981784101e+01   5.6392297576e+01    0.4019034    0.2255663  57.40  0.001248355    3.040    0.671
       127  -8.9046     66.7912     63.0716   8.1894295240e+01   5.6998341804e+01    0.2638664    0.1615445 -30.31 0.0008064427    1.661    0.398
       128  -9.7273    111.1424     65.3868   6.8274484906e+01   4.8146199319e+01     0.401881    0.2098566 -34.26  0.001253669    1.975    0.494
       129  -8.8862    108.4566     62.5401   6.8067860619e+01   4.9229223419e+01    0.2058556     0.137766 -48.36 0.0001253663    1.633    0.388
       130  -8.8036     49.1565     65.1671   8.9358708032e+01   5.9099119533e+01    0.1721704    0.1570479 -63.68 0.0007647942    1.309    0.236
       131 -10.4218     43.5909     63.2427   9.0969634334e+01   6.0177279673e+01     0.337295     0.304521 -62.45  0.001385894    1.313    0.239
       132 -10.0508     32.5892     63.7327   9.5652303596e+01   6.1275311428e+01    0.3337693    0.2399909 -38.33  0.001981353    1.175    0.149
       133 -10.8439      3.7339     59.7453   1.0690416240e+02   6.4309141969e+01    0.5676449    0.1926569 -60.42  0.001781359    2.231    0.552
       134 -11.3602      7.9330     56.6315   1.0427725835e+02   6.4727916599e+01    0.2215603    0.1727186 -36.80 0.0002640774    1.085    0.079
       135  -8.6719    187.0427     63.5822   5.1332423688e+01   3.0343848743e+01    0.2091133    0.1390657  67.43 0.0009930711    1.538    0.350
       136  -8.6571     17.1383     63.3823   1.0206809001e+02   6.2685365103e+01    0.1504636    0.1109607  32.70  0.000927223    1.660    0.397
       137  -8.6595    172.5266     62.4605   5.3474618417e+01   3.4058074132e+01    0.1456292    0.1386645 -81.91 9.665385e-05    1.008    0.008
       138 -10.7687     59.3141     57.7719   8.2857269463e+01   5.9157966775e+01    0.4104823    0.3360479  11.12  0.001405624    1.225    0.183
       139 -11.8263    150.2694     56.9002   5.6058112416e+01   4.0399679882e+01    0.5986842    0.4326937 -67.68  0.002847323    1.670    0.401
       140 -10.3054    153.6376     46.4557   5.2169380424e+01   4.1113254887e+01    0.5593135     0.235231  40.87  0.001317859    3.190    0.686
       141  -9.3052    121.4548     60.0927   6.3713496969e+01   4.6753428620e+01    0.2966757    0.1933141  33.98 0.0009938959    1.707    0.414
       142  -9.4502     34.7910     57.8128   9.2873712959e+01   6.2265291100e+01    0.1879857    0.1452703 -30.56 0.0003935952    1.109    0.098
       143  -9.7062    200.0917     56.0136   4.7370818213e+01   2.8370970553e+01    0.3333293    0.2242321  17.96  0.001236013    2.646    0.622
       144  -9.6145    160.0151     56.9357   5.4154707680e+01   3.7998226369e+01    0.3168366    0.2488717  -1.09 0.0007046958    1.647    0.393
       145  -9.9052    162.5123     52.8187   5.2464293533e+01   3.8002052912e+01    0.3818106    0.2446436 -38.35  0.001808595    1.566    0.361
       146  -8.9996    222.2151     56.1988   4.4558954548e+01   2.3243971933e+01    0.2866353   0.08161221  57.10  0.001015196    3.494    0.714
       147  -9.1190    112.3829     55.8889   6.4676624501e+01   4.9490893468e+01    0.2295508    0.1989277  62.74 0.0005562788    1.247    0.198
       148  -9.1643     26.1821     56.4851   9.6168192005e+01   6.3380374357e+01    0.1684902      0.11996  14.83  0.001014174    1.536    0.349
       149  -8.7452    126.2401     55.3531   6.0922523175e+01   4.6414258528e+01     0.144034    0.1115416   7.84  0.000250601    1.579    0.367
       150 -10.1800     81.4726     54.5088   7.3604627005e+01   5.6049410524e+01    0.4196194     0.243075  34.73  0.001439087    1.777    0.437
       151 -10.5772    205.3582     51.8194   4.5587529088e+01   2.7739989358e+01    0.5865589     0.442664 -80.99  0.003195818    1.337    0.252
       152 -10.0841    173.9046     52.2935   5.0339112413e+01   3.5266216244e+01    0.4721777    0.1591868 -29.17  0.001545775    3.477    0.712
       153  -9.2009    135.5132     53.9694   5.8289273787e+01   4.4432601297e+01    0.1979563    0.1294397   1.23  0.000667533    2.393    0.582
       154  -9.8738     81.6854     51.0396   7.2239289618e+01   5.6600079064e+01    0.3246138    0.2045064 -50.30  0.001197296    1.920    0.479
       155  -8.5513     71.9711     54.7279   7.7012944963e+01   5.7699657134e+01    0.1641853    0.1167455  34.13 0.0008628315    1.423    0.297
       156  -9.2107     29.1899     52.4463   9.3540019023e+01   6.3904103998e+01    0.2150441    0.1444361 -41.25 0.0003939224    1.238    0.192
       157 -10.0258     26.4876     48.0671   9.3268931213e+01   6.5018142449e+01    0.3804812    0.2107566  22.06  0.002081061    1.965    0.491
       158  -9.1691     43.6148     52.2302   8.7217014554e+01   6.2344579308e+01    0.2372984    0.1638671  46.58  0.001067615    1.941    0.485
       159  -9.7664    126.5358     50.3485   5.9163169159e+01   4.7115397284e+01    0.2814791    0.2326263  16.25 0.0001977927    1.352    0.260
       160  -9.4306    115.9916     50.9556   6.1994855083e+01   4.9461213068e+01    0.3209748    0.2325375 -77.96  0.001475593    2.087    0.521
       161  -9.1329    111.6739     49.6460   6.2670775517e+01   5.0634137519e+01    0.3553032    0.2391832   1.10  0.001603024    2.050    0.512
       162 -10.5049    106.2364     50.3544   6.4412712255e+01   5.1724267628e+01    0.3349893    0.2869242 -85.06 0.0009834503    1.506    0.336
       163  -8.3182    194.6820     67.6738   5.1215260786e+01   2.7864739609e+01    0.1421956    0.1141935  20.53 0.0007045643    1.677    0.404
       164  -9.6470     17.4226     50.6475   9.8266143168e+01   6.5297649636e+01    0.3309129     0.168918   5.08  0.001683063    2.426    0.588
       165  -9.4501    212.4082     49.5688   4.4136967018e+01   2.6420714593e+01    0.2877879    0.2019836 -81.68  0.001522127    1.481    0.325
       166 -10.3474     55.8283     42.2303   7.8346030316e+01   6.2447101219e+01    0.4008315    0.2742771   2.90  0.001104507    1.624    0.384
       167  -9.1786     55.4886     49.9826   8.1504444340e+01   6.1156869401e+01    0.2094234    0.1569393 -14.25  0.000924369    1.303    0.233
       168 -10.3680     59.1288     47.4554   7.9095808782e+01   6.1057523588e+01    0.3916606     0.260392 -19.07  0.002070642    1.568    0.362
       169  -9.3795     42.6322     45.7227   8.5230429252e+01   6.3669718187e+01    0.3472892    0.1770986 -48.80  0.001592594    1.974    0.493
       170  -9.5170     49.2070     49.5397   8.3893215559e+01   6.2119993705e+01    0.2379413    0.1707142 -18.23 0.0005325882    1.354    0.261
       171  -9.7723     46.0049     47.2352   8.4364489470e+01   6.2964051724e+01    0.1961222    0.1833699 -15.63 0.0002138752    1.199    0.166
       172 -10.7559      5.7447     48.3326   1.0299148755e+02   6.6562099428e+01    0.2620339     0.147388 -38.62 0.0001982878    1.432    0.302
       173  -9.1175     10.9781     47.9707   1.0042780051e+02   6.6302536669e+01    0.2085457    0.1560959  68.42  0.001017003    2.240    0.554
       174  -9.0157    122.0395     48.9937   5.9786089311e+01   4.8369147128e+01     0.220769    0.1717324 -68.84 0.0008776312    1.635    0.388
       175  -8.8781    233.3657     48.1818   4.1445976518e+01   2.1930828689e+01    0.1898486   0.09914952 -46.14 0.0004150463    1.642    0.391
       176  -8.8087     89.0046     48.0282   6.8701121178e+01   5.5680578505e+01     0.193465    0.1916145 -33.53 0.0004378845    1.183    0.155
       177  -9.6600     85.2518     46.7603   6.9428454574e+01   5.6617380335e+01    0.3699788    0.2399604  -0.26  0.001701811    2.091    0.522
       178 -10.7917    142.4058     46.1764   5.4276594927e+01   4.3912066823e+01    0.3970084    0.2965311 -59.87  0.002003889    1.524    0.344
       179 -10.0087    143.5399     42.5202   5.2870492620e+01   4.4141144191e+01    0.2737404    0.2569352  49.42 0.0006516745    1.054    0.051
       180  -9.1440     34.2534     46.3878   8.9162744051e+01   6.4537346129e+01    0.1914488    0.1541697  28.42  0.001156153    1.425    0.298
       181 -10.7753    166.5169     43.1948   4.8926856871e+01   3.8374689009e+01     0.588264    0.2913246  72.00  0.002403175    2.221    0.550
       182 -10.8426    108.7688     43.4506   6.1213922763e+01   5.2200449578e+01    0.2858466    0.2556611  44.51  0.000260214    1.080    0.074
       183  -9.0724     69.3800     44.0010   7.3846621217e+01   5.9965860274e+01    0.3084572    0.1798859  -2.55  0.001278288    2.776    0.640
       184  -9.2384     19.8318     43.5859   9.4810688156e+01   6.6477473698e+01    0.1989582    0.1815733  55.19  0.001123507    1.586    0.370
       185  -8.3826     10.5430     43.4456   9.9214627396e+01   6.7222711717e+01    0.1226974   0.09041541 -34.30 4.991648e-05    1.071    0.067
       186 -10.0350     36.0559     39.7334   8.5813840399e+01   6.5532949169e+01    0.4229282     0.173039 -42.15  0.001455935    2.138    0.532
       187  -8.8406    151.4383     41.2062   5.0947477229e+01   4.2375311492e+01    0.3016156    0.1616192  88.75  0.001023659    3.223    0.690
       188 -10.0615     63.1700     40.9171   7.4932929432e+01   6.1504496142e+01    0.2823479    0.1704651  35.30  0.001443305    1.646    0.392
       189  -9.4192     28.0237     41.0710   9.0034235561e+01   6.6176692228e+01    0.1859367    0.1441847 -21.08            0    1.083    0.077
       190 -10.1363    112.2589     38.8893   5.8639663898e+01   5.2051666683e+01    0.3381415    0.2671166 -57.12  0.001812698    1.536    0.349
       191  -8.2369     77.2532     40.6729   6.9722668108e+01   5.9077705181e+01    0.1223596    0.1057557 -59.95 0.0002129437    1.549    0.355
       192  -9.6761     48.6982     37.6973   7.9436458760e+01   6.4237130380e+01    0.3023908    0.2273071 -64.53  0.001642891    2.248    0.555
       193  -8.9680      2.9918     39.3908   1.0162891102e+02   6.8485436441e+01    0.2260079    0.1062655  13.47  0.001242375    2.390    0.582
       194  -9.3597    225.6676     38.3783   3.9989209323e+01   2.4940138146e+01    0.2462509    0.1193496  77.56   0.00113043    2.219    0.549
       195  -9.2276    182.0079     38.0986   4.5123500487e+01   3.5230809560e+01    0.2031275    0.1843113 -76.22 0.0004535505    1.026    0.025
       196  -9.2992    162.0460     37.6564   4.8021375205e+01   4.0214233943e+01    0.2403499    0.1826599 -49.00 0.0006851493    1.344    0.256
       197  -8.8721    133.3375     38.4325   5.3606467025e+01   4.7166194827e+01    0.2743362    0.1222511  54.63  0.001121228    2.032    0.508
       198 -10.6671     83.0113     36.2498   6.6020339246e+01   5.8625327325e+01    0.4374467      0.33294  42.77  0.002406619    1.280    0.219
       199 -10.3023     33.4218     35.2207   8.5203452584e+01   6.6616873100e+01    0.3540108    0.1920347 -26.59 0.0005993165    1.810    0.448
       200  -8.3952    195.2716     37.3250   4.3158418621e+01   3.2115092801e+01    0.1271972    0.1052755  29.39 0.0002218274    1.577    0.366
       201  -9.8908     81.1860     26.2272   6.2462006897e+01   6.0307717864e+01    0.2764786    0.2446554 -42.41  0.001584248    1.369    0.270
       202  -9.7973    127.5604     36.5420   5.4200517572e+01   4.8796179890e+01    0.2794965     0.245514  35.13  0.000863245    1.128    0.113
       203  -9.6733     69.8062     36.7773   7.0760854133e+01   6.1011205882e+01    0.3385208    0.2086824  47.59  0.001746427    1.757    0.431
       204 -10.1925     62.7330     36.2099   7.3156587456e+01   6.2309095467e+01     0.215885    0.1733954  22.36 0.0006662415    1.170    0.146
       205  -9.0734    215.7038     35.0313   4.0232387664e+01   2.7619579276e+01    0.1826254    0.1560139 -65.93 0.0005028321    1.028    0.027
       206  -8.8424    191.6238     34.7072   4.2931788432e+01   3.3327535941e+01    0.2227298    0.1576266  53.02 0.0007374817    1.508    0.337
       207  -9.2141    194.0000     32.9979   4.2189017631e+01   3.2970533601e+01    0.1936859    0.1760754 -70.83 0.0009027717    1.058    0.054
       208  -8.3635    170.3162     35.6615   4.6135533525e+01   3.8420701762e+01    0.1486848   0.09818383 -66.79  0.000704822    1.702    0.412
       209  -8.9254    106.8280     35.1505   5.8652325140e+01   5.3769063712e+01    0.1895255    0.1777608  50.88 0.0002417845    1.100    0.091
       210 -11.7196    237.8494     32.2402   3.7456783585e+01   2.3079184563e+01    0.5788209     0.372351 -85.83  0.003310147    1.531    0.347
       211 -10.7590    237.3942     26.2461   3.6189307748e+01   2.3921122735e+01    0.3561938    0.2054916 -44.57 0.0007478591    1.487    0.328
       212 -10.7895    239.3380     22.6672   3.5259736367e+01   2.3940140769e+01     0.318228    0.2215868 -70.35 0.0008016411    1.236    0.191
       213 -10.9877     79.0477     31.4235   6.5334267539e+01   6.0057609745e+01    0.3568488    0.3401327  35.74  0.001202023    1.210    0.174
       214  -9.7648    114.8532     32.3441   5.5610010251e+01   5.2305209634e+01     0.255107    0.2267904  58.93 0.0006515161    1.117    0.104
       215 -10.0346    110.3241     29.3121   5.5581346027e+01   5.3710518987e+01    0.3371057    0.2667215  41.53  0.001781043    1.165    0.141
       216  -8.4173     37.3190     32.2975   8.2174144857e+01   6.6631488623e+01    0.1275804   0.08224101  -9.54 0.0002149907    1.615    0.381
       217  -8.4897    143.5347     31.4333   4.9292533465e+01   4.5560147639e+01    0.1388097    0.1261383  55.86 4.087182e-05    1.050    0.047
       218 -10.9892     48.6772     28.4834   7.5475787080e+01   6.5668275526e+01     0.447913    0.3031528  51.07  0.001291247    2.088    0.521
       219  -8.9739     55.4813     26.0224   7.1559931793e+01   6.4966481629e+01    0.2463461    0.1423921 -15.40  0.001253992    1.912    0.477
       220  -9.7410     43.0703     29.3864   7.8310764882e+01   6.6333629990e+01     0.271106    0.1551214 -37.45 6.288965e-05    1.653    0.395
       221  -9.3062    107.0352    247.1115   1.0704945521e+02   9.1996670594e+00    0.2102742    0.1573612 -31.82  0.001255932    1.963    0.490
       222  -8.6679     21.3673     30.7440   8.9192192942e+01   6.8657227954e+01    0.2152719    0.1400783 -40.91  0.000807888    1.347    0.258
       223  -9.1534     21.5783     26.7224   8.7389764592e+01   6.9309901152e+01    0.2099518    0.1386069 -27.57 0.0008094581    1.247    0.198
       224  -8.3479    221.4711     30.5487   3.8590534314e+01   2.6878911689e+01     0.127965    0.1114136 -72.85  3.71422e-05    1.055    0.052
       225  -9.0066    197.8512     29.9212   4.0938523919e+01   3.2429640052e+01    0.1897649    0.1745424  45.03  0.000574173    1.309    0.236
       226  -8.9200    124.9165     30.3117   5.2604585531e+01   5.0196415869e+01    0.1941175    0.1642687  49.44 0.0005855052    1.089    0.082
       227  -9.7620     65.0049     29.9628   6.9631383420e+01   6.2830080368e+01    0.1812032    0.1624743 -67.78  0.001116895    1.661    0.398
       228  -9.7314    215.8625     28.2411   3.8599687841e+01   2.8433162223e+01    0.2448414    0.2104997 -27.58 0.0008611156    1.378    0.274
       229 -10.4347    182.4792     27.2196   4.2085888477e+01   3.6460435872e+01    0.5613384     0.284972  44.41  0.001534146    2.448    0.591
       230  -9.9834     15.7134     28.3648   9.1101989973e+01   6.9583139800e+01    0.3529476    0.1826844 -19.48  0.001876901    2.082    0.520
       231 -10.0601    206.6595     26.0522   3.9006277660e+01   3.0820371289e+01    0.3030784    0.2290446 -28.24  0.001328694    1.497    0.332
       232  -8.8018     67.4986     27.4190   6.7608096790e+01   6.2735974694e+01    0.1278264    0.1116567  11.35 0.0002962255    1.044    0.042
       233  -9.9606    120.8340     26.1855   5.2020433095e+01   5.1640241499e+01    0.4423616    0.1795955  59.42  0.001667453    2.244    0.554
       234 -11.0325    227.3342     23.0015   3.6328263958e+01   2.6492787460e+01    0.4710532    0.3152537  80.83  0.002774363    1.417    0.294
       235  -9.6049    222.7737     20.2307   3.6098562852e+01   2.7828306898e+01    0.2250748     0.187938  60.46 0.0008247553    1.396    0.284
       236  -9.7021     51.1034     22.2822   7.1624988493e+01   6.6167449443e+01    0.3109171    0.1936508 -33.93  0.000993609    1.609    0.378
       237  -9.5447     54.6659     18.6486   6.8471885593e+01   6.6062412700e+01    0.2313186    0.1465806   5.02 0.0007150107    1.717    0.417
       238  -9.2550    100.6390    247.3246   1.0833182926e+02   1.0102925090e+01     0.132786   0.07805093  62.03  0.000640401    1.783    0.439
       239  -9.6729    179.1430     22.8819   4.1322653296e+01   3.7772844334e+01    0.2321586    0.2038736 -79.17 0.0009349284    1.045    0.043
       240 -10.0828    164.3503     22.0491   4.3049570611e+01   4.1497485327e+01    0.3304318    0.2059801  53.78  0.001117681    1.548    0.354
       241  -8.6109     98.4809     23.5424   5.6358396647e+01   5.7018068151e+01    0.1321731    0.1193784  34.29  0.000808686    1.028    0.027
       242  -9.3231     76.7754     23.5872   6.2749512376e+01   6.1492494685e+01    0.1691178    0.1205096  56.26   0.00042782    1.585    0.369
       243  -9.2872      8.1629     23.0368   9.2927207929e+01   7.1107011779e+01    0.3076668    0.1448901  24.44  0.001717458    2.277    0.561
       244  -9.8812      2.0234     21.5427   9.5733186380e+01   7.1798090545e+01    0.2161989    0.1829772 -20.86   0.00123687    1.196    0.164
       245  -9.2181    218.2236     21.8041   3.6865654934e+01   2.8666199744e+01    0.1615617    0.1415017  62.37 0.0005661771    1.327    0.247
       246  -9.9345    141.7177     21.2684   4.6317652350e+01   4.7151152226e+01    0.3000843    0.2294027 -50.38  0.001042989    1.421    0.296
       247 -12.0717     75.9300    219.3078   1.1040843326e+02   1.9142399893e+01    0.7539918     0.627709  71.94  0.004065407    1.047    0.045
       248  -9.4439    205.9807     21.0812   3.7860769778e+01   3.1559646018e+01    0.1904977    0.1603339 -78.60  0.001193854    1.017    0.017
       249 -11.6286     69.2807    217.7275   1.1165383660e+02   2.0398274317e+01    0.5908084    0.3918313  72.95  0.002339672    1.469    0.319
       250  -8.4050    132.4676    210.5394   9.6958447727e+01   1.2100591456e+01    0.1364736    0.1239379  46.09 0.0001031566    1.005    0.005
       251  -9.4342      1.3495    184.9569   1.2343255021e+02   3.5211465726e+01    0.3324777   0.08142108 -74.55  0.001345542    3.123    0.680
       252  -9.8960      7.0667    168.8440   1.2100945093e+02   3.8457921554e+01    0.1947985    0.1338468  73.48 0.0005895499    1.272    0.214
       253  -9.0706     69.2323     19.4399   6.3444019133e+01   6.3413128826e+01    0.2220989    0.1574883 -20.59 0.0006772056    1.399    0.285
       254  -7.8642    130.9810     20.0000   4.7811690784e+01   4.9889802009e+01    0.2297975   0.07031564  63.47 0.0008047448    2.958    0.662
       255  -9.6090    119.2384     18.8968   4.9732272235e+01   5.2797254180e+01    0.2458281    0.1766827  53.33 0.0006235608    1.236    0.191
       256 -10.7360      7.1946    163.6375   1.2055765436e+02   3.9674751810e+01    0.2150011    0.1821949 -75.17 0.0007775603    1.184    0.156
       257  -9.5788     26.1550    158.0983   1.1533478357e+02   3.9358539424e+01    0.1858013    0.1544768 -67.23 0.0003716518    1.176    0.150
       258 -10.4630    236.2199     16.5865   3.4200252987e+01   2.5314881326e+01    0.2253153    0.2001495 -25.48  0.001289281    1.452    0.311
       259  -9.7895     39.1206     16.1211   7.3875164968e+01   6.8762276652e+01    0.2734565    0.1606013  25.88 0.0008826022    1.619    0.382
       260 -11.0261      8.9716    155.9161   1.1945472723e+02   4.1374302532e+01    0.2754683    0.2529345 -22.02 0.0003396397    1.467    0.319
       261 -11.3297      2.9468    152.8932   1.2068650438e+02   4.2547663883e+01    0.4182685    0.3382637 -44.51  0.002810397    1.500    0.333
       262 -10.3847     25.3319    152.4433   1.1491483649e+02   4.0820030310e+01    0.3254014    0.1819868  77.61  0.001053924    1.936    0.483
       263  -8.6279     32.4213    147.4329   1.1241195552e+02   4.1374546334e+01    0.1328218    0.1109662 -78.68 8.840935e-05    1.015    0.015
       264 -10.0807     11.8049    145.0224   1.1766921481e+02   4.3784615398e+01     0.200753    0.1671634  64.66 0.0003075683    1.240    0.193
       265  -8.6547     77.2907     16.3593   5.9420171662e+01   6.2212247771e+01    0.1610394    0.1549655  88.66  0.001070336    1.372    0.271
       266  -9.1675     36.0311    142.0204   1.1068723491e+02   4.2356593498e+01    0.2148996    0.1411098 -43.92 0.0007669945    1.682    0.405
       267 -10.4661     21.6359    141.9110   1.1467067928e+02   4.3742338015e+01     0.281917    0.1759246  35.82   0.00102744    1.790    0.441
       268 -10.1630     15.5076    140.9080   1.1622906118e+02   4.4497670907e+01    0.2085959    0.1508849  77.39 0.0005498033    1.329    0.248
       269 -10.6537      3.7755    141.5907   1.1944693619e+02   4.5198760518e+01    0.3159742     0.233963  22.86  0.002025345    1.714    0.417
       270  -8.2559     44.7151    141.6384   1.0818044963e+02   4.1518628766e+01    0.1423091   0.09266656 -43.84 0.0007020393    1.683    0.406
       271 -12.8969    231.5548    125.8591   5.9566565049e+01   9.8063002621e+00    0.8976122    0.6563281 -83.47  0.004415195    2.083    0.520
       272  -9.2666    144.1334     14.2023   4.3645358013e+01   4.7272829803e+01    0.2021391    0.1609392  47.18 0.0005460129    1.236    0.191
       273 -12.3128    221.1459    116.0655   5.8999812052e+01   1.3611188141e+01     1.609674    0.8697444 -28.04  0.006808118    2.048    0.512
       274 -11.3417    211.8730    128.9009   6.3586729258e+01   1.3173028049e+01    0.8154227    0.3649991 -42.42  0.003243574    2.048    0.512
       275 -10.8059     16.1588    133.6432   1.1519440180e+02   4.6226999495e+01    0.5383183    0.1936033 -74.36  0.002237383    2.403    0.584
       276  -8.8840     30.3918    133.1958   1.1104641985e+02   4.5110518596e+01     0.187184    0.1115326 -80.79 0.0004608126    1.588    0.370
       277  -9.5085      3.9423    130.8734   1.1831435393e+02   4.7774281608e+01    0.2062843    0.1685018  44.24  0.001377402    1.426    0.299
       278 -12.8900    229.0499    136.3204   6.2319021414e+01   8.4455408225e+00     1.269053    0.7412575  58.72  0.005820547    2.253    0.556
       279  -8.3523     80.3219    129.2381   9.5505069562e+01   3.9839699879e+01    0.1397924    0.1140908 -17.59 0.0002724095    1.518    0.341
       280  -9.4230     11.9677    128.7558   1.1579589672e+02   4.7739400013e+01    0.1721012    0.1452972 -75.48 0.0003310366    1.056    0.053
       281 -10.4569     28.5777    124.9703   1.1036710903e+02   4.7321114250e+01    0.4000989    0.2320323 -51.36  0.001623233    1.578    0.366
       282  -9.0411      4.5792    126.7305   1.1768023908e+02   4.8735023555e+01    0.2435802   0.09049661 -68.47  0.001112125    2.012    0.503
       283 -10.1402     48.4797    125.4914   1.0438353571e+02   4.5136029176e+01    0.3307353    0.2477767  -5.97  0.001354559    1.799    0.444
       284  -9.2803     23.4888    125.0441   1.1191222761e+02   4.7748654044e+01    0.2158661    0.1685888  61.37 0.0005632423    1.398    0.285
       285 -10.3325     13.9338    122.6194   1.1444044937e+02   4.9095941415e+01    0.3223851    0.1759707 -39.91  0.001637776    2.069    0.517
       286  -8.9312     93.9769    122.7129   9.0000221375e+01   3.9167621754e+01    0.1989815    0.1944713 -68.81 0.0004615974    1.036    0.035
       287  -8.6510     73.6763    121.9803   9.5932106471e+01   4.2658628377e+01    0.2041834     0.174182 -63.68 0.0007701853    1.093    0.085
       288  -9.6465     61.8264    120.1689   9.9210472069e+01   4.4792496253e+01    0.2265012    0.2077622   4.38 0.0003465248    1.256    0.204
       289  -9.7184     57.8354    117.8584   9.9983662780e+01   4.5890222065e+01    0.2193372    0.1976296 -60.36 0.0006609051    1.013    0.013
       290 -10.0748     29.3359    137.9689   1.1201678982e+02   4.4023265959e+01    0.2606458    0.1896462  27.46 0.0006695177    1.634    0.388
       291  -9.0426     69.5223    118.0592   9.6351197676e+01   4.4238801774e+01    0.2079798    0.2017666  52.27 0.0005109402    1.121    0.108
       292  -9.0843     98.3622    117.2701   8.7386440310e+01   3.9690679132e+01    0.2266912    0.1799064 -36.25 0.0005464404    1.304    0.233
       293 -10.2232     25.6368    116.2831   1.0991394610e+02   4.9724469026e+01    0.3214205    0.2047124  40.73  0.001749152    1.793    0.442
       294  -9.8539     39.1177    115.1196   1.0541742639e+02   4.8740033155e+01    0.3329041    0.2184225  70.89  0.001638712    1.962    0.490
       295 -10.4961     11.1918    115.0028   1.1424522065e+02   5.1143048438e+01    0.2651205    0.1937842 -54.02 0.0006554312    1.232    0.188
       296  -9.1950      1.7063    115.7059   1.1724096064e+02   5.1566315306e+01    0.2327884    0.1264848 -63.92  0.000491997    1.422    0.297
       297 -10.0621      2.1447    111.9569   1.1664394032e+02   5.2439951993e+01     0.221453    0.1698629  82.17 0.0009729005    1.308    0.235
       298  -9.5135     32.2125    113.3585   1.0732078497e+02   4.9853666081e+01    0.2237879     0.175929 -45.49 0.0005289224    1.234    0.190
