#   1 NUMBER                 Running object number                                     
#   2 MAG_AUTO               Kron-like elliptical aperture magnitude                    [mag]
#   3 X_IMAGE                Object position along x                                    [pixel]
#   4 Y_IMAGE                Object position along y                                    [pixel]
#   5 X_WORLD                Barycenter position along world x axis                     [deg]
#   6 Y_WORLD                Barycenter position along world y axis                     [deg]
#   7 A_WORLD                Profile RMS along major axis (world units)                 [deg]
#   8 B_WORLD                Profile RMS along minor axis (world units)                 [deg]
#   9 THETA_WORLD            Position angle (CCW/world-x)                               [deg]
#  10 FWHM_WORLD             FWHM assuming a gaussian core                              [deg]
#  11 ELONGATION             A_IMAGE/B_IMAGE                                           
#  12 ELLIPTICITY            1 - B_IMAGE/A_IMAGE                                       
         1 -12.0130    138.7497     22.0530   2.3076345262e+01   4.7902584157e+01    0.7504869    0.3764747  -5.53 0.0003180272    3.271    0.694
         2 -11.4161     86.0580     21.7239   3.6156741766e+01   5.9868347280e+01    0.5176938    0.3274807 -61.93  0.002185593    3.498    0.714
         3 -12.6481     96.5785     22.0385   3.3120522078e+01   5.7676542563e+01    0.3503405    0.3253763  73.89 0.0006480548    1.340    0.254
         4 -11.5760     33.5064     19.9680   5.6106859860e+01   6.8418301688e+01    0.5314501    0.2728187  23.72  0.002949654    1.982    0.495
         5 -11.6554     21.0185     17.1225   6.0994864685e+01   7.0145843482e+01    0.3976466    0.2752964  -0.55  0.002707602    1.306    0.235
         6 -10.7532     66.4548     16.3302   4.0489131340e+01   6.4153632857e+01    0.2541393    0.2395887 -13.74 0.0008957215    1.337    0.252
         7 -12.9571    165.2619      6.1909   1.3721979092e+01   4.2825321546e+01    0.7020915    0.3396946  56.73  0.003270937    1.791    0.442
         8 -11.8964    183.8238     14.4439   1.3660925224e+01   3.7323028778e+01      0.56295     0.283225  50.00  0.002553544    2.046    0.511
         9 -12.9747    185.1990      5.4697   1.1068209339e+01   3.7880037798e+01     1.022534    0.7343194 -77.24  0.005764446    1.355    0.262
        10 -12.4735     86.5829      6.6459   2.9558185461e+01   6.1361142354e+01    0.6233571    0.3413076  20.99  0.001418879    2.059    0.514
        11 -11.2838     49.4123     13.4320   4.5891679776e+01   6.7240127997e+01     0.312915    0.2208642 -23.84  0.001991261    1.326    0.246
        12 -11.1595     45.1833     12.1215   4.7090772025e+01   6.8015485062e+01    0.2480977    0.1795136  -1.71 0.0008311109    1.174    0.148
        13 -10.6191      6.0130     14.5079   6.7813422646e+01   7.1762004025e+01     0.206851    0.1356056 -64.40  0.001252517    2.435    0.589
        14 -10.0877    204.1290     13.6407   1.1119837622e+01   3.2352178231e+01    0.2287689    0.1559962 -53.56 0.0003326292    1.415    0.294
        15 -10.2425    200.9677     11.2127   1.0842822166e+01   3.3388316407e+01     0.191932    0.1471845  82.41 0.0004262791    1.143    0.125
        16 -11.5168    116.4686     13.5316   2.4722322892e+01   5.4146687756e+01    0.6772951    0.1379101  55.44  0.002214001    3.496    0.714
        17 -11.6890    134.5356      4.4568   1.7877415214e+01   5.0641059735e+01    0.4598046     0.293356  59.41  0.002458382    1.322    0.244
        18 -11.5749    131.4639      3.4839   1.8084602006e+01   5.1470366495e+01    0.4423749    0.2769097  16.89  0.002241588    1.983    0.496
        19 -11.4159    120.0096      8.9266   2.2242998037e+01   5.3747673273e+01    0.3552703    0.2421454 -41.28 0.0004828232    1.729    0.421
        20 -12.2245    123.7377      6.5911   2.0633021766e+01   5.3068897851e+01    0.5168557    0.2843194  66.72  0.001090806    1.709    0.415
        21 -10.4070     35.3328     13.3933   5.2203023164e+01   6.9146592584e+01    0.2766752    0.1551302   8.85  0.001049279    1.984    0.496
        22 -11.7050    104.3612     11.0838   2.6642262216e+01   5.7142311072e+01    0.4699269    0.3435214 -39.88  0.001739997    1.635    0.388
        23 -11.9156     98.1879      7.5515   2.6778769941e+01   5.8828253402e+01     0.493923      0.39174 -56.51   0.00290439    1.725    0.420
        24  -9.9951     79.0325      1.4534   2.9478180303e+01   6.3343551060e+01    0.2835901   0.08868519  48.90 0.0008030102    2.525    0.604
        25 -10.9794     74.6593      2.2554   3.1195766018e+01   6.4125508825e+01    0.2382723    0.2038619  36.42 0.0009182516    1.166    0.143
        26 -12.6472     76.2915      8.0549   3.3325432275e+01   6.3266115497e+01    0.6943153    0.4075961  35.52  0.002853583    1.488    0.328
        27 -11.2224     69.6381      8.9494   3.5964458471e+01   6.4416819598e+01    0.3267442    0.1723338 -14.44  0.001183696    2.036    0.509
        28 -10.7588     27.4509     11.5650   5.5171387213e+01   7.0315453401e+01    0.2289508    0.1571234 -11.52 0.0007925857    1.199    0.166
        29 -12.3769     56.2990      8.6422   4.0764785818e+01   6.6745084446e+01    0.4401607    0.3483369  17.03  0.001479395    1.063    0.060
        30 -10.3914      3.4939      8.3228   6.6558157115e+01   7.2912558214e+01    0.2080394    0.1443304 -34.49 0.0007020536    1.173    0.148
        31  -9.5907    213.1733      8.4671   8.9568956185e+00   3.0714309920e+01    0.1866817    0.1126795  74.75  0.000736699    1.478    0.324
        32  -8.8165     40.2876      8.3497   4.7434081093e+01   6.9165071542e+01    0.1236991   0.07507679  -0.54 0.0004686156    1.662    0.398
        33 -10.4786    203.7005      4.4767   8.8879334292e+00   3.3411183218e+01    0.2489593    0.1861144  58.79   0.00110002    1.376    0.273
        34 -10.4345     22.9465      5.0379   5.4255022355e+01   7.1694983735e+01    0.1670243     0.127535  -8.28 0.0003296293    1.056    0.053
        35 -13.1737    175.8711      6.2914   1.2389367695e+01   4.0141663047e+01     1.175241    0.8489285 -35.37  0.006671551    1.513    0.339
        36 -11.9007    113.8238      2.1059   2.0991211327e+01   5.5773507851e+01    0.6042308    0.2222207  61.27  0.002166009    2.306    0.566
        37 -10.7992    143.8642      1.9308   1.5499408084e+01   4.8553984930e+01    0.2431944    0.2023415  86.11 0.0007755681    1.198    0.166
        38 -10.5780    101.4328      2.8932   2.4075432419e+01   5.8518949546e+01    0.2311956    0.1647317  64.53  0.001322217    1.420    0.296
        39 -10.9611     32.1670     10.2061   5.2182560382e+01   6.9961729941e+01    0.3445903    0.1310588 -36.63  0.001706847    2.406    0.584
        40 -11.1418     38.2456      2.3154   4.5293234350e+01   7.0160468173e+01     0.295823    0.1858071  25.32  0.001207798    1.410    0.291
        41  -9.6394    233.0104      1.9925   5.8177662247e+00   2.6771641705e+01    0.2282226    0.1429547  81.93  0.001037575    1.416    0.294
        42  -9.9005     24.3226      9.3058   5.5666917815e+01   7.0968147274e+01    0.1193702   0.07031424  -9.09 0.0002637993    1.640    0.390
        43 -10.8142     53.6496     77.8678   6.8033747129e+01   5.5305004646e+01    0.4269118      0.27343  54.06  0.002085844    2.231    0.552
        44  -9.2807    216.0425     78.2376   2.5944743406e+01   2.0485000293e+01    0.1895835    0.1778149  82.62 0.0002970079    1.080    0.074
        45  -9.2208     78.0158     77.9705   5.9479513128e+01   5.1840987515e+01    0.1633928    0.1520292 -18.12 0.0009440815    1.029    0.028
        46  -9.3021    196.9539     77.5252   2.8907145040e+01   2.5213541756e+01    0.2142546    0.1310991  89.21 0.0005067326    2.537    0.606
        47  -9.6823    152.9779     76.4875   3.7480206278e+01   3.6344567825e+01     0.245227    0.1502259  51.78  0.001032318    1.593    0.372
        48 -10.2029      2.4060     75.3048   8.6259006220e+01   6.0097151505e+01    0.2988472     0.122058 -42.66  0.001531892    2.118    0.528
        49 -10.1866      7.8305     68.9251   8.3036366931e+01   6.1210854538e+01    0.1765403    0.1485994 -41.00 0.0003037931    1.132    0.116
        50  -9.0865     83.4697     68.3841   5.4606355262e+01   5.2882915422e+01    0.1402412    0.1289001  -6.86  0.000106419    1.028    0.027
        51  -9.7400    151.8057     66.7998   3.4808111655e+01   3.8340493541e+01    0.2290516    0.2081142  23.60 0.0007032221    1.166    0.143
        52 -10.1766    192.0685     65.7458   2.6573031365e+01   2.8373397385e+01    0.2257915    0.2016706 -52.78 0.0003162551    1.100    0.091
        53  -9.3997    204.4000     65.2379   2.4421261599e+01   2.5392266366e+01    0.2146612    0.1258033 -46.49 0.0009453589    1.665    0.399
        54  -9.8177    126.4091     64.8537   4.0416454964e+01   4.4779348515e+01    0.2193251    0.2034636  66.14  0.000490166    1.156    0.135
        55  -9.7930     67.1385     64.5826   5.9111604192e+01   5.6257652286e+01     0.289404    0.1605913 -49.04 0.0009682627    1.762    0.432
        56 -10.4656      4.2953     64.2674   8.3434180830e+01   6.2386675605e+01    0.2029827    0.1301674 -45.70 0.0005565333    1.240    0.194
        57 -11.2853      3.4215     59.4013   8.2743066701e+01   6.3453465377e+01    0.2958401    0.2246851 -29.45  0.001197243    1.269    0.212
        58  -8.9407     75.4481     64.5727   5.6123970892e+01   5.4971970694e+01    0.1375894    0.1258776 -17.56 0.0002288543    1.032    0.031
        59  -9.2183    120.9986     61.9533   4.0916043548e+01   4.6519579447e+01    0.1718219    0.1634455  22.00 0.0003018338    1.004    0.004
        60 -10.1803     98.7985     61.1378   4.7152511222e+01   5.1393900722e+01    0.3288561    0.2561934 -74.73  0.001591917    1.935    0.483
        61  -9.4030     43.9124     62.5368   6.7291055188e+01   5.9663013749e+01    0.1763472    0.1248654  22.47  0.001015052    1.546    0.353
        62  -9.5498    231.4744     60.9110   1.9508856373e+01   1.9612796856e+01    0.2108696    0.1276703 -37.32  0.001020119    1.556    0.357
        63  -9.1053     86.3372     60.8765   5.1113229697e+01   5.3808457006e+01    0.2034485    0.1218035 -30.35 0.0006330981    1.722    0.419
        64  -9.6827     35.0559     61.0918   7.0380426874e+01   6.0866505830e+01    0.1888424    0.1401125 -26.39  0.001150976    1.247    0.198
        65  -9.3825     57.2330     59.8390   6.1260651602e+01   5.8585907925e+01    0.1815796    0.1378189 -17.43 0.0004604138    1.294    0.227
        66 -10.1284     22.5752     57.8215   7.4535797422e+01   6.2606349200e+01    0.2281667    0.1457861 -32.61 0.0007183113    1.401    0.286
        67  -9.1689    169.4837     56.4345   2.7998250915e+01   3.5565104146e+01    0.1493181    0.1413329  68.00 0.0001344116    1.016    0.016
        68 -10.1848     78.0677     55.7159   5.2154508526e+01   5.6202308873e+01    0.2654966    0.2163615  39.88 0.0007223863    1.325    0.245
        69 -10.5365     82.9745     53.9750   4.9824948240e+01   5.5658177305e+01    0.2029809    0.1835459  -7.32  0.001197087    1.018    0.018
        70  -9.5108     58.3380     53.2950   5.8611880887e+01   5.9688489105e+01     0.137201   0.09282629 -11.49 0.0005161109    1.651    0.394
        71  -8.9909    130.7358     52.6740   3.5260805722e+01   4.5787572898e+01    0.1481306    0.1122307  15.31 0.0001775039    1.566    0.361
        72  -9.6097    111.4406     51.7208   4.0071927688e+01   5.0355320767e+01    0.1935406    0.1373245 -16.66 0.0006710577    1.575    0.365
        73  -8.8242     88.6712     52.2863   4.7291606934e+01   5.4907007039e+01    0.1301116    0.1144381 -89.96 0.0006475996    1.613    0.380
        74 -10.0568     63.1604     51.5204   5.6125539159e+01   5.9327819194e+01    0.2105955    0.1872911 -52.22  0.001040563    1.365    0.267
        75  -9.3596     23.5097     50.4887   7.2040015314e+01   6.4010689061e+01    0.1213792    0.0985698 -37.53 0.0004767707    1.042    0.041
        76  -9.6651     12.6172     48.8505   7.6280124149e+01   6.5107620235e+01     0.231209    0.1233544 -25.04  0.001291906    1.903    0.474
        77  -9.3756     94.1336     48.2116   4.4022708563e+01   5.4531293619e+01    0.1788164    0.1587896 -44.32   0.00101713    1.286    0.222
        78 -10.1787      7.0503     45.7555   7.7873760454e+01   6.6046207378e+01    0.2142859    0.1234699 -48.95 0.0002675713    1.301    0.232
        79 -10.0392     20.8461     44.6053   7.1392682455e+01   6.5365051480e+01    0.1927401    0.1282602 -38.90 0.0003676973    1.186    0.157
        80 -10.5159     39.2771     43.6218   6.2970931927e+01   6.3832482505e+01    0.2764189    0.2064291  -3.07   0.00132982    1.308    0.236
        81  -8.6278     24.3010     44.2994   6.9758285041e+01   6.5146804337e+01    0.1256586   0.07327072 -28.09 0.0003681028    1.582    0.368
        82 -10.0218     44.9047     42.5594   6.0186437459e+01   6.3378418738e+01    0.2300859    0.1624267 -12.50 0.0008035044    1.379    0.275
        83  -9.9450     29.8777     42.5051   6.6681651669e+01   6.4991875028e+01    0.2689696    0.2147434 -65.09  0.001469325    1.658    0.397
        84 -10.3511    133.6671     40.5055   3.0438447036e+01   4.6872661495e+01    0.3406352    0.2337229  12.88 0.0006918099    1.909    0.476
        85  -9.2664     71.5022     42.5434   4.9637675850e+01   5.9573665492e+01    0.1360904    0.1153133  -2.19 7.037363e-06    1.049    0.047
        86  -9.3776    118.5730     40.9379   3.4287145906e+01   5.0384098655e+01    0.2015481    0.1220889   1.36 0.0008058326    2.541    0.606
        87  -9.3373    151.9697     40.2233   2.6429128135e+01   4.2368430434e+01    0.1994498    0.1791409  60.66  0.000360286    1.037    0.036
        88 -10.3251    221.4942     39.1315   1.5477971517e+01   2.5043596591e+01    0.4385896   0.09437964  57.37  0.001388712    4.096    0.756
        89  -9.5989    189.9086     39.1432   1.9616610502e+01   3.2834159741e+01    0.2113273    0.1775877 -78.22 0.0003228607    1.161    0.138
        90  -8.9016     96.2849     38.2706   3.9605969946e+01   5.5621580578e+01    0.1375813   0.09856424  16.58 0.0002600623    1.500    0.333
        91  -9.5151    198.6992     36.9369   1.7783325174e+01   3.0910713229e+01    0.1933853    0.1719774 -63.38 0.0004305051    1.086    0.079
        92  -9.6580     81.9256     35.7223   4.3253406953e+01   5.8798026671e+01    0.2163151    0.1655122 -13.43 0.0002776854    1.270    0.212
        93 -10.1082     83.4745     31.4169   4.0997787938e+01   5.9119929456e+01    0.4412126    0.1805732  36.20  0.001696189    2.564    0.610
        94 -10.2824     40.5842     36.0354   5.9571390591e+01   6.5026086221e+01    0.2491657    0.1687936  24.92 0.0009716594    1.535    0.348
        95  -8.6881     26.3109     36.6667   6.6232143385e+01   6.6386082678e+01    0.1035322    0.0953514 -86.77 0.0006041107    1.677    0.404
        96 -10.8814     50.1385     32.6865   5.4119347076e+01   6.4380124247e+01    0.4251664    0.3159033  21.31  0.002402258    1.315    0.239
        97  -9.2404    174.2279     34.4305   2.0685400740e+01   3.7447863034e+01    0.1951731     0.130855  79.81   0.00057293    1.541    0.351
        98  -9.5725    138.9367     33.7137   2.6972484323e+01   4.6479195014e+01    0.2060021    0.1731413  57.08 0.0004617157    1.100    0.091
        99 -10.4580     92.5434     33.7253   3.8997299441e+01   5.7024274057e+01    0.2227096     0.196143  13.40 0.0001939003    1.016    0.016
       100  -9.0488     58.5270     34.5210   5.1427149936e+01   6.2899633602e+01    0.1308201    0.1074668  -5.80 8.111814e-05    1.036    0.035
       101  -9.9710    154.2435     31.9882   2.3378153522e+01   4.2857810180e+01    0.2402759     0.189886  60.19 0.0004046189    1.154    0.133
       102 -10.5420     17.5632     31.4355   6.8458127965e+01   6.8053795369e+01    0.1983427    0.1681013 -32.33 0.0004478717    1.184    0.155
       103 -10.9728      3.6061     31.3502   7.5224189817e+01   6.8981387860e+01    0.2069348    0.1646931 -32.60  0.000257442    1.090    0.082
       104  -9.4082     27.0453     31.3059   6.3890678673e+01   6.7261606958e+01    0.1866126   0.08379149   0.82 0.0007042082    4.286    0.767
       105  -9.2546    180.8234     29.8356   1.8355372100e+01   3.6335175072e+01    0.1884069    0.1505375 -73.17  0.000285813    1.272    0.214
       106  -9.8970    175.0078     28.9810   1.8979788685e+01   3.7924080599e+01    0.2630619    0.2180477 -24.18   0.00145972    1.369    0.269
       107  -9.3162     64.6183     29.7538   4.7060995764e+01   6.2677022311e+01    0.1629899    0.1135079 -36.86 0.0003894662    1.502    0.334
       108 -10.6753    142.3316     22.3039   2.2469203219e+01   4.6985754486e+01    0.2150504    0.1700675  23.25 0.0006791375    1.406    0.289
       109  -9.7734    244.4950    180.9823   4.4587623240e+01  -2.7335580518e+00    0.1787211    0.1086161 -53.58 0.0008105387    2.611    0.617
       110  -9.6777     89.6658     28.7612   3.7917179618e+01   5.8269346138e+01    0.2392847    0.1758173 -26.13 0.0005260661    1.386    0.279
       111  -8.8556     20.5331    174.5698   9.3243346936e+01   3.6021127659e+01    0.1207346   0.09511037  86.44 0.0001667562    1.012    0.012
       112  -9.0736     59.4755     29.4963   4.8961468533e+01   6.3524722907e+01    0.1301527    0.1060895  -1.91 0.0008098579    1.039    0.038
       113  -9.2655     60.5777     26.2040   4.7116742783e+01   6.3831092496e+01    0.2361616     0.116059 -28.32  0.001026269    1.997    0.499
       114 -10.5287    160.7912     27.3170   2.0764258346e+01   4.1755358369e+01    0.2389982    0.2159638 -59.08 0.0004186296    1.170    0.145
       115 -10.4198    153.1133     27.3918   2.2127211891e+01   4.3698044767e+01    0.2031423    0.1654963  66.02 0.0004395864    1.126    0.112
       116 -11.4638     84.4285     15.9363   3.4214781717e+01   6.0856047598e+01    0.4050742    0.1885103  49.88  0.001596189    1.977    0.494
       117 -10.2054    120.1641     26.0154   2.8486426987e+01   5.1943547198e+01    0.3541095    0.1463866  42.29  0.001386103    2.385    0.581
       118  -9.3264     15.3075    166.7149   9.3742232740e+01   3.8268594500e+01    0.1227069   0.07278334  69.19  0.000191949    1.567    0.362
       119 -11.0718     38.2780     22.6553   5.5071678612e+01   6.7453823413e+01    0.5209381    0.2671186   0.33 0.0003753557    3.086    0.676
       120 -10.9713     25.9509    160.2461   9.0679210506e+01   3.8790665573e+01    0.2107657    0.1769926  83.35            0    1.073    0.068
       121  -9.9468    128.8919     24.6671   2.6016491416e+01   5.0021637199e+01    0.2305631    0.1860772   6.58 0.0007979299    1.375    0.273
       122 -10.9746    111.1624     24.5919   3.0172384868e+01   5.4184953546e+01     0.297998    0.2094827  62.16  0.001559888    1.480    0.324
       123  -9.4906     49.7484     24.7125   5.0903976643e+01   6.5654004977e+01    0.1717033    0.1506867 -78.93  0.001053443    2.122    0.529
       124  -9.3395    245.5566     23.4570   9.4547122417e+00   2.1527761783e+01    0.1275073    0.1049332 -69.21 9.573342e-05    1.007    0.007
       125  -9.2661    181.8196     23.1512   1.6333648040e+01   3.6873337922e+01    0.1828386    0.1451501  52.95 0.0002960784    1.271    0.213
       126  -9.4598     72.9127     22.3414   4.0819511750e+01   6.2274083330e+01    0.1813241    0.1414155  26.00 0.0004660141    1.141    0.124
       127  -9.3996     66.5904     20.7665   4.2427066717e+01   6.3579950962e+01    0.1569285    0.1128206 -33.21 0.0002477674    1.493    0.330
       128  -9.6905     55.8708    158.1650   8.3066985874e+01   3.6015470060e+01    0.1956644    0.1608913  77.97 0.0003789253    1.127    0.113
       129 -10.5413     11.5215     17.5141   6.6103973181e+01   7.0882397832e+01    0.2495262    0.1396877 -28.44  0.001567873    1.444    0.308
       130 -10.4583     15.4753     16.4952   6.3589908346e+01   7.0732753582e+01    0.2305382    0.1358866 -23.67  0.001150595    1.419    0.295
       131 -10.1450     48.8454     19.2316   4.8838652550e+01   6.6558333709e+01    0.2045279    0.1791409  14.66 0.0007589691    1.255    0.203
       132 -10.3715      5.2353     19.7780   7.0336452140e+01   7.0937417579e+01    0.1711559    0.1354291   7.49  0.001292043    1.398    0.285
       133 -10.5362    110.2139     18.3369   2.8022688618e+01   5.5096327219e+01    0.3377302    0.1934952  26.91  0.001570508    1.995    0.499
       134 -10.4587    147.2757     17.9972   2.0149629186e+01   4.6209987437e+01    0.1852334    0.1783154  35.14 0.0006825814    1.114    0.102
       135  -9.6432     70.7842     17.8687   3.9611483539e+01   6.3208472315e+01    0.1820212    0.1717225  -2.73 0.0007158474    1.277    0.217
       136  -8.6910      8.3144    150.3332   9.3942085321e+01   4.2577874627e+01    0.1195782   0.07509362 -52.69 0.0007046083    1.685    0.406
       137  -9.2634      2.0140    144.7560   9.4965485584e+01   4.4304778129e+01    0.1251011   0.09920736  34.53 0.0004951551    1.546    0.353
       138  -9.8310    242.3249    138.3419   3.5935633070e+01   4.5527148906e+00    0.1447738    0.1036837   0.74 0.0001136743    1.732    0.423
       139  -8.9169     58.4990    128.6055   7.7732468323e+01   4.2847207376e+01    0.1355685    0.1225832 -75.30 0.0001279283    1.025    0.024
       140  -9.8002     41.4240    128.1969   8.2578162258e+01   4.4898708118e+01    0.2063908    0.1586652  66.99 0.0007557299    1.395    0.283
       141  -8.7094     50.7264    127.6910   7.9821374845e+01   4.4003469629e+01    0.1341104   0.09361376 -41.80 0.0002081337    1.549    0.354
       142  -9.0781     39.3410    125.2695   8.2717953195e+01   4.5817549820e+01    0.1290543   0.09129727 -38.01 0.0005270162    1.605    0.377
       143 -10.0905      6.0697    121.3779   9.1617742335e+01   4.9435744139e+01    0.2110464     0.138785 -81.23 0.0002144675    1.251    0.201
       144  -9.2815    103.1680    119.8909   6.2885718576e+01   3.8033649339e+01    0.1962825    0.1736472 -19.97            0    1.267    0.211
       145  -8.9631     14.0057    117.5149   8.8916825018e+01   4.9812932719e+01    0.1629261    0.0824711  53.67 0.0008082353    2.394    0.582
       146 -10.5504    128.0446     13.9854   2.2416121857e+01   5.1355053931e+01    0.2114241    0.1821444  52.49 0.0004545517    1.021    0.021
       147  -9.7039     91.7355    116.2630   6.5354780972e+01   4.0921308401e+01    0.1959656    0.1684794 -21.38  0.000417719    1.316    0.240
       148  -9.3326    153.0965    113.8532   4.8001603125e+01   2.8879365050e+01    0.2354514    0.2110783  88.24 0.0004582051    1.241    0.194
       149 -10.5666      2.1004    111.7794   9.1628665007e+01   5.1887909606e+01    0.2644929    0.1425906 -66.16 0.0003560063    1.405    0.288
       150  -9.0830     96.4592    111.5360   6.2805936963e+01   4.1209773810e+01      0.14996     0.141643 -37.51 0.0002152081    1.056    0.053
       151  -9.3723     79.5456    110.5269   6.7684431726e+01   4.4266886918e+01    0.1461788     0.132964 -42.80  0.000807293    1.071    0.066
       152  -9.9040    243.3300    108.6686   2.9074803338e+01   9.3526125615e+00     0.145018    0.1031254 -64.73  0.000705188    1.719    0.418
       153  -9.6527     18.0157    108.3326   8.6451872325e+01   5.1680999897e+01    0.1592369    0.1430688 -53.55 0.0004462683    1.162    0.139
       154  -9.9641     13.0851    106.1440   8.7636316107e+01   5.2529068293e+01    0.3470628    0.1713134  67.34  0.001061391    3.046    0.672
       155  -9.4047     12.2290    102.0047   8.7295370808e+01   5.3543057684e+01    0.1838433    0.1007748 -80.52 0.0005503265    1.739    0.425
       156 -10.1193      1.9374    105.2178   9.0878652957e+01   5.3402517468e+01    0.1968741    0.1030988 -39.87  0.001083863    2.041    0.510
       157  -9.1393    107.9935    102.0503   5.6919576383e+01   4.1222796458e+01    0.3425448     0.190772 -27.17  0.001223983    2.700    0.630
       158  -9.2407     66.0262    103.0749   7.0193003224e+01   4.7995718442e+01    0.1648126    0.1404468 -53.06 0.0009256112    1.060    0.057
       159 -10.2897     48.8985    101.3902   7.5380439642e+01   5.0513793120e+01    0.2372303    0.1699847  -2.24 0.0008767858    1.818    0.450
       160  -9.1022    170.5686     99.5222   4.0093092936e+01   2.7670775414e+01    0.1551902    0.1536184 -13.99 9.279263e-05    1.031    0.030
       161  -8.8396    159.6505     98.2798   4.2220899128e+01   3.0550836738e+01    0.1609897    0.1259927 -87.68 0.0005338268    1.644    0.392
       162  -9.5909    103.2186     96.2596   5.6738729488e+01   4.3434994815e+01     0.259092    0.2038171 -49.94  0.000538813    1.252    0.201
       163  -9.9366     63.9983     96.3845   6.9253124338e+01   4.9827330364e+01    0.2567433    0.2143052 -32.08  0.001454106    1.196    0.164
       164 -12.0957     40.2459     95.2507   7.6947988147e+01   5.2857204960e+01    0.4204582    0.2941939  34.96  0.002391883    1.644    0.392
       165  -9.8478     20.0139     95.0237   8.3665344910e+01   5.4629314069e+01    0.1878276    0.1358756  81.22 0.0006765119    1.617    0.382
       166 -11.3432    132.3616     92.7421   4.7443664386e+01   3.8069262097e+01    0.2897669    0.2656278  49.12  0.000356609    1.096    0.088
       167 -11.4901      3.9728     96.3194   8.9063720131e+01   5.5325764110e+01    0.3073392     0.196448 -40.56 0.0008279649    1.561    0.360
       168  -9.3286     37.3087     90.3141   7.6890867347e+01   5.4279170049e+01    0.1361536   0.08459305 -36.31 0.0002933975    1.628    0.386
       169 -10.0122      2.1930     87.6239   8.8359281708e+01   5.7379137256e+01    0.2489615   0.07818713 -72.16  0.001047667    2.719    0.632
       170 -10.7490     28.3476     86.9685   7.9291873904e+01   5.5833710130e+01    0.2112972    0.1700324 -22.22 0.0003678241    1.344    0.256
       171  -9.4927     12.5321     85.4744   8.4500754921e+01   5.7297261170e+01    0.1232569   0.09671277 -57.91 0.0002051114    1.010    0.010
       172  -9.8956      5.8828     80.1086   8.5867503829e+01   5.8868780004e+01    0.1766041    0.1356476 -54.44 0.0004140943    1.052    0.049
