#   1 NUMBER                 Running object number                                     
#   2 MAG_AUTO               Kron-like elliptical aperture magnitude                    [mag]
#   3 X_IMAGE                Object position along x                                    [pixel]
#   4 Y_IMAGE                Object position along y                                    [pixel]
#   5 X_WORLD                Barycenter position along world x axis                     [deg]
#   6 Y_WORLD                Barycenter position along world y axis                     [deg]
#   7 A_WORLD                Profile RMS along major axis (world units)                 [deg]
#   8 B_WORLD                Profile RMS along minor axis (world units)                 [deg]
#   9 THETA_WORLD            Position angle (CCW/world-x)                               [deg]
#  10 FWHM_WORLD             FWHM assuming a gaussian core                              [deg]
#  11 ELONGATION             A_IMAGE/B_IMAGE                                           
#  12 ELLIPTICITY            1 - B_IMAGE/A_IMAGE                                       
         1 -13.0227    194.6091     31.5936   6.6917667445e+01   3.2932468318e+01    0.9956517    0.8257653  51.52  0.005906859    1.323    0.244
         2 -13.9381    208.2293     14.8075   6.1309406790e+01   3.1668125165e+01     1.398144     1.044489  30.47   0.00800014    2.002    0.500
         3 -11.5920      2.1494     13.1932   1.1470787923e+02   7.0822374831e+01    0.4110018    0.1161688 -45.81  0.002037986    2.993    0.666
         4 -11.3410      2.1513      4.4870   1.1106762983e+02   7.2000295837e+01    0.4025325    0.1561419 -36.37  0.002417011    2.038    0.509
         5 -10.6755    190.0276     15.6414   6.3569233568e+01   3.5896767956e+01    0.2142459    0.1662407 -60.40 0.0006553551    1.288    0.223
         6  -9.9562    205.0294    250.5052   1.1345328753e+02  -7.8934469726e+00    0.1880273    0.1046245  37.10 0.0003786163    1.529    0.346
         7 -11.0520    185.4072    250.3651   1.1715716200e+02  -4.6717265690e+00    0.4949422    0.1449481  41.45  0.001235833    2.881    0.653
         8 -11.6549    149.8661    248.1919   1.2372709583e+02   1.7004526556e+00      0.41938    0.3241057 -65.93  0.002556013    1.576    0.366
         9 -10.8762    143.4258    249.1886   1.2511706681e+02   2.6282300244e+00    0.2678974     0.203265  70.61 0.0007592076    1.464    0.317
        10 -11.4725    104.4690    238.3724   1.3137589678e+02   1.1131548864e+01    0.5958991    0.4203607 -38.69    0.0032703    2.141    0.533
        11 -10.4283     84.6397    229.6289   1.3427693586e+02   1.6008780578e+01    0.2298171    0.2235974  42.64 0.0009566738    1.396    0.284
        12 -10.9685    125.0887    249.3173   1.2868827314e+02   5.6950628627e+00    0.6340505    0.2686514  36.53  0.002786129    2.373    0.579
        13 -11.5138    134.0708    248.8418   1.2688930439e+02   4.2731670094e+00    0.5618047    0.2654108  43.69  0.002730714    1.762    0.432
        14 -12.7528    124.4964    241.7914   1.2785411069e+02   7.1609247957e+00     1.021872    0.6495927  24.57  0.005082271    2.199    0.545
        15 -10.9793     96.9522    239.7636   1.3300545384e+02   1.2067191685e+01    0.4184824    0.3056597 -85.14  0.001303257    1.397    0.284
        16 -10.6948     84.9784    234.3451   1.3473154350e+02   1.5001809767e+01    0.3463514    0.2111087  83.65  0.001161731    1.794    0.443
        17 -10.7634     99.1468    247.3820   1.3343286361e+02   1.0266635899e+01    0.5014619    0.2894008  76.25  0.002557702    2.096    0.523
        18 -10.0203    102.9159    247.3364   1.3271092452e+02   9.6774146494e+00     0.253824    0.1782584  74.66 0.0009237428    1.405    0.288
        19 -10.6997    115.1399    250.3590   1.3072444857e+02   7.1489387876e+00    0.4356038    0.2099653  43.07 0.0008012076    1.752    0.429
        20 -11.4359    109.7125    247.8533   1.3147082334e+02   8.4889856287e+00    0.5260578    0.3738077 -78.19  0.002259383    1.555    0.357
        21 -11.2084     87.9450    248.3567   1.3564408775e+02   1.1819889058e+01    0.4703731    0.3139323  51.93  0.001345869    1.240    0.194
        22 -10.7292     81.4877    246.6626   1.3667594468e+02   1.3114963062e+01    0.4652267    0.2462265 -81.58  0.002415381    2.168    0.539
        23  -9.6109     83.9876    241.9928   1.3573411782e+02   1.3640726617e+01    0.2434763    0.1830758 -29.96  0.001349134    2.497    0.600
        24  -9.4404     83.6319    238.2914   1.3541513170e+02   1.4420684400e+01    0.1963495   0.09834231  48.13 0.0003824044    1.691    0.409
        25 -11.5028     74.1874    243.2726   1.3770146927e+02   1.4844916799e+01    0.9774257    0.4880255 -54.30  0.005036606    2.484    0.597
        26  -9.3848     61.1665    238.8808   1.3970275248e+02   1.7554804359e+01    0.2013483    0.1512768  55.50  0.001191861    1.204    0.169
        27  -9.0808     69.1413    247.1647   1.3899364182e+02   1.4817267253e+01    0.2509121   0.08659339  35.60 0.0009186628    3.509    0.715
        28 -11.4213     59.8734    245.5081   1.4052288829e+02   1.6429986611e+01    0.6090603    0.3817243  88.61  0.003278386    1.473    0.321
        29 -11.0420     66.8251    244.1543   1.3914195104e+02   1.5727647242e+01    0.4484858    0.2855698  31.14  0.002542843    2.101    0.524
        30 -12.3342     63.2057    221.3784   1.3762805439e+02   2.0868339869e+01     1.147803     0.447123 -74.88  0.003600181    2.821    0.646
        31 -14.3399      2.9850    181.8033   1.4602644472e+02   3.6342314502e+01     7.037554       1.0273 -76.88   0.01735206    8.728    0.885
        32 -13.7614      5.3646    245.3588   1.4974934355e+02   2.2992583273e+01     1.199691    0.6059853  79.90  0.007757395    1.554    0.356
        33 -13.9287     27.7831    246.9678   1.4619944474e+02   2.0219289807e+01     1.788782    0.9515392  58.02   0.01137459    1.483    0.326
        34 -13.4203     40.3675    243.6890   1.4382644576e+02   1.9334030699e+01      1.02234    0.8400144  37.44  0.007312417    1.657    0.397
        35 -13.2247     37.0677    228.3707   1.4322948356e+02   2.2806779406e+01     0.871456     0.441952  51.10  0.001721326    1.698    0.411
        36 -14.4932     43.7029    218.6652   1.4116359273e+02   2.4018722369e+01     1.499679     1.443932 -35.95   0.01082451    1.605    0.377
        37 -11.7822     90.8632    240.0124   1.3421023401e+02   1.2973552629e+01    0.8477378    0.4560169 -75.46  0.003554679    2.101    0.524
        38 -11.4678    122.3198    233.1796   1.2715907806e+02   9.1573212550e+00    0.3764822    0.3219799 -62.47  0.001559369    1.318    0.241
        39 -12.3253    135.3526    241.1511   1.2562108383e+02   5.4273254872e+00     0.534127    0.4127118  28.88  0.002087245    1.430    0.301
        40 -11.9453    135.3138    236.3766   1.2497439628e+02   6.3100427242e+00    0.4991311    0.3492619  29.12  0.001989226    1.606    0.377
        41 -11.8479    134.0843    232.3658   1.2466140636e+02   7.2760089236e+00    0.5705881    0.3217856 -37.51  0.002103978    2.621    0.618
        42 -10.9599    165.7101    242.2660   1.1976399267e+02  -2.9444591017e-02    0.3302752    0.1536687  42.67 0.0009309876    1.834    0.455
        43 -10.6475    116.4219    238.7468   1.2906271108e+02   9.0892726638e+00    0.3846814    0.2870356 -28.20  0.001784012    2.169    0.539
        44 -11.2286    245.1235    240.8701   1.0449696430e+02  -1.2678039711e+01    0.1757033    0.1567632  12.81  0.001250949    1.251    0.201
        45 -11.0575    172.8181    240.4697   1.1808894553e+02  -9.6248211269e-01    0.2575722    0.2010053  68.65  0.001485451    1.608    0.378
        46  -9.5909     71.6669    236.3154   1.3749544311e+02   1.6585542546e+01    0.2203339    0.1327791 -89.03 0.0009755295    1.680    0.405
        47 -10.4462    165.9900    235.1672   1.1862624187e+02   1.1309926996e+00    0.2203143    0.1738921 -72.16  0.001260585    1.645    0.392
        48  -9.6559     55.2833    235.6529   1.4049975760e+02   1.9000388315e+01    0.3050723    0.1733401  74.65  0.001185362    1.652    0.395
        49 -11.0304     98.6064    231.8460   1.3175785911e+02   1.3364931895e+01    0.4572746    0.2808346 -76.54  0.001702047    1.795    0.443
        50 -11.2148    112.9831    230.1804   1.2865467425e+02   1.1329099697e+01    0.3956114    0.3337622 -37.93  0.001911501    1.589    0.371
        51 -11.8798    105.7757    228.8018   1.2994013685e+02   1.2806812739e+01     0.669507    0.3662655  54.17  0.003327906    1.666    0.400
        52 -10.8320    156.7669    231.5892   1.1993376577e+02   3.4018139662e+00    0.2319906    0.2280529  26.22 0.0003222064    1.134    0.118
        53  -9.1886     78.1586    233.1838   1.3593172943e+02   1.6264403168e+01    0.1736787    0.1574357 -80.12 0.0007328304    1.298    0.230
        54 -10.5202     62.9716    233.0093   1.3882122164e+02   1.8486229986e+01    0.1857246    0.1482445  65.42   0.00123296    1.096    0.087
        55 -10.8606    142.1835    229.5253   1.2259744022e+02   6.3835569843e+00    0.3836559    0.2795849 -35.71  0.001962999    1.763    0.433
        56  -8.7533     57.4628    230.9137   1.3966465486e+02   1.9669786069e+01    0.1677154    0.1054951 -76.98 0.0008469931    1.479    0.324
        57  -9.0117    180.6934    229.3180   1.1474102375e+02  -4.6762569521e-01    0.1288234    0.1025801  70.48 0.0002004711    1.632    0.387
        58 -10.3305     77.2190    220.8441   1.3477235105e+02   1.8960156982e+01    0.3099353    0.2027584  68.25 0.0004782305    1.419    0.295
        59 -10.3501     80.0013    227.5007   1.3495867614e+02   1.7150627414e+01    0.3145454    0.2605744 -25.02 0.0008497594    2.035    0.509
        60  -9.7893     78.9982    224.5348   1.3482926276e+02   1.7917532758e+01    0.2473843    0.2308532 -45.01 0.0009372648    1.500    0.333
        61  -9.7808    197.1432    226.4364   1.1098560484e+02  -2.8792836425e+00    0.2887879    0.2229514  77.95  0.001525429    2.085    0.520
        62  -9.6572    165.3604    225.6949   1.1725114875e+02   2.9218207786e+00    0.3502062    0.2071969  77.33  0.001180154    4.631    0.784
        63 -10.5363    132.4083    224.7172   1.2390646062e+02   9.0457117509e+00    0.2665301    0.2442092 -44.61  0.001325639    1.297    0.229
        64  -9.8183    129.3899    221.2238   1.2402326860e+02   1.0273955479e+01    0.2903419    0.2000125  87.82  0.001445344    1.872    0.466
        65 -10.3886     92.4097    226.0191   1.3230439242e+02   1.5538913595e+01     0.280136    0.1689613  51.09 0.0008393672    1.448    0.310
        66 -10.0287    117.2827    224.2654   1.2698094486e+02   1.1780192470e+01     0.233888    0.2127849  77.99  0.000269383    1.091    0.083
        67 -11.0814     99.2752    223.4929   1.3059471655e+02   1.4957143451e+01    0.4001219    0.2773446  59.23 0.0009934654    1.285    0.222
        68 -11.3379    142.4475    221.6525   1.2135324036e+02   7.8444903703e+00    0.4414898    0.2652615  44.03  0.001071147    1.483    0.325
        69 -10.7591    137.9552    214.1759   1.2113398010e+02   1.0147410713e+01    0.4520492    0.3075663  32.87    0.0012247    1.556    0.357
        70 -10.5799     70.2623    218.2671   1.3588997298e+02   2.0530111515e+01    0.5090129      0.26347 -74.58   0.00221149    1.934    0.483
        71 -10.8077    245.7000    220.1434   1.0070639957e+02  -9.8829607424e+00    0.3092833    0.1394359 -30.50  0.001370154    2.249    0.555
        72  -9.4715    110.8656    219.9456   1.2772447038e+02   1.3760609222e+01    0.3223423   0.09402817 -60.71  0.001074282    4.032    0.752
        73  -9.9702    104.9282    218.6112   1.2878691449e+02   1.5039933948e+01    0.2325291    0.1872128 -72.37 0.0001435225    1.272    0.214
        74 -10.1661     99.7118    217.4665   1.2972756043e+02   1.6145775044e+01    0.2446207    0.1968737 -34.64 0.0009618708    1.777    0.437
        75 -10.8011    160.3591    223.5458   1.1793059604e+02   4.2243960988e+00    0.3206609    0.2298604  23.48  0.001669805    1.590    0.371
        76 -11.1788     72.9823    209.9332   1.3438347559e+02   2.1941169361e+01    0.4102265    0.3068511  18.14  0.001640775    2.084    0.520
        77  -8.8664    119.2635    217.3399   1.2558991398e+02   1.2850419956e+01    0.1250336    0.1091123 -17.83 0.0002028257    1.592    0.372
        78 -10.0325     88.1280    212.8129   1.3155911997e+02   1.9007960161e+01    0.2550257    0.1794804 -75.33 0.0005561559    1.394    0.283
        79  -9.6684     67.8497    214.5963   1.3597482528e+02   2.1666424632e+01    0.2127934    0.1552677 -80.55 0.0004778354    1.254    0.202
        80  -9.6170    102.1372    212.0351   1.2848441249e+02   1.6901635766e+01    0.3914411     0.167322  61.23  0.001359481    3.472    0.712
        81 -10.7128    107.2431    209.4255   1.2702145404e+02   1.6601522816e+01     0.410089    0.3070872 -27.01  0.001405116    2.112    0.526
        82 -10.9305    112.4819    208.2841   1.2572083816e+02   1.5944549328e+01    0.2604969    0.2398127  70.50 0.0003427077    1.071    0.066
        83  -9.1696    134.5781    208.2106   1.2090738067e+02   1.1992433904e+01    0.1908066    0.1327828 -41.91 0.0005364062    1.699    0.412
        84 -11.0947     92.2751    204.6685   1.2959884975e+02   2.0131381353e+01    0.7952266     0.322917  53.99  0.002369036    2.646    0.622
        85  -9.2610     32.8438    206.9247   1.4221881709e+02   2.7844984896e+01    0.1680401    0.1349441 -72.23 0.0003438748    1.305    0.234
        86 -11.1652    246.7279    205.9762   9.7872882935e+01  -7.9192579633e+00    0.5408359     0.237388  26.90  0.002212537    3.000    0.667
        87  -9.2894    125.8410    205.3848   1.2236024730e+02   1.4188100226e+01    0.2336313    0.1886479 -78.37 0.0007735611    1.310    0.236
        88 -10.0184    102.8815    202.8695   1.2702423671e+02   1.8775206428e+01    0.3928678    0.2348138  55.44  0.001503428    1.618    0.382
        89  -8.9804     75.0882    203.4392   1.3315051713e+02   2.3070265894e+01    0.3148359    0.2206756   3.12 0.0006442719    3.099    0.677
        90  -9.6764    166.7878    202.9961   1.1305763142e+02   6.9557161916e+00    0.1860033    0.1817403  45.07            0    1.049    0.047
        91  -9.2849     84.0028    202.0283   1.3104249311e+02   2.2031785779e+01    0.2052473    0.1653482  78.70 -0.003769674    1.110    0.099
        92 -10.3667     93.5260    201.4571   1.2888037718e+02   2.0643474112e+01     0.424288    0.2843224  73.22  0.001837626    1.584    0.369
        93  -9.4097     85.9501    195.7323   1.2975569128e+02   2.3150339495e+01    0.2109497    0.1642559  74.07 0.0003337229    1.197    0.165
        94  -9.1300     64.3204    201.9508   1.3526883764e+02   2.4954268988e+01    0.1829034    0.1511426  84.32 0.0005539343    1.017    0.017
        95 -10.9434     32.7025    201.7511   1.4177864769e+02   2.8994478086e+01    0.2097903    0.1675341  88.57 0.0002925418    1.066    0.062
        96  -9.8089    115.1128    200.1956   1.2391080012e+02   1.7242651042e+01    0.2257881    0.1903199  88.63 0.0002593276    1.171    0.146
        97  -9.2119    196.5430    200.5071   1.0638627356e+02   1.7464947562e+00    0.1391182    0.1305456  19.30 0.0002042272    1.021    0.020
        98  -8.5143    183.2397    200.3324   1.0909096148e+02   4.3081358103e+00    0.1375293    0.1081671  -7.60 0.0001973648    1.539    0.350
        99  -9.1166    133.1079    202.8448   1.2035167792e+02   1.3393093909e+01    0.2188269    0.1826241  77.35 0.0004829983    1.239    0.193
       100  -8.5517    127.7508    199.9875   1.2106483044e+02   1.4997853213e+01    0.1717081    0.1217697 -57.64 0.0003985645    1.476    0.323
       101  -9.3014    119.9567    199.4634   1.2271520818e+02   1.6535491359e+01    0.2123574    0.1313623  45.05 0.0003312021    1.514    0.340
       102 -11.6851     68.7751    187.3870   1.3247023690e+02   2.7655710899e+01     0.300474    0.2463605 -52.12 0.0006492713    1.409    0.290
       103 -11.5596     63.1399    194.9008   1.3467908594e+02   2.6714862915e+01    0.5102396    0.3666235 -25.02  0.002359702    2.564    0.610
       104 -10.1274     57.4522    193.8390   1.3578722583e+02   2.7728570748e+01    0.3469245    0.2865677 -71.33  0.001938952    1.207    0.171
       105  -8.9033     43.6472    199.1179   1.3929501023e+02   2.8292716578e+01    0.1755027   0.09595744 -62.94 0.0004543928    1.716    0.417
       106  -8.4076    149.7393    198.7400   1.1598553259e+02   1.1106720775e+01    0.1316442    0.1129311   3.41            0    1.444    0.308
       107  -9.6358    134.0253    197.7397   1.1929040778e+02   1.4314248595e+01    0.2000186    0.1796746  60.86 0.0003754537    1.029    0.028
       108  -9.7447    102.7322    195.9422   1.2602474709e+02   2.0348014270e+01    0.2182969    0.1921064  76.85 0.0006390728    1.017    0.017
       109 -11.3865    249.6007    194.3470   9.5118457600e+01  -6.5563241347e+00    0.3347231    0.2808999 -15.05  0.002097565    1.044    0.042
       110  -8.5345    107.6526    196.2868   1.2497041704e+02   1.9423236037e+01    0.1497393    0.1005355  70.41 0.0006930531    1.655    0.396
       111 -10.0936     38.3072    193.7003   1.3985133322e+02   3.0146547772e+01    0.4294555    0.1615943 -63.34  0.001971942    2.296    0.564
       112  -9.5841     40.7548    188.3803   1.3877348794e+02   3.1068498154e+01    0.2852505    0.1775805 -74.93  0.001050867    1.370    0.270
       113  -9.7885    112.8488    193.5766   1.2336621605e+02   1.9117733998e+01    0.4575942    0.1962917 -58.91  0.001327937    2.428    0.588
       114  -9.1138     31.9292    195.3913   1.4133863407e+02   3.0492925882e+01    0.2357925   0.08440827  45.04  0.001087184    2.590    0.614
       115  -8.8405    159.7884    194.3884   1.1298954111e+02   1.0054607225e+01    0.1960852    0.1338658  33.95 0.0002593779    1.506    0.336
       116  -9.7652     98.3619    196.5694   1.2710059509e+02   2.0944279274e+01    0.4601109    0.2367926  62.30  0.001336689    2.389    0.581
       117  -9.8541    119.9452    193.2103   1.2169488597e+02   1.7920420858e+01    0.3518402     0.251144 -42.09  0.001474562    1.657    0.396
       118  -9.3641     72.6654    193.0590   1.3235016710e+02   2.5782059287e+01    0.1817517     0.150769 -80.06 0.0003547813    1.105    0.095
       119  -9.4810     25.7453    192.4710   1.4232913788e+02   3.1815809538e+01    0.2197438    0.1483924  76.82 0.0007667024    1.273    0.215
       120  -9.5603     20.3111    191.8798   1.4337977412e+02   3.2508425206e+01    0.2840522    0.1486554  75.72  0.001522278    1.866    0.464
       121  -9.8531    191.4097    191.4370   1.0567633689e+02   4.4294068576e+00    0.2458605    0.2346232  11.35 0.0006990331    1.015    0.015
       122  -8.8433     84.6142    192.2398   1.2956323158e+02   2.4159711040e+01    0.1772263    0.1213385 -58.20 0.0003357197    1.475    0.322
       123  -9.2018    135.1565    189.9684   1.1767841679e+02   1.5791584846e+01    0.2169907    0.1855383  77.94 0.0003760936    1.205    0.170
       124  -8.6953    117.9902    189.9892   1.2160127879e+02   1.8999403576e+01    0.1711488    0.1547223 -81.51 0.0003335664    1.084    0.078
       125  -9.9025     32.6499    189.5677   1.4061914224e+02   3.1722377973e+01    0.2761446    0.2390029  67.35  0.001903609    1.212    0.175
       126  -9.5035     15.1849    190.0855   1.4425700612e+02   3.3411833916e+01    0.1706818    0.1325985 -72.67 0.0007094655    1.251    0.200
       127 -10.8340    249.8438    187.4803   9.3721327113e+01  -5.4905878735e+00    0.3949375    0.2179205 -31.19  0.001956818    1.708    0.415
       128  -9.9044     76.9798    188.6665   1.3078755661e+02   2.6156826933e+01    0.2265574    0.1999611 -73.56 0.0002630469    1.151    0.131
       129  -9.3820    111.2140    187.6567   1.2277042584e+02   2.0750732652e+01    0.2437682    0.1846279 -73.69 0.0007461396    1.348    0.258
       130  -9.1375    143.3075    184.6991   1.1485749751e+02   1.5366026114e+01    0.2040672    0.1816888   7.66 0.0006475361    1.347    0.258
       131  -9.4014    140.1506    183.1821   1.1529421778e+02   1.6321062112e+01      0.22323    0.2066945  74.84 0.0002483663    1.052    0.050
       132  -9.6282     53.1646    197.8562   1.3716693953e+02   2.7379222243e+01     0.365182    0.1752728  42.63 0.0009399442    2.028    0.507
       133  -9.1046     37.4993    183.9992   1.3900177247e+02   3.2448242038e+01    0.1949707    0.1493061  51.10  0.001138288    1.357    0.263
       134  -9.4003     30.2361    183.8537   1.4055236540e+02   3.3282952067e+01    0.1884297    0.1361205  78.90 0.0006810053    1.202    0.168
       135  -9.7213     24.3517    184.2286   1.4183901038e+02   3.3813461352e+01     0.196146     0.157521  56.26 0.0005747371    1.305    0.234
       136 -12.7769    248.0472    101.3939   7.5784164310e+01   9.8245392562e+00    0.9331062    0.5309467 -40.69  0.004488425    1.573    0.364
       137 -13.6901    244.6834    157.9258   8.8549783928e+01   4.4070638204e-01     2.665111    0.8849595 -47.59  0.008989386    3.430    0.708
       138 -10.9639    249.4943    150.8241   8.6242818451e+01   8.1154004930e-01    0.5321884    0.3121708 -43.40  0.002601602    1.558    0.358
       139 -11.4049    248.4572    142.4028   8.4620133246e+01   2.4938208229e+00    0.5962654     0.467781 -16.98  0.003281636    1.390    0.281
       140 -12.5372    248.3320    134.5665   8.2956706482e+01   3.9126123791e+00     1.134804    0.6157023 -41.06  0.005295669    1.633    0.388
       141  -8.9109     47.9145    179.8132   1.3621416672e+02   3.2189416717e+01    0.1567256   0.09890784  36.48 0.0007235705    1.780    0.438
       142  -9.2988     20.0368    179.2331   1.4227016659e+02   3.5374857532e+01    0.1696076    0.1397459 -68.58 0.0003013484    1.261    0.207
       143  -9.5799     12.3730    178.3773   1.4380885536e+02   3.6285963362e+01    0.2348501    0.1702104 -49.80  0.001156665    1.684    0.406
       144 -10.7247     11.9060    173.4077   1.4345254977e+02   3.7447119248e+01    0.3786116     0.164191 -58.11  0.001946871    2.118    0.528
       145  -9.3075     92.7212    178.1254   1.2553917237e+02   2.6147525214e+01    0.1898849     0.168009 -72.23  0.000183003    1.100    0.091
       146  -8.7839     34.7846    176.9881   1.3882566650e+02   3.4368040953e+01    0.1635175   0.08635511 -71.68 0.0003589264    1.590    0.371
       147  -9.0145    182.2923    176.4493   1.0456378296e+02   9.2211345049e+00    0.2024768    0.1409533  54.59 0.0009322207    1.542    0.352
       148 -11.5335     78.0106    175.1820   1.2857870654e+02   2.9171348404e+01    0.2969925     0.282621  84.69  0.001814066    1.147    0.128
       149  -9.9882     68.6546    166.9740   1.2957614824e+02   3.2501767767e+01    0.2538408     0.216239 -47.23 0.0006115389    1.336    0.252
       150  -8.9084     68.7613    175.9899   1.3089256256e+02   3.0335631465e+01    0.1986047    0.1201988 -80.08 0.0003543699    1.692    0.409
       151 -11.1592     64.7447    173.6544   1.3150639308e+02   3.1452612906e+01    0.4321382    0.2728295 -48.17   0.00126359    1.777    0.437
       152 -13.2472    248.5660    114.1516   7.8491895123e+01   7.4914989907e+00     1.513727    0.8641565 -29.59  0.006876549    1.950    0.487
       153 -10.5675     18.9223    172.4607   1.4184421902e+02   3.7022844578e+01    0.4464497    0.2369674  77.26  0.002332726    1.969    0.492
       154 -10.7049     12.4872    167.0502   1.4271837819e+02   3.8838026030e+01    0.2426521    0.1704698 -81.91  0.001573221    1.106    0.096
       155 -11.4795     15.6098    165.7689   1.4189762748e+02   3.8856359064e+01    0.3688637    0.2504438 -59.24  0.002319719    1.418    0.295
       156  -9.7960    107.8075    172.9562   1.2103698941e+02   2.4773464108e+01     0.235784    0.2025392  60.70 0.0004613635    1.126    0.112
       157 -10.4630     28.2636    171.3454   1.3965654045e+02   3.6364275444e+01    0.4103088    0.1966946 -70.88  0.001727733    1.713    0.416
       158  -8.8118     95.2517    172.4445   1.2398629614e+02   2.7072106836e+01    0.1959426    0.1282012  54.30 0.0005090113    1.547    0.354
       159  -8.7382     52.5366    170.9632   1.3401787826e+02   3.3698794564e+01    0.1838216    0.1142454 -68.51 0.0001004083    1.403    0.287
       160  -8.4689    100.6750    170.3194   1.2229829256e+02   2.6652766324e+01    0.1541704    0.1078527  76.86 0.0001998936    1.677    0.404
       161 -11.0916     45.0658    166.5809   1.3520176544e+02   3.5642444341e+01    0.5564212    0.3429349 -67.36 0.0007403426    1.388    0.280
       162 -12.0822     86.1998    166.8769   1.2525301451e+02   2.9884427610e+01    0.6042876     0.506142  46.94  0.003366505    1.245    0.197
       163  -8.8506     58.4942    167.4751   1.3211456336e+02   3.3765251496e+01    0.1372069    0.1153924 -88.24   0.00012576    1.040    0.039
       164  -9.3997    126.7189    167.8494   1.1550500189e+02   2.2434513901e+01    0.2909062    0.1880533  68.69  0.001024313    2.003    0.501
       165  -8.7767     53.7879    164.9719   1.3289394593e+02   3.4966526588e+01    0.1785708   0.09489045 -66.21 0.0004777213    1.645    0.392
       166  -9.6546     32.9739    164.2620   1.3775756259e+02   3.7528222046e+01    0.3298571    0.1320993 -64.96  0.001391106    2.024    0.506
       167 -12.0092     24.2971    162.2550   1.3954173577e+02   3.8865270746e+01    0.2503756    0.2086443 -59.81 0.0006139284    1.273    0.215
       168  -8.5076     37.2839    162.6768   1.3654451921e+02   3.7442060781e+01    0.1317666   0.08526127  77.84 0.0004240531    1.596    0.374
       169 -10.6491     89.5768    159.4149   1.2310340368e+02   3.1134543518e+01    0.4446083    0.2424892 -70.28  0.001075907    2.046    0.511
       170  -9.0805     78.9435    158.6641   1.2566234974e+02   3.2993708007e+01    0.1922472    0.1738196  70.80 0.0006325247    1.102    0.093
       171  -9.7842     83.3856    155.7910   1.2402493031e+02   3.3001534002e+01    0.3922351    0.1948838  23.58  0.001422448    3.338    0.700
       172  -9.1364     73.5495    159.5175   1.2716929811e+02   3.3592345673e+01     0.141855    0.1243277 -83.21 9.436812e-05    1.022    0.021
       173 -12.7975     12.1213    212.9088   1.4660976639e+02   2.8789247347e+01     1.021289    0.5318606  48.57  0.005194366    1.775    0.437
       174 -13.2053     10.7436    151.6124   1.4151657667e+02   4.2512380538e+01    0.7535334    0.4181114 -74.73  0.001622252    1.418    0.295
       175 -12.8383     11.4650    205.8689   1.4622457868e+02   3.0343113369e+01     1.243779    0.7186987  11.88  0.006216992    4.011    0.751
       176 -12.2919      8.5930    142.8948   1.4105624380e+02   4.4675319931e+01    0.4083383    0.2715745 -43.00  0.002349572    1.712    0.416
       177  -8.7976     52.4712    158.4683   1.3227848801e+02   3.6685191088e+01    0.1351934    0.1145532 -81.06 0.0001679141    1.009    0.009
       178  -9.0826     47.7796    157.9930   1.3337015106e+02   3.7365239684e+01    0.1753738   0.09431387 -66.89 0.0008520019    1.599    0.375
       179 -10.9765     31.8595    155.9656   1.3698979197e+02   3.9591822139e+01    0.3940487    0.2073315 -53.41  0.001438636    1.810    0.448
       180 -12.3241     23.8460    154.7227   1.3876467633e+02   4.0661368858e+01    0.5150321    0.4243398  51.72  0.003435008    1.357    0.263
       181  -8.5889    112.3080    157.7246   1.1704318390e+02   2.7563105948e+01    0.1514522    0.1137652  77.23 0.0002558645    1.550    0.355
       182  -9.5582     71.9286    156.4358   1.2706309573e+02   3.4572128909e+01    0.2986752    0.2104833   4.68  0.001398441    2.350    0.574
       183  -9.0761    228.3620    155.2595   9.0849397182e+01   4.0248681659e+00    0.2025348    0.1251963 -47.23  0.000531076    1.605    0.377
       184 -10.8716     98.5334    151.1054   1.1923630329e+02   3.1627455650e+01    0.4139906    0.3655711 -24.20  0.002216187    1.367    0.269
       185  -9.4383    101.8142    146.3617   1.1742312464e+02   3.2190182955e+01    0.3454414    0.2100931 -33.26  0.001403188    2.260    0.558
       186  -9.9507    113.9827    150.6982   1.1518322569e+02   2.8920360169e+01    0.3433652    0.2399546 -62.67 0.0005039749    1.449    0.310
       187  -9.5285     86.5355    150.2628   1.2218969130e+02   3.3837598006e+01    0.2630195     0.136493 -62.75 0.0005765963    1.894    0.472
       188  -8.9989     52.7070    146.3134   1.3034512569e+02   3.9571629110e+01    0.2457439    0.1641406  66.38 0.0009847434    1.721    0.419
       189  -9.3979     60.4382    151.1300   1.2912405087e+02   3.7436061041e+01    0.2880207    0.1433869  58.88  0.001175893    2.672    0.626
       190 -10.0804     56.1077    150.0439   1.3006405133e+02   3.8254293641e+01    0.2980605    0.2660314 -52.54  0.001272509    1.199    0.166
       191 -10.1559     23.5495    149.4809   1.3819219770e+02   4.1911752275e+01    0.2273354    0.1465241 -56.85 0.0006684104    1.410    0.291
       192 -12.3897     68.2952    144.4591   1.2592017551e+02   3.7982396966e+01     0.682724    0.5019677  87.80  0.002486545    1.501    0.334
       193 -11.3100     73.5069    139.4221   1.2358377622e+02   3.8453110964e+01    0.4855463    0.3369803  43.28  0.002491939    1.545    0.353
       194  -8.9957     35.2834    148.6790   1.3517085762e+02   4.0962002421e+01    0.1300833   0.08724583  79.29 0.0004341335    1.591    0.371
       195  -9.4251     76.9966    147.0229   1.2408436596e+02   3.6103012000e+01     0.207192    0.1868759 -66.56  0.001190348    1.048    0.046
       196 -10.1358     39.5800    146.8691   1.3382228348e+02   4.0939810475e+01    0.2567211    0.1468803  52.88  0.001147565    1.969    0.492
       197 -10.4064    236.2993    145.9700   8.7424487725e+01   4.1836054079e+00    0.2718437    0.2199955  45.10 0.0007866709    1.345    0.257
       198 -10.5387    133.3305    141.5837   1.0828357944e+02   2.7216529072e+01    0.6442097    0.2628629 -51.17  0.002215995    2.471    0.595
       199 -11.3339     32.8300    140.7256   1.3466498417e+02   4.3087648727e+01    0.3125871    0.2075614  85.80  0.001280538    1.603    0.376
       200 -12.0521      8.9186    136.8531   1.4026399201e+02   4.6032677009e+01    0.3117228     0.211233 -27.81  0.001825254    1.999    0.500
       201 -11.5605     17.6939    139.0218   1.3832016839e+02   4.4851982636e+01    0.3445141    0.2400225  52.72 0.0008850539    1.614    0.380
       202 -10.8131     12.7112    137.3314   1.3936738826e+02   4.5638484204e+01    0.2404997    0.1493533 -66.28 0.0007436272    1.260    0.206
       203 -10.6511     56.2053    138.9515   1.2817988894e+02   4.0906243051e+01    0.2363097    0.2261665   9.53 0.0003549313    1.260    0.206
       204 -11.2300     60.8699    137.0200   1.2656989448e+02   4.0774297156e+01    0.3303478    0.2507142 -85.84   0.00180003    1.377    0.274
       205  -9.9497    110.0924    136.2660   1.1306330242e+02   3.3078478994e+01    0.3232862    0.2692559  -5.97  0.001096881    1.558    0.358
       206 -13.0113     13.6235    238.6870   1.4803163789e+02   2.3408851668e+01    0.7512678    0.4508124  71.09  0.005143937    1.259    0.206
       207  -9.8247     25.7434    139.4244   1.3631433480e+02   4.4062744003e+01    0.1462867    0.1241919  -4.90 0.0009467617    1.582    0.368
       208 -11.3756     45.0172    131.2190   1.2988890709e+02   4.4063795434e+01    0.3970076    0.3135239  82.48  0.001962008    1.360    0.265
       209 -11.1778     33.0096    131.5776   1.3323278537e+02   4.5221220070e+01    0.4228027    0.1375002 -59.85  0.001220418    2.352    0.575
       210 -11.3395     30.1236    126.8471   1.3327174739e+02   4.6598698750e+01    0.3075917    0.2112921   8.65  0.001418203    2.002    0.501
       211  -9.7984    115.2690    177.5243   1.2006907723e+02   2.2351829085e+01    0.4419458    0.2156985 -58.89  0.001773679    2.110    0.526
       212 -11.3369     66.9523    128.6563   1.2328052051e+02   4.1957558335e+01    0.4016794    0.2474307 -67.20  0.001928095    1.605    0.377
       213  -9.1333    106.3143    129.6561   1.1256599885e+02   3.5340709313e+01     0.157035    0.1181054  86.36 0.0007047498    1.710    0.415
       214  -9.4269    116.9979    128.3237   1.0938938742e+02   3.3604165201e+01    0.2441098    0.1294318  20.89 0.0007046477    4.263    0.765
       215 -10.7850     24.0656    127.7230   1.3506600782e+02   4.6934759892e+01    0.2529123    0.1531834 -42.09   0.00130607    1.746    0.427
       216 -10.5004    209.8531    125.8347   8.7619025886e+01   1.3542112896e+01    0.3168601    0.2409375 -35.40 0.0005271119    1.309    0.236
       217 -11.5210     20.2564    120.7511   1.3504886484e+02   4.8855709572e+01    0.3099901    0.1625442 -62.02  0.001464257    1.490    0.329
       218 -10.0122     54.5490    120.7323   1.2524178940e+02   4.5430482039e+01    0.2616145    0.2058374  12.49  0.001128887    1.576    0.366
       219 -11.4562     30.5014    119.3710   1.3193007198e+02   4.8295942834e+01    0.3660747    0.2336868  47.30  0.002057167    1.865    0.464
       220 -11.5591      8.8337    120.8605   1.3821155146e+02   4.9676104018e+01    0.2161435    0.1628009  40.62  0.001345943    1.614    0.381
       221  -9.2414     80.8399    132.7918   1.2024770680e+02   3.8941558038e+01      0.20616    0.1836244 -40.28 0.0003427617    1.174    0.148
       222  -9.5966    231.5488    116.5181   8.1669907219e+01   1.0583069891e+01    0.1447921    0.1317197 -50.69 0.0001412537    1.007    0.007
       223 -11.0436    168.0936    113.2463   9.3029085919e+01   2.5709751948e+01    0.3802807    0.3128415 -81.38 0.0008970298    1.397    0.284
       224  -9.3741     38.0247    121.4947   1.3014984395e+02   4.7082702759e+01    0.1654902    0.1313637  25.93 0.0003824339    1.512    0.339
       225  -9.2898     33.3106    115.3165   1.3040521218e+02   4.8968120483e+01    0.1321831   0.08282334 -39.65 0.0002629745    1.638    0.389
       226  -9.3892    203.4924    111.5110   8.5387674323e+01   1.7762749071e+01    0.1498493    0.1453971 -48.49 5.708554e-05    1.064    0.060
       227 -11.9557     14.6770    114.7185   1.3568381322e+02   5.0652263096e+01    0.2865365    0.2152853 -79.18  0.001061709    1.233    0.189
       228  -9.3246     57.3207    109.6597   1.2209539108e+02   4.7649167779e+01    0.1355686    0.1027818  82.29 0.0007050151    1.717    0.418
       229  -8.9414     62.6587    107.3318   1.1994674108e+02   4.7493266746e+01    0.1376949    0.1050958  80.49 0.0007051336    1.749    0.428
       230 -11.4444     15.0766    103.8375   1.3378652275e+02   5.3056216269e+01    0.2653384    0.2018316  -5.00  0.001743736    1.643    0.391
       231 -10.8883     17.3234     99.1882   1.3227438318e+02   5.3919404600e+01    0.2195126    0.1906216 -74.37 0.0002709652    1.181    0.153
       232  -9.3384     42.5560     92.4175   1.2281339254e+02   5.3171908821e+01    0.1285923     0.108458 -43.55 1.532465e-05    1.018    0.018
       233 -12.3979    248.4726    171.9300   9.0816812775e+01  -2.6675913864e+00    0.8615774    0.4816779 -33.61  0.004194251    1.655    0.396
       234  -9.2466     77.9637     85.0263   1.0940953653e+02   5.0105018769e+01    0.2005637    0.1824555 -25.14            0    1.012    0.012
       235  -8.8304     63.9429     76.5100   1.1151773047e+02   5.3881179702e+01    0.1713981    0.1291052  27.32 0.0009715162    1.413    0.292
       236  -8.6410     45.6928     74.7142   1.1724562022e+02   5.6514046560e+01    0.1290208   0.08542342 -23.95 0.0002535956    1.568    0.362
       237 -10.9759    170.0118    248.3276   1.1982237397e+02  -1.7626012969e+00    0.3472417    0.2311999  16.19 0.0009939924    1.949    0.487
       238 -11.8636    199.5681    246.2580   1.1381028817e+02  -6.3921927846e+00    0.5345202    0.2057625  42.09  0.002364271    2.285    0.562
       239 -10.7792    193.9534    245.1853   1.1471287007e+02  -5.3051719550e+00     0.224415    0.1775378 -36.57 0.0009515679    1.445    0.308
       240  -9.6472    222.6768    244.6648   1.0921117007e+02  -9.8440739268e+00    0.1287514    0.0839472   6.45 0.0007050736    1.711    0.416
