#   1 NUMBER                 Running object number                                     
#   2 MAG_AUTO               Kron-like elliptical aperture magnitude                    [mag]
#   3 X_IMAGE                Object position along x                                    [pixel]
#   4 Y_IMAGE                Object position along y                                    [pixel]
#   5 X_WORLD                Barycenter position along world x axis                     [deg]
#   6 Y_WORLD                Barycenter position along world y axis                     [deg]
#   7 A_WORLD                Profile RMS along major axis (world units)                 [deg]
#   8 B_WORLD                Profile RMS along minor axis (world units)                 [deg]
#   9 THETA_WORLD            Position angle (CCW/world-x)                               [deg]
#  10 FWHM_WORLD             FWHM assuming a gaussian core                              [deg]
#  11 ELONGATION             A_IMAGE/B_IMAGE                                           
#  12 ELLIPTICITY            1 - B_IMAGE/A_IMAGE                                       
         1 -14.1870     10.6820     69.4792   8.5581999791e+01   6.2784555896e+01     1.567474      1.30069 -21.38  0.009479494    1.039    0.037
         2 -13.1136     11.4363     32.1045   7.3207671013e+01   7.0060882538e+01     1.482177    0.6595435  25.65  0.007326725    1.954    0.488
         3 -13.0284     14.1043     36.7602   7.3368777193e+01   6.8972640929e+01     1.691898    0.8230094 -14.19  0.005086142    3.086    0.676
         4 -11.7635     20.1820     31.6065   6.7675732581e+01   6.9104741687e+01    0.5144109    0.3164607 -47.35 0.0008390179    1.944    0.486
         5 -11.5015     77.2538      5.9580   3.3702128763e+01   6.1542918496e+01    0.3934385    0.2371648 -41.28  0.002302704    2.049    0.512
         6  99.0000     31.2694     20.2366   5.6552501286e+01   6.9123044543e+01      1.13429    0.7557542 -65.28   0.00531908    3.773    0.735
         7 -11.1379     41.5449     20.1545   5.1570360362e+01   6.7369343555e+01    0.8297624    0.5809317  -0.64  0.004415837    1.689    0.408
         8 -13.7659     91.8733     64.8446   4.9618076107e+01   5.0957457717e+01     2.010518      1.20761 -64.37  0.008562579    2.617    0.618
         9 -12.0699     70.1326      3.7446   3.4658327396e+01   6.3268851685e+01    0.5133737    0.2572261  69.13  0.002395458    1.919    0.479
        10 -12.5141     69.9922     12.8156   3.8202314896e+01   6.2496416036e+01     1.066388    0.4117615  38.18  0.004364079    3.145    0.682
        11 -12.0927     51.9966     19.1591   4.6784558055e+01   6.5525448443e+01    0.6584707    0.3600754  52.43   0.00293549    1.612    0.380
        12 -12.6669     58.0806      5.5665   3.8884756090e+01   6.5658948716e+01     1.171782    0.5215482 -31.60  0.006058007    2.718    0.632
        13 -12.8226     71.9384     23.8579   4.1812173243e+01   6.0938129538e+01     0.713798    0.4562817  79.31 0.0007389316    2.244    0.554
        14 -12.0593     78.4366     20.9931   3.8885953806e+01   5.9859255571e+01    0.8700325    0.4542106  72.64  0.002804447    2.435    0.589
        15 -13.3376     62.7245     35.0492   4.9099573714e+01   6.1456484228e+01      1.50075     1.171575 -59.24  0.008767146    1.754    0.430
        16 -11.6804     65.5143      8.2678   3.7718278561e+01   6.3866977499e+01    0.4169164    0.3018751 -81.30  0.001549587    1.960    0.490
        17 -13.0240    233.7122     61.6722   2.5529904024e+01   2.3035634620e+01     1.203174    0.5709179 -35.59  0.006713617    2.383    0.580
        18 -13.4437    187.9462     56.7786   2.9191986204e+01   3.1782513898e+01     1.362727    0.7024938 -68.41  0.006859395    2.252    0.556
        19  99.0000    191.3394     22.4497   2.1934264129e+01   3.5392732662e+01     1.050833    0.6776822  35.87  0.005818685    3.324    0.699
        20 -12.0307    190.6926     32.5404   2.3990173237e+01   3.4360147258e+01    0.7110429    0.2021341 -49.93  0.002557256    3.051    0.672
        21  99.0000    231.9524      1.7377   1.5638657172e+01   3.0314859993e+01    0.7889661    0.3564396  88.00     0.005322    1.959    0.490
        22  99.0000    221.9214     10.0087   1.7530437876e+01   3.1162497048e+01    0.8927841    0.4118107 -82.79  0.003420636    1.991    0.498
        23 -12.7237    219.4272     29.7753   2.1108830227e+01   2.9420927856e+01    0.7939237    0.4011508 -88.40  0.002379023    1.964    0.491
        24 -12.5782    225.9953     22.3235   1.9373607860e+01   2.9143216160e+01    0.4456864    0.4087617  46.47  0.001086592    1.853    0.460
        25 -12.9027    249.4177     10.5775   1.6191081984e+01   2.6627348872e+01    0.3837105    0.2230456 -39.52  0.002917932    1.805    0.446
        26 -13.6382    243.8357      8.4275   1.6125818134e+01   2.7720452348e+01    0.6501269    0.3085186 -78.79  0.004253257    1.818    0.450
        27 -11.7824    243.4158     22.5972   1.8373533697e+01   2.6267256816e+01    0.4051238    0.2256795  78.14  0.002176208    1.781    0.438
        28 -10.5086    213.7613     12.8559   1.8512675064e+01   3.2287839677e+01    0.2406098    0.1286393 -48.46 0.0003388002    1.562    0.360
        29 -11.1233    201.3435     19.8896   2.0647155933e+01   3.3785165696e+01    0.4047427     0.247959 -52.11  0.002543784    1.393    0.282
        30 -11.9393    209.6934     21.2219   2.0280609203e+01   3.2112133532e+01    0.3304412    0.2166691  51.12  0.002204601    2.300    0.565
        31 -10.6012    139.0482     16.2726   2.5979532881e+01   4.6862290144e+01    0.2370349     0.163087 -55.90 0.0008139242    1.467    0.318
        32 -11.6543    160.0402     14.9549   2.3257264803e+01   4.2492022722e+01    0.2330035    0.1458675 -46.17 0.0005070066    1.599    0.375
        33 -11.0555    151.3297     13.7475   2.3903550351e+01   4.4457248761e+01    0.4472714    0.2310328 -88.45  0.001028824    1.925    0.481
        34  -8.5613     34.4454     12.5076   5.1367184479e+01   6.9520838772e+01    0.2811227    0.2476786 -55.18  0.001424644    1.692    0.409
        35 -10.1363    186.8486     12.6224   2.0360111924e+01   3.7310935624e+01    0.3209851    0.1145031 -75.18  0.001250826    4.382    0.772
        36 -11.0132    123.5889     11.1175   2.6715504270e+01   5.0774479397e+01    0.3092539    0.2262476  19.85  0.001888473    2.117    0.528
        37  -9.8290    111.8639      4.2450   2.6494040077e+01   5.3994499240e+01    0.2454609    0.1260796  68.53   0.00121718    1.532    0.347
        38 -11.8438    115.8395      9.8454   2.7509413853e+01   5.2619621029e+01     0.393248    0.2362863 -22.99  0.001267797    2.225    0.550
        39 -10.7830    117.8544      3.2012   2.5325070752e+01   5.2746734029e+01    0.3241689    0.1751442 -40.54  0.001887922    2.062    0.515
        40 -11.4372    173.1931      7.1051   2.0336053880e+01   4.0565688679e+01    0.3834622    0.1772408 -33.92  0.001721893    2.416    0.586
        41 -10.8016    131.2438     11.6285   2.5799408736e+01   4.9030070854e+01    0.3350358    0.1777561  83.29  0.001293969    1.757    0.431
        42 -11.3184     94.0370     11.7000   3.1962678654e+01   5.7333201345e+01    0.2332483    0.1556157  59.30 0.0002186308    1.209    0.173
        43  -9.5525     88.6805     11.7880   3.3130670611e+01   5.8516818270e+01    0.1487038    0.1081296 -43.97 0.0008375259    1.648    0.393
        44  -9.6220    110.5894      9.7168   2.8305934446e+01   5.3806231361e+01     0.144351    0.1075554 -52.98  0.000627274    1.498    0.332
        45 -10.8161     27.5836      9.3593   5.3282251019e+01   7.1043582986e+01     0.223772     0.143881  38.27  0.001378737    1.257    0.205
        46 -11.4737    194.0056      7.7320   1.8882749139e+01   3.6434820497e+01    0.2411763    0.1742519 -87.85   0.00136598    1.127    0.113
        47  -9.1917    189.2057      9.2181   1.9512464211e+01   3.7201747943e+01   0.08323722   0.07104806  82.79            0    1.318    0.241
        48  -9.7074    146.7142      9.2595   2.3341227308e+01   4.5881370393e+01    0.2177806     0.135918  82.66  0.001360015    1.321    0.243
        49 -10.6341    145.1625      6.4671   2.2836698281e+01   4.6474606178e+01    0.2044461    0.1480011  66.27 0.0007013404    1.299    0.230
        50 -10.0800     84.6167      8.4141   3.2868415274e+01   5.9716891552e+01     0.272598    0.1821229 -15.83  0.001641783    2.003    0.501
        51 -11.8458     86.0341      1.7149   3.0230673441e+01   5.9955597547e+01    0.4598816    0.1252849  58.31  0.001971021    2.521    0.603
        52  -9.8530    210.9789      6.1294   1.7498153186e+01   3.3474659170e+01    0.1344156    0.1123534  66.58 0.0006587777    1.620    0.383
        53 -10.6874      2.9536      6.1370   6.7100135802e+01   7.4936471443e+01    0.2497367    0.1324017  20.78 0.0008314362    1.555    0.357
        54  -9.9770    100.0026      4.8976   2.8631276758e+01   5.6591473027e+01    0.4090959    0.1317848  52.56  0.001412403    2.590    0.614
        55 -11.4774    183.6638      3.3259   1.8758924214e+01   3.8853162820e+01    0.2610883    0.1569557 -83.17   0.00177386    1.342    0.255
        56 -10.6649    216.7276      2.1033   1.6473711956e+01   3.2861270102e+01    0.3725759    0.1461447  75.98  0.002277158    2.277    0.561
        57 -10.6765    142.1705      2.0741   2.2088434787e+01   4.7510262734e+01    0.1959163    0.1439475 -84.44 0.0004508129    1.124    0.110
        58 -11.4438     48.8820      1.5006   4.0205337545e+01   6.7877015013e+01    0.4344563    0.0964966  53.72  0.001186524    3.143    0.682
        59  -9.8015    250.4534      1.4132   1.4759206922e+01   2.7404731147e+01   0.09735769    0.0599719 -66.42 0.0001434937    1.085    0.079
        60  -9.4351      1.2302      1.2066   6.5706834183e+01   7.5778483980e+01    0.1025718   0.06599887   6.14 0.0006460711    1.336    0.251
        61 -13.5483     62.7146     90.7373   6.7388179838e+01   5.1507404808e+01    0.9159748    0.6369717  78.91  0.003841712    2.532    0.605
        62 -11.4140     57.3092     89.0801   6.9068186080e+01   5.2754126762e+01    0.3114197    0.2401584 -36.80 0.0003976497    1.329    0.247
        63 -11.0776     70.9513     87.9987   6.3505132491e+01   5.0672693338e+01     0.378442    0.3346444  -7.17  0.001680025    1.177    0.150
        64 -12.8421     67.0231     82.3903   6.3358264972e+01   5.2544388301e+01    0.7238327     0.556729  49.06  0.001785165    1.369    0.270
        65  -9.8910     27.4933     96.4543   8.3764411182e+01   5.4967784750e+01    0.1461228    0.1297333 -19.45 0.0002269454    1.031    0.030
        66 -10.7403     89.4462     93.8523   5.8766282091e+01   4.5971191268e+01     0.255286    0.1981736  38.17  4.76453e-06    1.230    0.187
        67 -10.0298    228.7247     91.9936   3.1312783426e+01   1.9509293360e+01    0.1822418    0.1436993  47.67  0.001284827    1.722    0.419
        68 -11.6167     96.4508     90.9453   5.5783378343e+01   4.5178996908e+01    0.5481283    0.3722718  60.30  0.002528687    1.701    0.412
        69 -11.5381     79.7677     90.8567   6.1165690141e+01   4.8451550200e+01    0.2562437    0.2334875  12.32 0.0003618209    1.101    0.092
        70 -10.0457    172.6528     91.1486   3.8618921734e+01   2.9480817758e+01    0.2148735    0.1665906  77.88  0.000544183    1.354    0.262
        71 -11.8525    223.4862     88.5358   3.1266219615e+01   2.0857544498e+01    0.2795924    0.2511404 -61.23  0.002124278    1.190    0.160
        72  -9.9934    167.8126     90.0623   3.9184253986e+01   3.0612887978e+01    0.2099059    0.1633365 -74.16 0.0007152137    1.307    0.235
        73  -9.2287     86.2633     90.3423   5.8835055350e+01   4.7318360759e+01    0.1464034    0.1146923  -8.53 0.0006974877    1.597    0.374
        74 -14.0362     31.6280     66.8685   7.4045894116e+01   6.1187655698e+01     1.551252    0.9675593  50.67  0.007255074    2.217    0.549
        75 -12.8753     10.5550     81.9981   8.8582469624e+01   5.9932232328e+01    0.6936027    0.3211332 -52.19  0.001521811    1.890    0.471
        76 -11.5241    113.1003    246.7224   8.1055765337e+01   6.5282961604e+00    0.4217141    0.2424519 -28.86  0.001773612    1.989    0.497
        77 -13.8826     45.0232     71.9218   6.9291968969e+01   5.8302695453e+01     1.078163    0.9046453   2.93  0.004320242    1.127    0.112
        78 -10.8543     40.6725     42.8085   6.1322823641e+01   6.4317156346e+01    0.6338509    0.5799084 -70.01   0.00400896    1.545    0.353
        79 -11.8313     24.8834     43.5879   6.9712138207e+01   6.6490239689e+01     1.036544    0.6391709   0.08  0.005295492    1.823    0.451
        80 -12.0499     26.2098     35.9266   6.6017511820e+01   6.7603277756e+01     0.312262    0.2349156   3.11 0.0007453719    1.223    0.182
        81 -11.9002     11.4392     25.2904   7.0381446014e+01   7.1173336727e+01    0.7692553    0.3376878  23.29    0.0028476    2.010    0.502
        82 -12.5580     55.1800     71.6648   6.4822265668e+01   5.6749302292e+01    0.5637085    0.3451627 -55.05  0.000273047    1.951    0.487
        83 -13.6737     37.1673     56.0263   6.7809279477e+01   6.2559965440e+01     1.682302    0.5823464  36.75  0.005917704    2.634    0.620
        84 -12.3680     14.3094     45.0776   7.6278533550e+01   6.7452026003e+01    0.6536994    0.4067742 -46.86  0.001695348    1.654    0.395
        85 -10.7090     36.4310    248.6885   1.0036627549e+02   1.4735460697e+01    0.2371141    0.1285948 -82.96  0.001152001    2.163    0.538
        86 -12.8824     59.2223     61.2411   5.9799154478e+01   5.8014659679e+01      1.07743    0.8391564 -69.66  0.005686668    1.842    0.457
        87 -12.4776     48.7333     53.6404   6.1608716683e+01   6.1175604353e+01    0.4882493    0.3616933  34.42 0.0009343619    1.209    0.173
        88 -12.5700     51.3445     44.8395   5.7283748000e+01   6.2180065955e+01    0.7667206    0.4629007  24.87  0.002294225    1.735    0.424
        89 -10.1069    180.4960    243.4991   6.5506358545e+01  -5.2129049228e-01    0.1249243   0.09966283  -9.72 -8.922567e-05    1.033    0.032
        90  -9.8541     15.8698    238.2049   1.0475471875e+02   1.9040938497e+01    0.1663824     0.148178 -33.21 0.0003769785    1.327    0.246
        91 -11.9618    188.5717     81.8952   3.4277819965e+01   2.7952305999e+01    0.2759812    0.2368935 -45.36 0.0003972735    1.232    0.188
        92 -13.0148    202.7586     80.4752   3.2157579597e+01   2.5583332630e+01    0.6031413    0.2769629  45.52  0.002343192    3.238    0.691
        93 -12.3824    199.3456     76.0963   3.1716342065e+01   2.6857888301e+01    0.4001199    0.2234417  65.61 0.0004467977    1.920    0.479
        94 -11.7529    192.5933     75.9786   3.2537659353e+01   2.8115797477e+01    0.2314249    0.2080948 -82.28 0.0002130899    1.127    0.113
        95 -12.2211    196.2085     86.3610   3.4150952898e+01   2.5844322546e+01    0.3131503    0.2276964 -56.45  0.001372248    1.185    0.156
        96 -12.5066    192.3077     85.1730   3.4435984523e+01   2.6742501293e+01    0.3375047    0.2984952  20.32  0.002053897    1.651    0.394
        97 -11.9398    236.1885     85.9672   2.9485385896e+01   1.9253324353e+01     0.458924    0.2507188  77.46  0.001686357    2.452    0.592
        98 -13.6036     38.7340     79.8091   7.4456944681e+01   5.7516588519e+01     1.220715    0.4432254 -48.04  0.004599237    2.658    0.624
        99 -11.8747    161.5040     84.6749   3.9054641793e+01   3.2785155688e+01    0.7895044     0.330768  49.62   0.00336256    2.526    0.604
       100 -11.9970    168.6811     80.4407   3.6910935760e+01   3.2038113077e+01    0.3711875    0.2962718  89.05  0.000781019    1.244    0.196
       101 -11.2840    167.7188     76.4438   3.6174007133e+01   3.2871916911e+01    0.3320573    0.1991566  56.58  0.001167568    1.697    0.411
       102 -12.5090     49.8565     86.1604   7.1336514042e+01   5.4549755909e+01     0.713932    0.2580387  34.81  0.002588011    2.557    0.609
       103 -13.0704    213.8360     83.8425   3.1488914854e+01   2.3153741246e+01    0.5326006    0.2927846  49.15  0.003003821    2.360    0.576
       104 -11.8458    214.1518     77.0833   3.0192458923e+01   2.4107207708e+01    0.1991671    0.1598862 -63.94 0.0007832032    1.010    0.010
       105 -11.5270    176.0838     85.9248   3.6945375789e+01   2.9685673217e+01    0.3597772     0.206595  49.61  0.001047208    1.945    0.486
       106 -11.6290    147.5132     83.4484   4.1326167861e+01   3.5873819703e+01    0.6151279    0.4073197 -54.59    0.0031903    1.517    0.341
       107 -11.5609    249.6450     81.8564   2.7533692960e+01   1.7848275489e+01    0.2916373    0.2412015 -78.55 0.0006587972    1.239    0.193
       108 -12.4909    249.9104     75.3864   2.6450547014e+01   1.8704845523e+01    0.5405174    0.1496393 -40.94  0.000251264    3.063    0.674
       109 -10.0947    220.1871    123.5878   3.8017326481e+01   1.5788975713e+01     0.348093     0.141922 -39.72  0.001641735    2.212    0.548
       110 -11.7268     64.1206     47.2572   5.3062383783e+01   5.9426860897e+01    0.6181712    0.4430349  68.63  0.002065193    1.931    0.482
       111 -10.1380    152.9460    124.0692   4.9549056058e+01   2.7151172153e+01    0.2037902    0.1904869 -60.08            0    1.032    0.031
       112 -11.9264     50.4629     35.1772   5.3955131934e+01   6.3781388360e+01     0.818079    0.4127628  37.47     0.002971    1.730    0.422
       113 -12.1310     49.9211     28.1264   5.1347765822e+01   6.4835891668e+01    0.9362291    0.2620525  44.07  0.002360535    2.945    0.660
       114 -10.0070    141.0714    119.7265   5.1203899212e+01   3.0306966458e+01    0.1985177    0.1832083  46.95 0.0004269192    1.116    0.104
       115 -10.1255     57.6788    119.9046   7.6560414214e+01   4.5353359761e+01    0.2526551    0.1777885 -37.82  0.000796135    1.460    0.315
       116  -9.3006     72.9857    119.0143   7.0769782714e+01   4.3208121918e+01    0.1821491    0.1720385  15.68 0.0009592523    1.025    0.024
       117  -9.6707    167.0502    117.7656   4.5350474910e+01   2.5750236366e+01    0.1650922    0.1144233  51.18 0.0003959947    1.552    0.355
       118 -10.2612    204.1863    116.1430   3.8861055678e+01   1.9546762391e+01    0.2741506    0.1599697  71.85  0.001345438    2.641    0.621
       119 -10.5461     88.0159    114.4842   6.4574391169e+01   4.1679819223e+01    0.2310806    0.1485659  34.16 0.0003659126    1.530    0.346
       120 -10.2337    181.1757    115.1385   4.2267897027e+01   2.3664426903e+01    0.1863782    0.1467934 -69.88  0.001076749    1.329    0.248
       121  -9.9628    143.0584    112.9929   4.9215837207e+01   3.1284414286e+01    0.1714694    0.1660519 -80.86 0.0006036286    1.016    0.016
       122 -13.2001     78.7610     59.3705   5.2017690773e+01   5.4586000844e+01     0.809723    0.4469654  42.06  0.003776682    1.643    0.391
       123 -12.3627     75.2983     42.0430   4.7325208934e+01   5.7943789433e+01    0.4530726    0.3719565 -62.14   0.00141748    1.543    0.352
       124 -12.9808     81.6484     40.4526   4.4802188668e+01   5.6826145183e+01    0.5429812    0.3590294  51.85   0.00141786    1.300    0.231
       125 -13.3939     81.7114     49.7487   4.7911187607e+01   5.5491533473e+01    0.9269658    0.5629916  25.13  0.004214043    2.277    0.561
       126 -12.0140     75.9742     52.0384   5.0528056070e+01   5.6329535270e+01    0.2593025     0.240591 -48.08 0.0003096572    1.244    0.196
       127 -10.3898     83.2955     82.9616   5.7726956312e+01   4.9387433478e+01    0.2538019    0.2018507  35.49  0.001320908    1.190    0.159
       128 -11.6530     27.0150     81.1996   8.0326400415e+01   5.8619078775e+01    0.4485095    0.1913687  26.16  0.001842389    2.194    0.544
       129  -9.1945    241.2904     81.7294   2.8270810094e+01   1.9092540624e+01    0.1070858   0.06574874 -65.74 0.0002135083    1.510    0.338
       130 -12.9092    220.7468     70.1503   2.8227028899e+01   2.3991978423e+01    0.3894422     0.276285 -84.97  0.002400464    1.393    0.282
       131 -12.4642    222.4408     79.7896   2.9798730340e+01   2.2325555818e+01    0.4102109    0.2406492  78.82  0.002460904    2.052    0.513
       132  -9.7700    208.3224     81.3147   3.1652554119e+01   2.4479131921e+01    0.1042908   0.09384845  -6.19 0.0007041087    1.660    0.398
       133 -12.0390    184.6447     79.0353   3.4228558655e+01   2.9142090918e+01    0.3584351    0.1436923 -38.46   0.00156777    2.578    0.612
       134 -10.5842    232.5304     78.6503   2.8576503633e+01   2.0873663754e+01    0.2317299    0.1459312 -85.69  0.001306717    1.826    0.452
       135 -10.9089     55.1949     81.9386   6.7907016957e+01   5.4639341193e+01    0.2387505    0.1946624  27.99 0.0002495145    1.146    0.127
       136 -11.4957    225.9970     76.1449   2.8779478115e+01   2.2273968508e+01    0.2594573    0.1256844 -49.08  0.001195807    1.642    0.391
       137 -10.9857    155.1561     76.4848   3.8267734457e+01   3.5440227772e+01    0.2858076    0.2298952  83.85  0.001002527    1.224    0.183
       138 -10.6396    138.8125    112.1812   4.9985691975e+01   3.2287624854e+01    0.1967523    0.1743595  -4.30 0.0008226528    1.351    0.260
       139  -9.2157    210.9871    112.0000   3.7123604162e+01   1.9145166074e+01      0.17656   0.06992759  52.32 0.0008084473    2.984    0.665
       140 -10.1547    151.0643     73.1650   3.8203438071e+01   3.6831521003e+01    0.2177181    0.1736374 -50.23 0.0005200425    1.247    0.198
       141 -10.5439     97.1938    109.5703   6.0444589779e+01   4.1080214791e+01    0.2120219    0.1436238  27.56 0.0004704543    1.610    0.379
       142 -11.6701    240.8022     47.8182   2.2632858558e+01   2.3702904693e+01    0.1822971    0.1307018 -71.81 0.0002402483    1.124    0.110
       143 -11.6227    235.2790     51.2059   2.3616342107e+01   2.4152172697e+01    0.1832542    0.1750366 -77.66 0.0007010308    1.499    0.333
       144 -12.7501    234.5917     46.3475   2.2847207751e+01   2.4876530415e+01    0.2480117    0.1536461 -68.48 0.0005185757    1.327    0.246
       145 -12.0245    176.8684     70.4578   3.3498272629e+01   3.1971386062e+01    0.5513341    0.2864269 -64.50 0.0002686994    2.315    0.568
       146 -11.6530    210.4062     46.6899   2.4903145640e+01   2.8947249745e+01     0.720572    0.3134069 -80.63  0.003136077    3.724    0.731
       147 -11.8911    195.8104     43.3534   2.5642481071e+01   3.2055838226e+01    0.4855783    0.3929791 -60.51   0.00244813    1.150    0.131
       148 -13.7546    217.8519     57.3618   2.6183125162e+01   2.6243542648e+01    0.8192438     0.779395 -66.16   0.00342977    1.403    0.287
       149 -10.6885    195.6161    107.2570   3.8387393812e+01   2.2510002202e+01    0.3397336    0.1821592 -58.28  0.001673779    1.958    0.489
       150 -12.7846    196.1284     49.1426   2.6752820396e+01   3.1249435047e+01    0.7223232    0.4584118  65.56  0.003798033    1.615    0.381
       151 -11.1746    186.9175     45.6181   2.7016562770e+01   3.3473018965e+01    0.3359197    0.2309625  67.92   0.00041612    1.446    0.308
       152 -11.6134    161.4789    106.3238   4.3919358015e+01   2.8959554465e+01    0.3397837     0.218835 -65.01  0.001643906    1.810    0.448
       153 -11.7791    203.2826     39.8699   2.4263258203e+01   3.1097886554e+01     1.005465    0.4204491 -80.01  0.004181931    3.976    0.748
       154 -13.7526    201.8193     69.1592   3.0064053676e+01   2.7432431313e+01    0.8967911    0.4325903  69.30  0.004728185    2.293    0.564
       155 -13.3867    203.8592     61.0728   2.8270978660e+01   2.8209004293e+01    0.7730361    0.4197413 -79.88   0.00286121    2.261    0.558
       156 -11.5818    209.6561     58.5694   2.7196591133e+01   2.7512754350e+01    0.2367913     0.167638 -71.92 0.0002997119    1.219    0.180
       157 -11.9514    200.6646     31.4756   2.2893203824e+01   3.2596137860e+01    0.5516846    0.3258811 -89.72  0.003554828    1.555    0.357
       158 -11.1622    198.6018     26.1461   2.2047733563e+01   3.3598610263e+01    0.2897008    0.1884935 -85.87  0.001306379    1.308    0.236
       159 -11.4478    186.8916     37.4939   2.5358062177e+01   3.4500477633e+01    0.4204886     0.292383 -80.38  0.002345812    1.245    0.197
       160 -10.2371    210.7393    105.5715   3.5949015399e+01   2.0246674299e+01    0.2190822    0.1836738  53.84  0.000992883    1.435    0.303
       161 -11.9672    166.2997     65.7639   3.3995973289e+01   3.4805392001e+01     0.603967    0.4805563  67.02  0.003785017    1.239    0.193
       162 -11.9927    228.7035     50.7422   2.4061096390e+01   2.5282203056e+01    0.5267779    0.3656716 -36.63  0.001953744    1.675    0.403
       163 -10.8959    183.6367     68.9133   3.2247766369e+01   3.0878102644e+01    0.2333521    0.1693385  60.43 0.0005277802    1.464    0.317
       164 -11.5584    182.5577     62.5498   3.1050784150e+01   3.2017406643e+01    0.4981109    0.2286867 -60.86  0.001693242    2.518    0.603
       165 -12.0766    242.0696     62.9129   2.5041749837e+01   2.1560334463e+01    0.5044382    0.2753475 -64.67  0.003294739    1.635    0.388
       166 -10.6312    248.7302     60.9952   2.4199254929e+01   2.0803062041e+01    0.2531646    0.1567073 -81.80   0.00166977    1.636    0.389
       167 -11.4506    248.3193     56.1877   2.3449976248e+01   2.1486278557e+01    0.2531771     0.237699  77.74  0.002220022    1.564    0.361
       168 -11.7210      3.6777     48.7758   8.3866338455e+01   6.7682317432e+01    0.6426952    0.3511256  40.14  0.003182511    2.342    0.573
       169 -12.8531      5.2453     55.6210   8.4922390705e+01   6.6172593156e+01    0.6963761    0.4035119 -29.77 0.0008853163    1.578    0.366
       170 -11.0160      9.5147     55.5046   8.2419134068e+01   6.5859413517e+01    0.2749192    0.2160302  -8.86 0.0009524603    1.087    0.080
       171 -11.9124    127.0956     58.8957   3.9163467320e+01   4.4226072482e+01    0.4770734    0.2549322  42.54  0.002165557    2.186    0.543
       172  -9.4822    161.7099     59.0768   3.3157377231e+01   3.6734627256e+01    0.2762825     0.131176 -56.44  0.001134062    2.288    0.563
       173 -11.3245    161.8217     54.8031   3.2157785540e+01   3.7316833164e+01    0.4570081    0.2871324 -63.90  0.001529832    1.616    0.381
       174 -10.1648    108.3253     55.2888   4.2329204757e+01   4.8911300168e+01    0.3637024    0.1740662 -49.85    0.0015696    2.467    0.595
       175 -11.5129    173.3599     54.0615   3.0413181596e+01   3.5043513715e+01    0.3368213    0.3005985 -88.68  0.001555713    1.129    0.114
       176 -11.0391    145.5806     53.0993   3.4259837953e+01   4.1015480602e+01    0.4262724    0.2618925  32.59  0.001915763    2.829    0.647
       177 -10.9301    100.0111     53.6783   4.3937932380e+01   5.0977352959e+01     0.552597    0.2544494  52.00  0.002426769    1.916    0.478
       178 -11.0271     99.0883     48.0034   4.2434728368e+01   5.2002941926e+01    0.3698632    0.2642421  22.16  0.001719202    1.912    0.477
       179  -9.7927     69.8624     54.7262   5.3552852669e+01   5.7125981503e+01    0.2338617    0.1810566 -80.40  0.001204199    1.965    0.491
       180 -10.4944    207.9543     53.2489   2.6361739918e+01   2.8531760561e+01    0.2797747      0.17356  87.91  0.001768889    1.618    0.382
       181 -10.7656    137.4292     52.7886   3.5581421901e+01   4.2836691035e+01     0.355434    0.2173267  79.25 0.0005720749    1.790    0.441
       182 -10.5947    133.1852     53.4114   3.6517393921e+01   4.3681950501e+01      0.25645    0.2198544 -64.61  0.001568488    1.176    0.150
       183 -11.3632     90.5143     51.1369   4.5738259575e+01   5.3414897994e+01    0.2326052     0.191851  51.03 0.0003089806    1.068    0.064
       184  -9.3304    245.2946     50.2579   2.2707431925e+01   2.2699054810e+01   0.08173146    0.0759936 -59.89 0.0001636036    1.497    0.332
       185 -11.3688    248.2811     46.9350   2.1959383153e+01   2.2656271220e+01    0.2784076    0.1629217 -68.73  0.001132145    1.428    0.300
       186 -11.3145    247.4790     43.4946   2.1461285221e+01   2.3200679481e+01    0.3184271    0.1919038 -75.02  0.001738397    1.453    0.312
       187 -10.9456    163.7329     47.9701   3.0326921841e+01   3.7848275993e+01    0.5050798    0.1871738  65.60  0.002187939    2.575    0.612
       188 -12.0824    160.8062     38.0670   2.8444407452e+01   3.9731466496e+01    0.6702657    0.4249828  84.56  0.003932826    1.485    0.326
       189 -12.1492    172.9939     45.1575   2.8514903247e+01   3.6307517861e+01    0.5899308    0.5400596  81.34  0.003376628    1.239    0.193
       190 -10.6555    174.1516     39.7977   2.7213995720e+01   3.6753911976e+01    0.1951736    0.1774077  77.34 0.0006654825    1.272    0.214
       191 -11.3494    177.5960     38.2425   2.6493238625e+01   3.6250680813e+01    0.2976636    0.2659987  44.89  0.001484876    1.567    0.362
       192  -9.4293    118.4815     48.5310   3.8096030793e+01   4.7626603046e+01    0.1323851    0.1163163  66.26 0.0001536444    1.040    0.038
       193  -9.9826    150.3373     45.8899   3.1743124462e+01   4.0965917203e+01      0.22382    0.1522162 -34.61  0.001285605    1.712    0.416
       194 -11.1551    148.4792     39.6436   3.0497792655e+01   4.2169577208e+01    0.4904408     0.326494 -47.61  0.002911441    1.523    0.343
       195 -10.9329    129.0590     45.9700   3.5308913014e+01   4.5619322937e+01    0.3699463    0.2346723  58.79  0.001135114    1.416    0.294
       196 -10.1444    125.3085     43.6852   3.5389968273e+01   4.6756050544e+01    0.2321147    0.1619919 -36.66 0.0006889874    1.635    0.389
       197  -9.2620    121.5472     45.4856   3.6616316946e+01   4.7356654480e+01    0.1314389    0.1137769  78.23   0.00011069    1.036    0.035
       198 -10.0143    105.5709     43.5527   3.9490891895e+01   5.1179666464e+01    0.2406864    0.1963891 -35.20 0.0008622941    1.425    0.298
       199 -10.8863    215.5602     43.2653   2.3823900122e+01   2.8468456402e+01    0.2497291     0.200903 -66.03 0.0009034068    1.114    0.102
       200 -10.7073    183.8601    104.0866   3.9549941139e+01   2.5146070687e+01    0.3936479    0.2053393 -50.07  0.001933586    1.745    0.427
       201  -9.9697     15.3281    106.3058   9.1141327345e+01   5.3589057477e+01    0.1562702   0.09350153 -32.60 0.0004365647    1.653    0.395
       202 -11.1586    144.9486    102.9252   4.6467637673e+01   3.2873182963e+01    0.3627617    0.2904999   6.79   0.00186733    1.781    0.439
       203 -12.5731    117.0494     94.3127   5.0899396844e+01   4.0280692726e+01    0.3590871    0.2894697 -58.83  0.001056623    1.311    0.237
       204 -12.3346    223.9065     41.8804   2.2898511101e+01   2.7201355296e+01    0.5645624    0.2938261  55.87  0.002234614    2.521    0.603
       205 -13.3452    220.5793     37.8536   2.2448351965e+01   2.8262838207e+01    0.3462727    0.2697321  75.29  0.002513422    1.421    0.296
       206 -10.6466    109.4852    103.0516   5.5182330466e+01   4.0064849727e+01    0.2248142    0.1465845 -47.01 0.0005718835    1.574    0.365
       207 -10.4680    235.5898    102.3709   3.2383807047e+01   1.6895685280e+01    0.2297167     0.133039  60.91  0.000981537    2.136    0.532
       208 -11.0450    133.9098     40.5850   3.3020804088e+01   4.5243747522e+01    0.5727493    0.3591417  72.31  0.003020805    1.462    0.316
       209 -10.2377     94.0000     41.9751   4.1853568842e+01   5.3948676826e+01    0.3501624    0.2399965   3.41  0.001720056    2.392    0.582
       210 -10.1157     90.9654     38.9855   4.1685934101e+01   5.5007504828e+01    0.2570123    0.1726675 -81.59  0.001055966    2.263    0.558
       211 -11.1365    241.2025     39.6441   2.1260162632e+01   2.4643169341e+01    0.2230572    0.1282545 -41.60 0.0005680952    1.646    0.392
       212 -10.6818    142.5253     46.2926   3.3061237975e+01   4.2607723297e+01    0.2856723    0.1965365  42.99  0.001338832    1.782    0.439
       213 -10.2743     99.9343     40.6838   3.9949419655e+01   5.2810399015e+01    0.3179444    0.1968154  66.36  0.001639427    1.561    0.359
       214  -9.5321    239.9008     30.6711   1.9880900437e+01   2.5909383844e+01    0.3151355    0.1996349  82.99  0.002414713    1.533    0.348
       215  -9.5441    238.6344     35.6896   2.0783698928e+01   2.5523951158e+01    0.1291165   0.09388322 -36.67 0.0006302468    1.705    0.414
       216 -10.2707    236.5211     39.0732   2.1487365457e+01   2.5458508769e+01    0.1816721     0.139918 -69.20  0.001216786    1.100    0.091
       217 -10.3564    233.4751     36.4368   2.1258486981e+01   2.6269205347e+01     0.206818   0.09679496 -52.11 0.0007418819    1.618    0.382
       218 -10.3261    249.8182     38.1300   2.0454251547e+01   2.3488928770e+01      0.15925    0.1122536 -77.16 0.0006496073    1.198    0.165
       219  -9.3234    123.4459     34.9515   3.3326711662e+01   4.8270560376e+01    0.4130987    0.2249684 -62.23  0.001977962    2.345    0.574
       220 -11.2122    110.7996     35.1424   3.5823951961e+01   5.1082639646e+01    0.3781619    0.2532535  26.16 0.0007811009    2.221    0.550
       221 -10.0036    131.9398     34.0625   3.1627202834e+01   4.6483037892e+01    0.1898308    0.1410387 -82.10  0.000510492    1.328    0.247
       222 -11.6266     92.3473     33.3152   3.9470815539e+01   5.5416769175e+01    0.3511146     0.245885  48.82 0.0008777314    1.265    0.210
       223 -10.4325     75.0760     33.5703   4.4398114436e+01   5.9117859303e+01    0.2869646    0.1852685  49.71 0.0008239615    1.300    0.231
       224 -10.7737    247.1544     32.7454   1.9765759464e+01   2.4530208566e+01     0.151823   0.09237864 -60.07 0.0002730315    1.174    0.148
       225 -10.5886    169.1500     32.8795   2.6274217854e+01   3.8619976078e+01    0.2803394    0.1551887  58.71  0.001598287    1.833    0.455
       226 -10.6714    162.7619     29.9553   2.6354100663e+01   4.0290476530e+01     0.306245     0.163308 -61.23  0.001349044    1.881    0.468
       227 -11.3673    150.6906     22.2401   2.5994441714e+01   4.3715650175e+01    0.2668219    0.2341722  63.01  0.001057245    1.309    0.236
       228 -10.9255    149.5194     28.2543   2.7586815429e+01   4.3303401082e+01    0.2248574    0.2080024  57.66 0.0008989299    1.337    0.252
       229 -11.3904    147.1632     25.5820   2.7244160862e+01   4.4112372518e+01     0.261068    0.2142862  70.70 0.0007674617    1.176    0.149
       230  -9.9082    132.8443     27.0769   2.9637713932e+01   4.7087716751e+01    0.1852309    0.1497708  83.43 0.0003815606    1.041    0.040
       231 -10.0531    139.4902     28.0129   2.8897418468e+01   4.5515675672e+01     0.326742    0.1616324 -63.52  0.001545584    2.493    0.599
       232 -10.1145    135.7785     24.9874   2.8655970602e+01   4.6668932343e+01    0.1961773    0.1420079 -77.15  0.001214076    1.337    0.252
       233 -11.6243     86.3815     28.3629   3.9346802507e+01   5.7314082598e+01    0.2530052    0.2055334  68.85 0.0006318107    1.168    0.144
       234  -9.5852     28.5122     28.9839   6.1880846608e+01   6.8343751429e+01    0.2192523    0.1487204  44.62  0.001244877    1.632    0.387
       235 -10.3761    233.6372     25.3340   1.9396792197e+01   2.7532643589e+01     0.289557    0.2470736  -7.65  0.002240604    2.297    0.565
       236 -10.0443    123.6091     27.1207   3.1127889828e+01   4.9140614313e+01    0.2894326    0.1754768 -50.37  0.001618177    1.786    0.440
       237  -9.5655    113.6948     28.2738   3.3226626762e+01   5.1235806871e+01    0.2285034    0.1489376  58.05  0.001306703    1.324    0.245
       238 -10.5161    176.2312     24.0358   2.3623514221e+01   3.8191966493e+01    0.2561166    0.1924036 -37.33  0.001684483    1.574    0.365
       239 -10.0677    179.8103     21.0579   2.2663667599e+01   3.7802439945e+01    0.2077691    0.1661308 -33.74 0.0008487296    1.608    0.378
       240  -9.5774    167.3842     26.1918   2.4994629695e+01   3.9757738411e+01    0.1489501   0.09101204 -55.19 0.0001018658    1.515    0.340
       241  -9.9702    104.7490     29.6291   3.5427708517e+01   5.3090404687e+01    0.2774765     0.156424 -47.71  0.001439694    2.049    0.512
       242 -10.1300    118.2795     22.8632   3.0836812359e+01   5.0796629381e+01    0.3551335      0.22521  -6.28   0.00182744    2.764    0.638
       243 -10.2243    165.0220    101.5037   4.2197986781e+01   2.9153645085e+01    0.2089097    0.1708869 -53.48 0.0005455801    1.138    0.121
       244  -9.8547    102.6404     23.4763   3.3964033104e+01   5.4243767009e+01    0.1223708    0.1052956  71.77 0.0001236616    1.048    0.046
       245 -10.0839     98.1883     21.8618   3.4391173413e+01   5.5411166052e+01    0.2321857    0.2025418  51.53  0.001551201    1.154    0.133
       246 -11.2071     95.8601    101.4242   5.8766301455e+01   4.3116897668e+01    0.3271558    0.2345595  -8.43   0.00140347    2.032    0.508
       247 -12.6414     85.7440     98.9325   6.1343910681e+01   4.5600020925e+01    0.6674309    0.3653965  36.19  0.002794724    1.784    0.439
       248 -10.2569    210.9178     99.7107   3.4821885424e+01   2.1167835633e+01     0.157695    0.1345779 -70.09 -0.000275831    1.102    0.092
       249 -10.4818    206.0033     19.0200   2.0143252241e+01   3.3022699183e+01    0.2322874    0.1126702 -63.79  0.001268354    1.770    0.435
       250 -10.3083    163.4908     20.9015   2.4234789799e+01   4.1148454981e+01    0.1618267    0.1262168 -89.88 0.0003174439    1.040    0.039
       251 -11.3347    130.3387     19.4252   2.7985649372e+01   4.8462416604e+01    0.2429276    0.1853731  73.20 0.0005198742    1.093    0.085
       252  -9.4502    185.1327     18.8730   2.1748035663e+01   3.6987615310e+01    0.1371438    0.1090027  76.24 0.0003709267    1.292    0.226
       253  -9.7732    103.0984     19.3253   3.2577963101e+01   5.4572128081e+01    0.1747841    0.1332025  67.98 0.0006943885    1.082    0.075
       254  -9.6444    102.7676     15.6160   3.1486713111e+01   5.5012562128e+01    0.1791964    0.1438442  55.38 0.0008364642    1.167    0.143
       255  -9.7304     20.1617     19.3627   6.2293863248e+01   7.0932434155e+01    0.1656477   0.09588359  38.30 0.0008154038    1.614    0.380
       256  -9.5377     13.2134     18.4855   6.6174436695e+01   7.1986426492e+01    0.2875209    0.1638602  32.85 0.0008834037    1.566    0.361
       257 -11.4467    155.8743    105.3161   4.4778395068e+01   3.0242349785e+01     0.246181    0.1805707 -57.30 0.0005846313    1.344    0.256
       258 -10.6939    170.3696     97.6994   4.0423181961e+01   2.8794272768e+01    0.2988732    0.2323052 -58.25  0.001445174    1.198    0.165
       259 -10.4841    112.1146     16.9226   3.0178643397e+01   5.2787021305e+01    0.2036329    0.1497653  60.77 0.0003915309    1.179    0.152
       260  -9.8998    159.1569     99.1828   4.2763590271e+01   3.0723971808e+01    0.1827286     0.149491 -81.77 0.0002625717    1.292    0.226
       261  -9.5807     93.8754     15.7023   3.3314759982e+01   5.6993710506e+01    0.2378686     0.112578  53.74  0.001202465    1.728    0.421
       262 -12.2037    153.9269     95.9619   4.3026948441e+01   3.2352288733e+01    0.6676025    0.3519432  50.10  0.001923027    1.947    0.486
       263 -12.2194    106.3605     97.1483   5.4536449916e+01   4.1914800622e+01    0.3975909    0.3161267  -9.90 0.0007871561    1.631    0.387
       264 -12.4155    107.8173     92.2187   5.2826097857e+01   4.2605064081e+01    0.5690987    0.2645795  39.88  0.002220083    2.219    0.549
       265  -9.2816    244.7616     97.9857   3.0674038631e+01   1.6227766550e+01    0.1425652   0.07213036 -45.24 0.0004837851    1.525    0.344
       266 -10.7195    225.1150     97.3214   3.2664809596e+01   1.9259695743e+01    0.2380752    0.1166603 -55.84  0.001123439    1.876    0.467
       267 -11.2562    199.9395     96.2967   3.5613905129e+01   2.3587095419e+01    0.3214982     0.191519 -60.28 0.0007576533    1.661    0.398
       268 -10.3635     51.9193     12.6981   4.4056575905e+01   6.6232991485e+01    0.1712682    0.1230749  47.24 0.0003433319    1.120    0.107
       269 -11.1163    140.8015     96.2099   4.5762348868e+01   3.4985034307e+01    0.3897663    0.2972609 -70.88  0.002041792    1.459    0.315
       270 -12.8445    136.8158     81.2432   4.2938710185e+01   3.8509865907e+01    0.6209316    0.4547492 -52.69 0.0007821848    1.378    0.274
       271 -14.0867    126.5565     91.1209   4.7723262592e+01   3.8903279931e+01     1.206032    0.9202144  75.26  0.002330542    1.492    0.330
       272 -11.8548    134.1921     71.0282   4.0893840989e+01   4.0783723504e+01     1.149846    0.9902562 -45.32  0.006856158    1.240    0.193
       273 -11.8376    145.0398     68.7711   3.8225698180e+01   3.8807231094e+01    0.7597972    0.5718575 -86.72  0.004271655    1.410    0.291
       274 -11.4025    141.0044     61.8931   3.7252576675e+01   4.0733023262e+01    0.6167647    0.4407977  64.13 0.0003492589    1.302    0.232
       275 -13.2508    124.8740     82.9796   4.6028298788e+01   4.0751450726e+01     1.158957     0.746096  17.45  0.004592834    3.122    0.680
       276 -13.2043    114.1003     81.2372   4.8201605348e+01   4.3364526847e+01      1.21605     0.771599  27.19  0.004390031    2.248    0.555
       277 -11.8413    124.1106     69.8127   4.2728527219e+01   4.3172289787e+01    0.3564435    0.2749068 -82.94 0.0002483829    1.480    0.324
       278 -13.9770    116.8866     61.8747   4.2194512217e+01   4.6021659679e+01        1.013     0.681927  39.58  0.005189996    1.648    0.393
       279 -11.9253    154.4811     63.5808   3.5336972736e+01   3.7592591482e+01    0.5445826    0.4894476 -38.81  0.001828994    1.302    0.232
       280 -11.5667    151.8255     59.8619   3.4883000930e+01   3.8705901286e+01    0.7712498    0.3944466  50.69  0.003718097    2.058    0.514
       281 -11.8029     12.1312     97.0848   9.0884501456e+01   5.6158356087e+01    0.3940919    0.2569212 -46.20  0.001990756    1.378    0.274
       282 -11.5783     73.1028     96.2744   6.5007328817e+01   4.8499574172e+01    0.3291038    0.2747313  39.80  0.001316603    1.168    0.144
       283  -9.0171    249.6826     96.7162   2.9977871988e+01   1.5721222528e+01   0.09441161   0.07804766 -27.24 0.0006994543    1.584    0.369
       284 -11.3768    232.9930     94.6625   3.1323578084e+01   1.8452163145e+01    0.2179147    0.1304163 -44.97 0.0006895335    1.364    0.267
       285 -12.4944     48.7000     95.0333   7.4194525925e+01   5.2702705425e+01    0.4918437    0.2859978  31.07 0.0008781946    1.642    0.391
       286 -12.4900     86.1538     74.0772   5.4177315176e+01   5.0515111110e+01    0.6129777    0.4695631  60.87  0.003178527    1.418    0.295
       287 -12.5857     56.4898     94.9272   7.0979576180e+01   5.1569175866e+01     0.441092    0.3320841  57.39 0.0006397018    1.648    0.393
       288 -12.5091     73.3140     73.5339   5.8376942101e+01   5.3141068329e+01      1.12702    0.5024045  45.35  0.004511852    2.140    0.533
