#   1 NUMBER                 Running object number                                     
#   2 MAG_AUTO               Kron-like elliptical aperture magnitude                    [mag]
#   3 X_IMAGE                Object position along x                                    [pixel]
#   4 Y_IMAGE                Object position along y                                    [pixel]
#   5 X_WORLD                Barycenter position along world x axis                     [deg]
#   6 Y_WORLD                Barycenter position along world y axis                     [deg]
#   7 A_WORLD                Profile RMS along major axis (world units)                 [deg]
#   8 B_WORLD                Profile RMS along minor axis (world units)                 [deg]
#   9 THETA_WORLD            Position angle (CCW/world-x)                               [deg]
#  10 FWHM_WORLD             FWHM assuming a gaussian core                              [deg]
#  11 ELONGATION             A_IMAGE/B_IMAGE                                           
#  12 ELLIPTICITY            1 - B_IMAGE/A_IMAGE                                       
         1 -12.9734    195.6083     33.4659   6.4322912784e+01   3.2636108469e+01     1.027881    0.7391816  48.50  0.005797083    1.586    0.369
         2 -14.0197    208.4058     17.7263   5.9264077999e+01   3.1587323468e+01     1.331753     0.992318  37.71  0.007910205    1.935    0.483
         3 -11.1130      2.3188      6.1671   1.0850132667e+02   7.1726290844e+01    0.4030629    0.1124898 -35.28  0.002007305    2.955    0.662
         4 -12.8127     55.8829    238.9646   1.3806429999e+02   1.7396203185e+01    0.4644931    0.3268727  59.32  0.001612719    1.190    0.159
         5 -11.0397    248.6132    248.7875   1.0132080063e+02  -1.4305129849e+01    0.4027043    0.2220116  -8.52  0.002130456    2.171    0.539
         6 -13.0238    139.0536    248.2752   1.2252064817e+02   2.7376693531e+00    0.8422298    0.5099506  41.47  0.004483378    1.420    0.296
         7 -14.8903     96.9173    246.4934   1.3079462868e+02   9.9063135871e+00     4.394245     2.943245  28.88  0.008751587    1.802    0.445
         8 -14.8726     15.0540    242.7171   1.4579298579e+02   2.1555874099e+01     2.782611     1.453738  49.70    0.0173765    1.640    0.390
         9 -11.9720    151.7971    228.5841   1.1696781197e+02   4.2450445742e+00    0.4946575    0.2435692  43.70  0.002206355    1.844    0.458
        10 -11.4135     42.3196    231.7942   1.4003155298e+02   2.0648254075e+01    0.2175967    0.1775458  68.43 0.0006668778    1.115    0.103
        11 -12.7475     36.0320    224.1774   1.4059380673e+02   2.3042246817e+01    0.3586927    0.3268757  82.43 0.0008165693    1.283    0.221
        12 -11.4612     62.6323    249.7857   1.3776088546e+02   1.4288007704e+01    0.4157369    0.1686044  54.12  0.001984451    2.180    0.541
        13  -9.9217    225.9891    201.2787   9.6871951923e+01  -3.6555701891e+00    0.2773332      0.18342 -54.32 0.0009594726    1.940    0.484
        14 -10.0944    192.1883    193.2121   1.0202457521e+02   3.8186431615e+00    0.3740969    0.1724727 -60.83  0.001085068    4.906    0.796
        15 -11.5760     62.5223    191.9890   1.3156341770e+02   2.6995602320e+01    0.3751003    0.2857808 -38.43  0.001172394    1.740    0.425
        16 -11.6836     68.2911    184.9519   1.2926324231e+02   2.7879729822e+01    0.3342718    0.2489983 -49.06 0.0004499299    1.490    0.329
        17 -15.8700      8.7176    206.3028   1.4447112774e+02   2.9881402230e+01     10.57359     1.376555 -73.10   0.02633868    5.747    0.826
        18 -10.8811     78.0428    173.3785   1.2513824140e+02   2.9274075875e+01    0.2521192    0.2222707 -68.43 0.0003644821    1.088    0.081
        19 -13.1813     65.0755    170.5257   1.2794076971e+02   3.1846000581e+01     0.551989    0.2846923 -44.98  0.001543232    2.278    0.561
        20 -12.1184     85.7532    165.1852   1.2179784497e+02   3.0097776998e+01     1.019667    0.5992744  59.67  0.004382595    2.039    0.510
        21 -12.8979     67.5372    144.1647   1.2285764449e+02   3.8015506826e+01     1.007562      0.64711  89.34  0.002682304    2.065    0.516
        22 -12.4755     57.3839    131.2691   1.2329223331e+02   4.2512415158e+01     1.078307    0.4486083 -74.16  0.003306609    4.317    0.768
        23  -9.2763    101.2597    145.5703   1.1388581682e+02   3.2321781011e+01    0.2923385     0.184363 -32.46 0.0007832128    2.060    0.515
        24 -12.0346     86.8790    148.2519   1.1833433232e+02   3.4100042624e+01    0.3040524    0.2531692 -45.91 0.0004639017    1.213    0.176
        25 -14.6519     51.6986    207.5709   1.3580631316e+02   2.4795484117e+01     3.396821     1.118257  56.39   0.01177923    3.952    0.747
        26 -14.1983     43.5258    215.0699   1.3827681843e+02   2.4133321141e+01     1.046339    0.7402649  73.74  0.003540043    1.219    0.180
        27  -9.4685    109.7311    135.3187   1.0932436153e+02   3.3251175843e+01    0.3028818    0.2171165 -16.32 0.0009617831    2.024    0.506
        28 -10.4870     97.1102    132.2464   1.1210908334e+02   3.6280398728e+01    0.2783163     0.227766 -27.94  0.000630292    1.374    0.272
        29  -9.2890    106.9644    122.6563   1.0708780320e+02   3.6757685678e+01     0.201759    0.1889154  42.03  0.000359549    1.108    0.098
        30  -9.8170     98.3827    149.3316   1.1544457528e+02   3.1906602300e+01    0.2869753    0.2708893 -70.59 0.0008267452    1.009    0.009
        31 -10.4414    167.8507    112.8453   8.9244713081e+01   2.5897758937e+01    0.3601312    0.2837652 -82.81 0.0009093715    1.531    0.347
        32  -9.2389    204.2687    111.0032   8.1496734832e+01   1.7974991647e+01    0.3087447    0.1864906  28.83  0.001187838    2.743    0.635
        33  -9.7429     32.9785    109.0286   1.2631253001e+02   5.0435313542e+01    0.1595767    0.1346165 -53.04 0.0004507642    1.009    0.008
        34 -11.0832      1.8169     90.3796   1.3281691448e+02   5.6843799028e+01    0.5659534   0.09463871 -65.51   0.00182524    4.755    0.790
        35 -11.0093      1.9813     80.7310   1.3095222194e+02   5.8875026559e+01     0.367625    0.1389299 -66.28  0.001497885    2.375    0.579
        36  -9.7554      1.5148     62.0349   1.2707680275e+02   6.2656527740e+01    0.1719222   0.08888383 -55.63 0.0004667577    1.532    0.347
        37 -10.6589    229.6315    249.0932   1.0481509831e+02  -1.1768034729e+01    0.2057601    0.1501504  34.45 0.0007116647    1.379    0.275
        38 -11.8921    175.9171    249.8597   1.1531506160e+02  -3.6430176085e+00    0.8585011   0.08491358  38.42  0.001739295   10.131    0.901
