#   1 NUMBER                 Running object number                                     
#   2 MAG_AUTO               Kron-like elliptical aperture magnitude                    [mag]
#   3 X_IMAGE                Object position along x                                    [pixel]
#   4 Y_IMAGE                Object position along y                                    [pixel]
#   5 X_WORLD                Barycenter position along world x axis                     [deg]
#   6 Y_WORLD                Barycenter position along world y axis                     [deg]
#   7 A_WORLD                Profile RMS along major axis (world units)                 [deg]
#   8 B_WORLD                Profile RMS along minor axis (world units)                 [deg]
#   9 THETA_WORLD            Position angle (CCW/world-x)                               [deg]
#  10 FWHM_WORLD             FWHM assuming a gaussian core                              [deg]
#  11 ELONGATION             A_IMAGE/B_IMAGE                                           
#  12 ELLIPTICITY            1 - B_IMAGE/A_IMAGE                                       
         1 -13.8253     65.1115     52.8802   6.6499497625e+01   5.8441727267e+01     3.475461     1.898465  -1.17   0.01266369    3.707    0.730
         2 -14.8647      6.2577     71.0853   9.7290034287e+01   6.1453687532e+01      1.16108    0.7014841 -51.36  0.006687831    1.333    0.250
         3 -14.4830    212.8960     41.1737   3.1179245930e+01   2.8173082089e+01     1.979048    0.7126504  74.56  0.008021058    3.285    0.696
         4 -13.8027    188.9530     25.8758   3.0481494430e+01   3.5194424953e+01     1.210577    0.6250477 -65.30  0.006022064    2.149    0.535
         5 -13.8133    187.6741     12.3776   2.7599866314e+01   3.6946422198e+01     1.133509    0.5542356 -54.15  0.006056183    2.015    0.504
         6 -14.3599    166.7589     29.3250   3.4087804390e+01   3.9775847236e+01     1.025014      0.74892  76.50  0.003927685    1.213    0.176
         7 -13.0396    120.8854     26.6604   4.1148955882e+01   5.0613680713e+01    0.7403212    0.5460725  50.16  0.003834579    1.193    0.162
         8 -14.4782    147.0734     29.4281   3.7108499194e+01   4.4294181072e+01     1.380485    0.7130131  65.10  0.006244621    1.714    0.417
         9 -14.1722    120.8144     37.1036   4.4428089192e+01   4.9421149917e+01     1.248607    0.4644383  48.72  0.005057878    2.373    0.579
        10 -13.6340      3.0727     10.2525   7.8833978288e+01   7.2683266609e+01    0.7256991    0.4757401 -32.18  0.005084326    1.390    0.281
        11 -13.1568      7.9561      2.5709   7.2172602917e+01   7.3237322826e+01    0.5895586    0.3394379  35.74  0.003718605    2.122    0.529
        12 -15.9473     12.8779     20.8927   7.7886202918e+01   7.0275607289e+01     1.834043    0.9372389 -21.76  0.007959969    1.865    0.464
        13 -14.3176     25.0301     13.6311   6.8141489987e+01   6.9935569420e+01    0.7771922    0.3557607  31.76   0.00427379    1.950    0.487
        14 -12.3421    225.6520      3.5122   2.2654752531e+01   2.9987171685e+01     0.331763    0.2145399  63.48  0.002075346    1.704    0.413
        15 -13.5486    216.6006     28.2959   2.8164738024e+01   2.9031623819e+01    0.6464211    0.3308572 -69.88  0.003069162    2.033    0.508
        16 -14.6911    217.4394     13.0098   2.5062673475e+01   3.0615679311e+01     1.188977    0.7805424 -53.82   0.00574972    1.349    0.259
        17 -13.2712     55.3797     27.2149   6.0449571435e+01   6.3805951020e+01    0.6960304    0.3730418  37.93  0.003279084    1.642    0.391
        18 -13.0075    223.5594     20.6731   2.6050271018e+01   2.8525955271e+01    0.3186751    0.2733319  77.68  0.001570364    1.312    0.238
        19 -15.1614     98.7979     11.5612   4.0988772610e+01   5.6988244251e+01     1.532227    0.7362263  60.30  0.007691473    1.793    0.442
        20 -12.9244     85.6530     13.9619   4.5139109988e+01   5.9550492396e+01    0.4386872    0.3495872 -34.87   0.00199126    1.523    0.344
        21 -12.4338     70.0791     16.2107   5.0641693101e+01   6.2428657168e+01    0.3293878    0.3047405  74.61  0.001766784    1.465    0.318
        22 -11.9168     59.2072     15.9298   5.4275273723e+01   6.4458825278e+01    0.3657755    0.2496107  33.86  0.002268629    1.202    0.168
        23 -11.8915     46.7874     13.0053   5.7819813287e+01   6.6877280799e+01    0.2853581    0.2128793  34.81  0.001377973    1.232    0.188
        24 -13.8442     41.7274      4.4481   5.5987365854e+01   6.8559915465e+01    0.6527086    0.4472278  19.64  0.003376242    1.193    0.162
        25 -10.7593    123.4864     11.1323   3.5857129851e+01   5.1549193550e+01    0.1567372    0.1259768 -22.04 0.0006513966    1.503    0.335
        26 -11.5540     74.9511      8.0509   4.5865510461e+01   6.2243816683e+01    0.3189206    0.1674218  -9.04  0.001123645    2.438    0.590
        27 -11.8933    153.3145      8.6089   3.0616984040e+01   4.4985781316e+01    0.2245726      0.18427  61.51 0.0006603979    1.169    0.145
        28 -10.9167     59.2489      7.7877   5.0776050407e+01   6.5252164101e+01    0.2312246    0.1121252  31.72 0.0007984111    1.920    0.479
        29 -12.0567    120.1949      3.6110   3.4133379023e+01   5.2918341917e+01     0.335994    0.1811429  77.17  0.001739626    1.876    0.467
        30 -10.8236     66.9109      3.9126   4.6601333114e+01   6.4158142438e+01    0.1649248    0.1427493  86.06  0.001112902    1.671    0.401
        31 -11.4970    232.7054      1.8943   2.1895365430e+01   2.8789144284e+01     0.269978    0.1307489  75.61  0.001289116    1.828    0.453
        32 -11.0750    169.4990      1.5499   2.6988435266e+01   4.1981558204e+01    0.2554793   0.09545026  71.19  0.001209645    2.187    0.543
        33 -11.3035     81.6135      1.4926   4.1479016889e+01   6.1426551595e+01    0.4373218   0.07513951  56.35  0.001531429    3.818    0.738
        34 -11.6216     61.2884      1.5315   4.7382546406e+01   6.5413684786e+01    0.3663241   0.09452153  52.96   0.00146841    3.173    0.685
        35 -10.3461    178.6619     11.2766   2.8283926177e+01   3.9036719847e+01    0.1251278   0.07683218 -75.10 0.0005378021    1.613    0.380
        36 -12.8215    107.8166    246.5149   9.5296054563e+01   7.0783957683e+00    0.7238938    0.5361939  88.38  0.003998482    1.755    0.430
        37 -13.2872     98.4390    238.9206   9.6483094419e+01   9.9889082786e+00    0.8336764    0.4908419  27.71   0.00410912    1.673    0.402
        38 -14.0026     91.9957    230.7120   9.6957860970e+01   1.2677209764e+01    0.6304439    0.5901582  64.23  0.003912398    1.058    0.054
        39 -12.0338     51.4752    248.5645   1.0786966988e+02   1.4232812677e+01    0.3739993    0.2775232 -79.30  0.002339522    1.373    0.272
        40 -12.1661     60.4638    246.0296   1.0572931674e+02   1.3649295292e+01    0.2858954    0.1861608  14.67  0.001492973    2.075    0.518
        41 -12.5820      2.8137    248.9084   1.1763198146e+02   1.9412897085e+01    0.4813576    0.2850068  84.77   0.00276156    1.452    0.311
        42 -13.4027      9.4682    245.7252   1.1619743281e+02   1.9433278860e+01    0.7237329    0.3890606  63.94  0.003373839    1.586    0.369
        43 -13.4183     73.3353    153.5087   9.0177281071e+01   3.4419920542e+01    0.8076007    0.5472553  20.91  0.003328757    1.672    0.402
        44 -12.8082    208.9201    154.7045   5.6302687615e+01   9.4609830292e+00    0.6500682    0.4062878  31.52  0.003116377    1.892    0.472
        45 -11.5310     86.0031    152.9755   8.6282300335e+01   3.2635909099e+01    0.5043048    0.2159777 -43.88  0.001751399    2.507    0.601
        46 -11.5723    103.3094    149.9227   8.0567868951e+01   3.0517399377e+01    0.4029293    0.2672558 -33.66  0.001706838    1.712    0.416
        47 -11.8627      7.7854    144.5853   1.0865857544e+02   4.3662688999e+01    0.4615561    0.2706408 -28.43  0.002310083    2.102    0.524
        48 -12.5979     60.8123    147.2520   9.2856082064e+01   3.7781449436e+01    0.4871432    0.3333788   3.63  0.002218655    1.892    0.471
        49 -12.2666     45.3003    134.1272   9.5419636410e+01   4.3076135523e+01    0.4428858    0.3201974 -60.42   0.00226713    1.247    0.198
        50 -12.4478    246.1467    134.3186   4.5990016723e+01   6.9947382694e+00    0.3707249    0.2580934 -79.80  0.001936935    2.253    0.556
        51 -14.0436    234.2208    127.4049   4.6368071583e+01   1.0198124381e+01    0.9863319    0.4451745 -56.17  0.003931715    2.809    0.644
        52 -12.9545    222.8954    127.9673   4.8248963810e+01   1.2086810051e+01    0.4069199    0.2781612 -70.94  0.002008992    1.969    0.492
        53 -13.5034     85.0208    114.2743   7.7916167577e+01   4.2510754164e+01     1.332003    0.9643155  31.30  0.006239227    1.420    0.296
        54 -14.5686    105.7170    105.2387   6.9014111828e+01   4.0806725245e+01     2.406496     1.279688 -38.07  0.009499613    1.995    0.499
        55 -13.7034    108.4861    124.4780   7.3178810229e+01   3.5837905728e+01     1.239105    0.7377606  27.38  0.004977256    1.943    0.485
        56 -13.2817    111.6705    116.9922   7.0351179303e+01   3.6977388459e+01    0.6814601    0.3883526  30.73   0.00228431    1.971    0.493
        57 -12.4906     28.2574    122.0828   9.8975536630e+01   4.7848910383e+01    0.3484228    0.2602602 -53.82  0.001920401    1.153    0.133
        58 -12.1369    181.6423    120.9687   5.4138057035e+01   2.1470344951e+01    0.3281906    0.2102938  58.76  0.001207612    1.806    0.446
        59 -11.8747      4.3465    119.7973   1.0666594144e+02   5.0118350787e+01    0.5018038    0.1913314  12.23  0.002072465    3.209    0.688
        60 -11.7749    135.0171    126.0038   6.6155201521e+01   3.0183816840e+01    0.3952613    0.2232845 -48.91  0.001029936    1.761    0.432
        61 -12.6392     42.2125     90.5883   8.7182026520e+01   5.4116032974e+01     0.304118     0.249112 -44.27  0.000361708    1.114    0.103
        62 -12.3681     36.6647     92.9535   8.9927733542e+01   5.4164069041e+01    0.5355181    0.3587959  -6.50  0.001426863    1.666    0.400
        63 -14.5530     16.1078    108.4354   1.0085852374e+02   5.2197779999e+01     1.900176     1.123312 -77.01  0.009420412    1.778    0.437
        64 -14.1373     22.8155     94.9927   9.5770968730e+01   5.4937582066e+01     1.080432    0.8704926   9.72  0.004779763    1.349    0.259
        65 -13.2672      2.2754     97.4699   1.0405495630e+02   5.5656856236e+01    0.7742756    0.2789855 -71.65  0.003117069    2.635    0.621
        66 -12.3925    121.3906    112.1930   6.6321140637e+01   3.6108128579e+01    0.4178129    0.3337725  85.95  0.001287675    1.673    0.402
        67 -11.8876     63.2387    110.9660   8.4469140422e+01   4.6676198029e+01    0.4690256     0.289526  53.54  0.002003737    2.192    0.544
        68 -12.7120    136.1338    132.5810   6.7470064347e+01   2.8448063105e+01    0.5645517    0.2764755  41.50  0.001342511    2.083    0.520
        69 -11.6833    169.6332    107.1458   5.3282265274e+01   2.6785450397e+01    0.4311469     0.175515 -46.50  0.001557378    2.410    0.585
        70 -11.2487     42.3270    107.0830   9.1053046893e+01   5.0214094857e+01    0.3104371    0.1851009   8.08  0.001391438    2.020    0.505
        71 -13.0519     29.6027     89.4691   9.1871374619e+01   5.5646956524e+01     1.020747    0.6314237  74.59  0.004206568    3.349    0.701
        72 -12.5660    135.9618    103.0784   6.0009911742e+01   3.4977927411e+01    0.7498805    0.3293772  48.37  0.001791365    2.314    0.568
        73 -13.3445    121.0307    101.4822   6.3549156514e+01   3.8506053584e+01    0.4681877     0.412753   9.96  0.002406471    1.227    0.185
        74 -12.3019     49.2029     93.6822   8.5284079661e+01   5.2592569106e+01    0.4360658     0.399096  11.53  0.002580242    1.149    0.130
        75 -11.8095     47.0868     99.7062   8.7586745752e+01   5.1445307394e+01    0.4420984    0.3429911  81.45  0.002246561    1.838    0.456
        76 -11.7821     52.2757     97.9202   8.5208870297e+01   5.1232829570e+01    0.4270703    0.2465884 -16.14  0.001751686    2.399    0.583
        77 -11.5122    249.4240     99.2289   3.8697035617e+01   1.2426883501e+01    0.1909869   0.09435487 -50.22  0.000958226    1.710    0.415
        78 -11.9823     60.8363     97.8332   8.2029466152e+01   5.0115698525e+01    0.4148574    0.3203504  59.79  0.002079443    1.736    0.424
        79 -13.3528    136.1452     95.5064   5.7923590396e+01   3.6474727620e+01    0.5572074    0.4647966  37.60  0.002844965    1.222    0.182
        80 -11.3182    163.0392     97.1968   5.2177481532e+01   3.0169277963e+01    0.2508186    0.1758762  85.96  0.001097429    1.994    0.498
        81 -13.2326     95.6555    110.3137   7.3479357859e+01   4.1566858672e+01     1.009502    0.5732714 -55.58  0.004057613    1.907    0.476
        82 -11.7891     35.4968     86.8101   8.8872974837e+01   5.5686468459e+01    0.3011222    0.2723266   2.59   0.00095674    1.159    0.137
        83 -13.3965    188.4510     84.2321   4.4181383084e+01   2.6909405470e+01    0.6836264    0.3572948  42.14  0.002611814    2.436    0.589
        84 -13.1210    237.6314     80.4170   3.6411193871e+01   1.7561787275e+01    0.4129167    0.2571228  83.07  0.002245487    1.955    0.489
        85 -12.0367    158.8364     65.4559   4.4765640711e+01   3.6677299887e+01    0.7691048     0.266234 -47.78  0.002662898    3.276    0.695
        86 -13.4526    164.3703     71.7783   4.5375327578e+01   3.4391593582e+01      1.22186    0.5027157  45.23  0.004569092    2.767    0.639
        87 -13.9558    160.7870     80.9646   4.8461938016e+01   3.3650759924e+01     1.568959    0.8284833  27.26  0.004758365    4.786    0.791
        88 -14.4771    169.5155     77.0047   4.5753173829e+01   3.2351605229e+01     1.523166    0.4548531  53.93  0.005129527    3.233    0.691
        89 -12.8365     28.5295    245.9173   1.1242519050e+02   1.7431120022e+01    0.4658228    0.3097927  68.08  0.002888268    1.307    0.235
        90 -13.0123     54.6824     82.0425   7.9996345922e+01   5.4465837845e+01    0.7029658    0.4838135 -58.51  0.003314643    1.656    0.396
        91 -14.1144     61.1565     75.7958   7.5634524996e+01   5.4845416213e+01    0.7255429    0.5446259 -26.89  0.001217429    1.274    0.215
        92 -13.2911     71.3922     74.9643   7.1550394768e+01   5.3404472100e+01    0.7797524    0.4814063   3.71  0.002372709    2.327    0.570
        93 -12.3368     77.1659     73.2960   6.8952269227e+01   5.2747854799e+01    0.6060271    0.3609404 -21.35  0.002107146    2.153    0.536
        94 -13.6856    213.8549     78.8139   3.9095818564e+01   2.2451220694e+01    0.9278618    0.5508912  81.18  0.004485182    2.143    0.533
        95 -12.7199    218.6672     74.4443   3.7519952718e+01   2.2174425630e+01    0.3499957    0.2568971 -78.02  0.001562861    1.378    0.274
        96 -12.1953    214.4518     71.6479   3.7469663640e+01   2.3467924607e+01    0.3057491    0.2649209  62.07  0.001607697    1.297    0.229
        97 -12.6764    135.7864     79.8170   5.3662347920e+01   3.9528073044e+01     0.673995     0.333022  50.16  0.002357194    1.958    0.489
        98 -11.9754    113.8391     80.1416   5.9471865509e+01   4.4287962007e+01    0.3842002     0.338621 -20.30 0.0009292711    1.186    0.157
        99 -11.1842     42.4989     79.4985   8.4103227514e+01   5.6539330215e+01    0.2567583    0.1647057 -49.79 0.0008123897    1.464    0.317
       100 -10.9432     41.5296     76.4764   8.3641627233e+01   5.7295274854e+01    0.2425389      0.17962 -37.92 0.0007254202    1.200    0.167
       101 -13.6284    171.4852    242.8731   8.0658777399e+01  -1.5626933746e+00    0.8172787    0.5293426  15.20   0.00436366    1.513    0.339
       102 -14.0157      4.9203     63.5215   9.6080621369e+01   6.3135625203e+01    0.7130812    0.5015585  -0.79  0.004089931    1.441    0.306
       103 -11.5538     26.5156     75.2170   8.9573073148e+01   5.9096618529e+01    0.4119872    0.2783658  73.01  0.001911703    2.931    0.659
       104 -13.9328    198.6732     70.2897   3.9339072657e+01   2.6991238443e+01    0.9044519    0.5488132  43.25  0.003562222    2.124    0.529
       105 -11.6926    240.4989     70.4974   3.4129871884e+01   1.8557366257e+01    0.2132824    0.1113493  79.94  0.001044021    2.482    0.597
       106 -12.4640    134.5794     66.2255   5.0064059044e+01   4.2127693608e+01     0.571434    0.3806139  41.32  0.001956793    1.531    0.347
       107 -12.0469     31.4758     63.0878   8.3952844933e+01   6.1133538570e+01    0.5299894    0.3131483 -63.31  0.002578034    2.292    0.564
       108 -11.7596     24.8131     59.2988   8.5784830704e+01   6.2531663839e+01    0.4869352    0.2351592 -44.52  0.001842746    1.763    0.433
       109 -10.7644     99.9831     65.5104   5.8984726023e+01   4.9803478717e+01    0.2220168    0.1334253  44.46 0.0007485571    1.572    0.364
       110 -12.7955    199.9106     61.8444   3.7249662946e+01   2.8022087763e+01    0.3324206    0.2769814 -73.00  0.001205018    1.075    0.070
       111 -13.5402    177.8992     57.4142   3.9419106853e+01   3.3542840068e+01    0.8149247    0.5376316 -52.56  0.003140348    1.504    0.335
       112 -12.6261     79.2668     60.9030   6.4152289149e+01   5.4620994290e+01    0.4703234    0.4333419   6.00  0.002231053    1.057    0.054
       113 -13.1366     82.3484     54.4478   6.0896413689e+01   5.5114724472e+01    0.7552196    0.4946061  26.50  0.003488888    1.554    0.357
       114 -14.5498    119.8083     54.6539   5.0128926561e+01   4.7264075671e+01     1.004389    0.5761237  43.03  0.004690133    1.678    0.404
       115 -11.1575     39.1124     60.3156   7.9722919352e+01   6.0829753522e+01     0.239479    0.2046425  57.71  0.001424921    1.747    0.427
       116 -12.0961    247.8593     54.1569   3.0271864263e+01   1.9570670677e+01    0.4314593    0.2053423 -58.29  0.002296311    1.902    0.474
       117 -12.2859    249.0014     48.8347   2.9183434494e+01   2.0094580406e+01    0.3247108    0.2410521 -44.57  0.002216946    1.337    0.252
       118 -13.3803     87.5202     65.1216   6.2774457047e+01   5.2346535000e+01     1.468133    0.8157735 -14.49   0.00546176    3.185    0.686
       119 -11.3321     17.7489     55.3421   8.7855688102e+01   6.3918491554e+01    0.3088476    0.1741347 -49.46  0.001694686    1.590    0.371
       120 -11.3574    231.5535     55.5203   3.2133651380e+01   2.2452840071e+01     0.235964    0.1130714  67.53  0.001210731    2.168    0.539
       121 -13.9108    100.8478     49.3300   5.3435715571e+01   5.2173848031e+01     0.776018    0.7272887 -64.31  0.003078306    1.278    0.217
       122 -11.7713     37.1464     52.6992   7.8036073175e+01   6.2476517411e+01    0.4872714    0.2555924 -17.67  0.002190943    2.420    0.587
       123 -11.7900    135.9509     49.8776   4.5009533798e+01   4.4282576861e+01    0.4014362     0.238371  42.99  0.001652969    1.725    0.420
       124 -10.6704     23.5168     50.0773   8.3440850272e+01   6.4410616655e+01    0.1762644    0.1071232 -42.86  0.000415523    1.472    0.321
       125 -13.1986    157.2364     44.5467   3.9495800848e+01   4.0080103178e+01      0.84663    0.4426159  43.16  0.003805727    2.250    0.556
       126 -12.9570      3.7591     43.4399   9.1075628887e+01   6.7180386524e+01    0.5122254    0.3146957  -8.69   0.00314347    1.500    0.333
       127 -12.1988     11.7378     43.5907   8.7061346412e+01   6.6606752706e+01    0.4119207    0.2270136 -13.55  0.001948831    1.790    0.441
       128 -12.2578    147.4969    239.1029   8.5332455656e+01   2.6502943630e+00    0.2196086    0.1800262  45.25 0.0008631255    1.311    0.237
       129 -12.5053     24.7991    217.2282   1.1112666491e+02   2.4181893814e+01    0.6852584    0.3192749  50.83  0.003341255    1.981    0.495
       130 -11.6178     13.9833    222.8432   1.1389872443e+02   2.3965981346e+01    0.4688062     0.201925  74.95  0.002096378    2.560    0.609
       131 -13.7696     26.3442    226.6161   1.1150741587e+02   2.1873238447e+01    0.8601689    0.3968213 -54.00  0.004095947    2.495    0.599
       132 -13.6375     20.4417    224.2430   1.1261021204e+02   2.3015706300e+01    0.6003782    0.4714682 -79.58  0.002503286    1.208    0.172
       133 -12.2649    109.6771     42.0031   4.8643330541e+01   5.1282502473e+01    0.5190771    0.1777371  52.41  0.001255657    2.547    0.607
       134 -12.3786    238.0142    230.0015   6.5271205834e+01  -8.2205889012e+00    0.2176306    0.1501308  18.77  0.001370102    1.411    0.291
       135 -12.9342    139.2926     21.5172   3.6190644798e+01   4.6946113187e+01    0.7679955    0.2091116  60.27  0.002314251    2.861    0.650
       136 -13.8034     65.0074    223.5273   1.0245971236e+02   1.8015709105e+01    0.9999503     0.740615  47.46  0.005648285    1.234    0.190
       137 -11.3413    134.8799     39.4748   4.2186248721e+01   4.5911337578e+01    0.4153366    0.1256392  60.96  0.001445892    3.155    0.683
       138 -12.4284     75.7814     37.1409   5.6885766729e+01   5.8893950719e+01    0.4051148    0.2271534  43.14  0.001144663    1.593    0.372
       139 -11.7033     70.7111     36.5383   5.8409366992e+01   5.9915774380e+01    0.2617351    0.2510358   5.02 0.0008528205    1.240    0.194
       140 -13.1066    242.0263     35.8865   2.7392561738e+01   2.3091879046e+01    0.5099493    0.2995879  69.12  0.002063846    1.734    0.423
       141 -13.6468     64.3227    214.4897   1.0161127572e+02   2.0212356575e+01    0.5278651    0.4147578  70.89  0.002772424    1.250    0.200
       142 -12.4332     94.1773    218.1971   9.4804575317e+01   1.5160119267e+01    0.3103984    0.2209689  39.63  0.001321095    1.306    0.234
       143 -12.0343      4.0753    212.1222   1.1532818087e+02   2.7316021832e+01    0.4764625    0.1975218 -85.23    0.0022382    2.216    0.549
       144 -10.9052    136.5127    211.0320   8.3395829057e+01   1.0113799531e+01    0.2149811    0.1437888 -51.58  0.001027436    1.576    0.365
       145 -11.0337     34.9686     34.9353   7.2446939621e+01   6.5716492186e+01    0.1889825    0.1533138   0.96 0.0005155574    1.048    0.046
       146 -12.8390     44.9590     33.4402   6.7328492442e+01   6.4583302990e+01     0.730821    0.3907819  34.75  0.003892187    1.737    0.424
       147 -12.9648     59.6908    212.6533   1.0252618511e+02   2.1248138343e+01    0.5006359    0.3526314 -34.91  0.001456307    1.871    0.465
       148 -12.3791     57.6528    203.3985   1.0196425091e+02   2.3744088412e+01    0.6553505    0.3136105 -84.86   0.00253044    2.788    0.641
       149 -11.9326     41.1559    206.4757   1.0636111276e+02   2.4971473871e+01     0.279013    0.1610634  83.40  0.001324578    1.896    0.472
       150 -10.8557    150.0136    207.0000   7.9483098186e+01   8.7623491654e+00    0.2473681   0.07947173  34.97 0.0008106863    3.000    0.667
       151 -12.1326     63.4196     25.0902   5.6531989428e+01   6.2683004274e+01    0.4803484    0.2875537  15.00  0.002180249    1.923    0.480
       152 -11.2899     31.1661     25.3493   7.0312218424e+01   6.7607880456e+01    0.3385411    0.1566592  23.00  0.001440193    2.122    0.529
       153 -11.3641     36.1412     23.1595   6.7004677788e+01   6.7251818318e+01    0.2903673    0.1903379 -17.78  0.001780921    1.438    0.304
       154 -11.9067     50.9696     20.3908   5.9349482175e+01   6.5366257836e+01    0.4058388    0.1863936  50.14  0.001753966    2.643    0.622
       155 -11.3792     45.9583     21.0000   6.1691162140e+01   6.6091233881e+01      0.28158    0.2380084  41.06  0.001899217    1.470    0.320
       156 -13.5921     15.1821    197.3482   1.1175202856e+02   2.9834557402e+01    0.8456452    0.4492482 -65.72  0.004367787    1.690    0.408
       157 -13.8206     40.1677    194.8866   1.0540296534e+02   2.7928919682e+01    0.8804483    0.4900355  75.72  0.003961841    2.110    0.526
       158 -12.4123     22.5254    166.3894   1.0692131573e+02   3.6934557382e+01    0.3352122    0.2518775  14.29 0.0002145944    1.612    0.380
       159 -13.6400     30.1859    169.2237   1.0513860401e+02   3.5494769203e+01      1.00889    0.5491157 -37.61  0.003502696    2.316    0.568
       160 -13.7592     22.2712    181.1912   1.0854898839e+02   3.3187879881e+01     1.051294    0.4173446 -56.22   0.00447973    2.315    0.568
       161 -15.2379      8.3884    183.4258   1.1225122338e+02   3.3824451869e+01     1.489252     1.070347 -69.31  0.008897809    1.238    0.192
       162 -15.3426     16.1855    174.7595   1.0949445552e+02   3.5349128659e+01     2.400013     1.257341  63.43   0.01118871    2.129    0.530
       163 -12.8693    164.5167    195.9820   7.4074865698e+01   8.6794876186e+00    0.4640416    0.3056263 -80.46  0.001735527    3.329    0.700
       164 -12.3813    200.9585    191.8094   6.5368330761e+01   3.5167836522e+00    0.3830068    0.2686253 -22.82  0.001471487    1.402    0.287
       165 -11.1422     79.6405    192.6373   9.4870582970e+01   2.3431522107e+01    0.3768888    0.1123172  36.88  0.001247114    3.032    0.670
       166 -12.1952    156.0099    185.1890   7.3978228574e+01   1.2500968258e+01    0.2800502    0.2213764 -41.73   0.00140713    1.243    0.195
       167 -11.9524     48.8651    182.0019   1.0162329367e+02   3.0193095567e+01    0.4222399    0.2303852 -58.04  0.001934972    1.709    0.415
       168 -13.0144    197.7857    180.8354   6.3851422872e+01   6.1827508483e+00    0.4558666     0.374152 -82.82  0.002360896    1.860    0.462
       169 -13.2743    131.9784     32.3849   4.0666011521e+01   4.7437985816e+01    0.5892813    0.4315892  68.74  0.002002716    1.270    0.213
       170 -10.3485    100.9862    176.0060   8.6372073114e+01   2.4311227321e+01    0.1722836    0.1713282 -81.54            0    1.002    0.002
       171 -11.0243     25.9588     44.4955   8.0347481623e+01   6.5173783578e+01    0.1846093    0.1104581  19.83  0.001037996    1.605    0.377
       172 -12.9351    123.7840    166.3493   7.8315187265e+01   2.2747953537e+01    0.6370318    0.4165149 -79.50  0.002455383    2.407    0.585
       173 -11.9739     25.3451    159.2413   1.0529592750e+02   3.8526567423e+01    0.4080898    0.2327075 -13.76  0.001771841    2.730    0.634
       174 -12.1390     76.9806    156.8450   8.9704922384e+01   3.3015943496e+01    0.4997582     0.333677  25.77  0.001573851    1.626    0.385
