#   1 NUMBER                 Running object number                                     
#   2 MAG_AUTO               Kron-like elliptical aperture magnitude                    [mag]
#   3 X_IMAGE                Object position along x                                    [pixel]
#   4 Y_IMAGE                Object position along y                                    [pixel]
#   5 X_WORLD                Barycenter position along world x axis                     [deg]
#   6 Y_WORLD                Barycenter position along world y axis                     [deg]
#   7 A_WORLD                Profile RMS along major axis (world units)                 [deg]
#   8 B_WORLD                Profile RMS along minor axis (world units)                 [deg]
#   9 THETA_WORLD            Position angle (CCW/world-x)                               [deg]
#  10 FWHM_WORLD             FWHM assuming a gaussian core                              [deg]
#  11 ELONGATION             A_IMAGE/B_IMAGE                                           
#  12 ELLIPTICITY            1 - B_IMAGE/A_IMAGE                                       
         1 -13.0935    178.0472     57.8424   2.7515190256e-01   3.3785886791e+01     1.451303     1.089932  30.53  0.005830521    2.032    0.508
         2 -13.3549    193.9134     44.6155   3.5522726779e+02   3.2343596280e+01    0.9481063    0.7496235 -54.87   0.00377358    1.048    0.045
         3 -13.7146    218.9204     16.5883   3.4699825567e+02   3.0831725429e+01      1.20984     1.035776 -28.90  0.007335708    1.476    0.322
         4 -11.3023    119.1009      9.7109   3.5390647908e+02   5.3649016615e+01    0.6116852     0.404047  50.87  0.002869792    1.629    0.386
         5 -12.0079      6.6379      8.9071   4.0442823339e+01   7.7875854597e+01    0.6306342    0.5449911  36.74  0.004217905    1.350    0.259
         6 -10.2639    192.7631      3.3226   3.4548903174e+02   3.7349595215e+01    0.3139463   0.09522198 -52.31  0.001435419    2.523    0.604
         7  -9.8685    172.4610      3.4435   3.4675905656e+02   4.1669413741e+01     0.315337   0.08656755 -51.93   0.00128223    3.000    0.667
         8  -9.1986     52.6177      1.8410   5.3843932409e+00   7.0528850988e+01    0.1698399    0.1141945 -40.08 0.0007044189    1.714    0.416
         9  -9.6327    144.3783      6.7822   3.4998080772e+02   4.7791478328e+01    0.1610717    0.1232254 -12.33 0.0009504668    1.726    0.420
        10 -11.4230     57.2858    211.2186   6.0258755715e+01   2.1919492666e+01       0.4078    0.3194818 -73.38  0.001809473    1.413    0.292
        11 -12.9755    246.9249    246.0708   2.5660753569e+01  -4.3559494808e+00     1.351443    0.5009877 -32.90   0.00842212    2.122    0.529
        12 -13.1052     11.2456    194.0906   7.1553785679e+01   3.0427165166e+01    0.6642833    0.4178033 -31.52  0.003311742    2.167    0.539
        13 -16.4149     68.0359    141.5008   4.8261522436e+01   3.7986544537e+01      13.8206     6.392032  61.23    0.0346991    3.829    0.739
        14 -10.1443    193.5011    195.9944   2.6772119926e+01   7.6407776466e+00     0.417898    0.2968495 -65.58  0.002279804    2.618    0.618
        15  -9.7902    191.6748    192.3504   2.6498376982e+01   8.4533528137e+00     0.318795    0.2228281 -59.88  0.001796874    2.195    0.544
        16 -10.6671     52.6339    248.4419   6.4236108060e+01   1.4676233040e+01    0.3280005    0.1277502 -64.87  0.001575406    2.923    0.658
        17  -9.7868    248.0060    196.4592   1.8246819624e+01   1.6924732639e+00    0.1370477   0.09456628  18.47 0.0006095738    1.578    0.366
        18  -9.3186     81.9436    195.7966   5.2043641175e+01   2.2479979105e+01     0.211914    0.1786123  38.71 0.0005877591    1.096    0.087
        19  -8.7343     32.4199    196.4704   6.5804050373e+01   2.7972902461e+01    0.1420778    0.1127741  53.67 0.0004588818    1.125    0.111
        20 -14.4132     53.1610    229.6117   6.2804587718e+01   1.8378455403e+01    0.5579712    0.4812481  22.40  0.002007027    1.129    0.114
        21  -9.4199     42.8808    193.4318   6.2624548277e+01   2.7653697435e+01    0.1864213    0.1504977  39.29 0.0002762953    1.108    0.098
        22  -8.7866    223.1426    187.8825   2.0492084489e+01   5.4554118984e+00    0.1525643    0.1062854 -13.01            0    1.285    0.222
        23 -11.6498    145.9600    185.5501   3.4563594097e+01   1.5787901429e+01    0.4768697    0.3240384 -60.54  0.001854948    1.831    0.454
        24 -18.1936     14.9540    235.4680   7.2372776270e+01   2.0779693633e+01     6.111112     4.819316  32.47   0.02166711    1.135    0.119
        25  99.0000     48.4602    209.3050   6.2425991928e+01   2.3311529739e+01    0.4914944    0.2490337  29.50  0.002332276    1.689    0.408
        26  -9.0281    195.3356    183.6271   2.4367901923e+01   9.4268084246e+00    0.2093288    0.1347065 -49.18  0.001193314    1.726    0.420
        27  -8.7215     80.7916    184.3217   5.0881871049e+01   2.5316729850e+01    0.2259264    0.1543299  44.02 0.0008015459    1.404    0.288
        28 -11.0448      9.3570    183.5687   7.1572024096e+01   3.3182631402e+01    0.3621297    0.1696382  31.92  0.000318492    1.851    0.460
        29  99.0000     52.4455    185.6748   5.9148888980e+01   2.8513850888e+01     6.666868     2.850194  76.09   0.01273107    4.502    0.778
        30  -8.9374     17.0441    183.3018   6.9321904044e+01   3.2633280078e+01    0.2472198     0.118001 -37.48 0.0009636925    3.074    0.675
        31  -9.4505    183.6117    179.2407   2.5737991948e+01   1.1701932711e+01    0.4411292    0.2215127 -51.02   0.00209945    2.260    0.557
        32 -10.4871    180.2965    175.4961   2.5699492951e+01   1.2812109398e+01    0.5263448    0.2208332 -50.32  0.002242093    2.654    0.623
        33  -9.6126      2.0368    182.4876   7.3633144470e+01   3.3991117332e+01    0.1906974    0.1246634  22.02  0.001011184    1.527    0.345
        34 -12.2891    235.4975    174.3983   1.6408691579e+01   6.0451929076e+00    0.7201412    0.3277795  26.02  0.003840234    2.914    0.657
        35 -11.3662      9.5969    169.7752   7.0762231614e+01   3.6706650487e+01    0.5235339    0.3270044  49.75  0.002264682    1.444    0.308
        36 -11.9565      3.5269    175.2934   7.2885902790e+01   3.5713870625e+01     0.497607    0.2290036  11.90  0.002119115    2.434    0.589
        37  -9.2193     11.2127    175.7877   7.0611369608e+01   3.5022557962e+01    0.3094444    0.2025435  -0.38 0.0009773016    1.870    0.465
        38 -10.5862    145.1178    170.1800   3.2059405394e+01   1.8995171873e+01    0.4657896    0.1899244 -46.30  0.001630399    2.364    0.577
        39  -8.3787      1.2674    171.2072   7.3380120548e+01   3.6920465287e+01    0.1152941   0.09870664 -34.63 0.0006608318    1.393    0.282
        40 -10.5559    230.6838    168.8076   1.6141396129e+01   7.4170916470e+00    0.2636304    0.1492735 -45.15  0.001573291    1.697    0.411
        41  -9.9769    191.9590    167.0558   2.2027079358e+01   1.2666168826e+01    0.2990577    0.2518369 -33.54  0.001118854    1.111    0.100
        42  -9.7868    186.6874    166.1681   2.2813052850e+01   1.3561156772e+01    0.4346394    0.1792114 -35.59  0.001877103    2.370    0.578
        43 -10.3730    120.0290    165.3188   3.7241047723e+01   2.3975413111e+01    0.4023498    0.2872933 -83.61  0.001562229    2.051    0.512
        44  -9.8675    153.0066    162.5667   2.8880586858e+01   1.9307406677e+01     0.259276    0.1891444 -60.13 0.0008326446    1.613    0.380
        45 -11.6128     40.7230    207.0349   6.4311270654e+01   2.4639673595e+01    0.4256682    0.2341467 -48.41 0.0005669386    2.189    0.543
        46 -10.6473    136.1879    155.0819   3.1287893339e+01   2.3598829717e+01    0.4943025    0.3503531 -73.83  0.001461965    1.976    0.494
        47 -11.2716    133.7878    146.0215   3.0046708933e+01   2.5977243546e+01     1.208653    0.3502458 -55.68  0.003238755    4.940    0.798
        48  -9.5925    147.9896    156.0226   2.8729850437e+01   2.1447045449e+01    0.3079232    0.1956325 -10.62  0.001305138    2.440    0.590
        49 -12.3197    110.9246    150.4294   3.6862423157e+01   2.8898781608e+01     1.029776    0.5995517  63.03  0.003857885    2.758    0.637
        50 -12.1239    119.1849    149.7172   3.4502153390e+01   2.7666168424e+01    0.6205693    0.4893636  30.74  0.002706946    1.283    0.221
        51 -10.9738    144.5036    146.5064   2.7609811986e+01   2.4016764278e+01    0.4040599    0.2956571 -87.51  0.001860159    2.174    0.540
        52 -10.8121    139.5347    145.9242   2.8646693116e+01   2.4999509299e+01    0.6194068    0.3867661 -81.64  0.002210199    3.599    0.722
        53 -10.6608    125.0314    140.6994   3.1130001724e+01   2.8704770584e+01    0.3365198    0.2585253  60.53 0.0007632636    1.529    0.346
        54  -9.4499    136.7250    138.1715   2.7682978928e+01   2.7168367558e+01    0.3362828      0.12181 -46.42  0.001175789    2.648    0.622
        55 -10.4653    135.9328    129.1079   2.5878541094e+01   2.9278590346e+01    0.7284801    0.1822435 -48.81  0.002092372    3.927    0.745
        56 -11.0320    114.3946    128.2742   3.1248172764e+01   3.3503580199e+01    0.4074892    0.3586436  24.68  0.001449972    1.208    0.172
        57 -11.2758     53.9637    205.7160   6.0649918267e+01   2.3539875360e+01    0.2855388    0.2059473  47.51 0.0002839506    1.259    0.206
        58  -9.3464    235.6425    125.6700   7.6804664020e+00   1.3253861339e+01    0.2154921    0.1372806 -59.44  0.001270171    1.971    0.493
        59 -11.1311    120.8084    122.7171   2.8232252520e+01   3.3569697481e+01    0.4732859    0.4084257   0.54  0.002427458    1.372    0.271
        60  -7.3235     78.3934    250.5561   5.8488259555e+01   1.1623712186e+01    0.1214658   0.09723155  32.98 0.0007975079    1.058    0.055
        61 -10.5263     86.5022    121.4563   3.8103056738e+01   4.0249327343e+01    0.3433132    0.3213949 -30.19 0.0007834802    1.135    0.119
        62 -10.2514    134.8974    117.3542   2.3397570148e+01   3.2009221612e+01    0.6111381    0.1804419 -45.23  0.001905438    3.266    0.694
        63  -9.3593    109.5731    117.9883   3.0205051174e+01   3.6824404864e+01    0.2509727    0.2130684  17.94 0.0002921805    1.348    0.258
        64  -9.4244    103.2016    114.9474   3.1330791413e+01   3.8769031031e+01    0.3123829     0.203465  45.13  0.001157674    1.547    0.354
        65  -9.0658     98.1815    112.9283   3.2361706255e+01   4.0213855547e+01    0.2715443     0.211688  67.17 0.0005087861    1.470    0.320
        66 -11.9915    117.4800    109.4390   2.5889544376e+01   3.7221200174e+01    0.8991956    0.5360823 -54.96  0.003834126    1.722    0.419
        67  -8.4410    167.2177    112.4229   1.5336855936e+01   2.6717865694e+01    0.1784362    0.1341873  66.85 0.0005281587    1.600    0.375
        68  -9.0500    167.0508    225.9429   3.6377382159e+01   5.9102045603e+00    0.1981004    0.1551624 -30.40 0.0006867565    1.267    0.211
        69 -14.9483      9.6585    207.2536   7.2567276391e+01   2.7420545566e+01     0.952073    0.4253036  19.19  0.004393306    2.192    0.544
        70  -9.1960     73.2269    205.3933   5.5480735449e+01   2.1385391110e+01    0.1979086    0.1568083  53.91 0.0009876445    1.260    0.207
        71  -8.2124    137.4842     96.5883   1.7580838509e+01   3.5793418448e+01     0.144499    0.1390278 -66.44 -7.930475e-05    1.034    0.033
        72  -9.0268     80.3950    206.2879   5.3698746383e+01   2.0311939395e+01    0.2240294     0.130406 -86.61 0.0008058415    2.464    0.594
        73 -10.5120     58.8142     85.6571   3.9378111167e+01   5.4059545869e+01    0.4420434     0.208765  42.59  0.001685381    2.129    0.530
        74  -8.8120    156.2859     83.9869   1.0413001265e+01   3.4173200122e+01    0.2002647    0.1715734 -50.50 0.0004671862    1.080    0.074
        75  -9.3499     64.5518    205.6732   5.7812328820e+01   2.2349593157e+01    0.1699823     0.122662  74.91 0.0005809802    1.578    0.366
        76 -10.3029    249.2883    202.9010   1.9069183405e+01   7.2773928007e-01    0.2209974    0.1237228 -46.84  0.001282753    2.248    0.555
        77  -9.1518    181.2356     76.1964   4.3808800639e+00   3.0298137646e+01    0.1797755     0.137186 -67.37 0.0004514045    1.287    0.223
        78  -7.0196     38.3331    201.2638   6.4523651863e+01   2.6237075641e+01    0.3636339     0.211365  13.96  0.001735641    1.864    0.464
        79 -10.9685     61.2948    199.1582   5.8035412428e+01   2.4234299131e+01    0.2730129    0.2327916 -49.42 0.0007014858    1.309    0.236
        80 -10.8619    150.9799    249.1505   4.2648858157e+01   4.0353329623e+00    0.3082455    0.2095459 -38.17  0.001858476    1.569    0.363
        81  -8.2215     41.5210     65.4988   4.1333215073e+01   6.1646167785e+01    0.1435874    0.1390099 -10.17 7.978589e-05    1.008    0.008
        82  -9.9389     71.4517    241.1059   5.9308632834e+01   1.4131516827e+01    0.1516688    0.1251017 -76.30 0.0004941673    1.463    0.317
        83  -9.9332     47.9274    240.6317   6.4830958638e+01   1.6667667771e+01    0.1571891    0.1171609  35.89 0.0003499286    1.081    0.075
        84 -12.4158    199.1462     38.9019   3.5338927336e+02   3.2030858622e+01    0.4510317    0.3777138 -57.50  0.001142634    1.089    0.082
        85  -9.3531    148.6765     49.3272   2.1795251586e+00   4.1573694185e+01    0.1485071   0.09437696 -68.17 0.0007048976    1.692    0.409
        86  -9.9922    141.6337     42.0777   1.1525941823e+00   4.4272427830e+01    0.2591969    0.1888704  61.95 0.0006167428    1.375    0.273
        87  99.0000     54.4348    240.5616   6.3285363691e+01   1.6024093083e+01    0.2592428    0.1417575   4.03  0.001049643    2.422    0.587
        88 -11.2575    208.3915     35.6138   3.5186040432e+02   3.0626844962e+01    0.2748642    0.1970354 -40.60  0.000860166    1.267    0.211
        89 -10.5333     13.4209     17.2391   3.9240466164e+01   7.5586015163e+01    0.2554637    0.2124556  36.82  0.001607313    1.319    0.242
        90  -9.7591    189.7094     15.3131   3.4854415355e+02   3.6745077229e+01    0.2215898    0.1446663 -60.15 0.0007507518    1.233    0.189
        91  -8.3609     56.5560    237.4456   6.2557769668e+01   1.6425306615e+01    0.2334865    0.1305401  52.99 0.0005703199    1.761    0.432
        92  -9.0975     76.7761    232.9521   5.7331070331e+01   1.5141688156e+01    0.2336613    0.1770187 -28.40 0.0007576756    1.579    0.367
        93  -8.7609     77.6756    229.6994   5.6810943294e+01   1.5689904198e+01    0.2068849    0.1579643  -8.89  0.001208759    1.510    0.338
        94  -9.3387     70.9197    231.9394   5.8653384403e+01   1.5993567944e+01    0.2052073    0.1792386 -77.85  0.001336866    1.344    0.256
        95  -8.0134     77.3409     36.6957   1.4299759438e+01   6.0472860422e+01    0.1442638    0.1090441 -85.15 0.0007040384    1.679    0.404
        96  -9.4512    185.5826    226.1517   3.2874252192e+01   3.8451857264e+00    0.4151157    0.1157171 -50.21  0.001454591    5.571    0.820
