#   1 NUMBER                 Running object number                                     
#   2 MAG_AUTO               Kron-like elliptical aperture magnitude                    [mag]
#   3 X_IMAGE                Object position along x                                    [pixel]
#   4 Y_IMAGE                Object position along y                                    [pixel]
#   5 X_WORLD                Barycenter position along world x axis                     [deg]
#   6 Y_WORLD                Barycenter position along world y axis                     [deg]
#   7 A_WORLD                Profile RMS along major axis (world units)                 [deg]
#   8 B_WORLD                Profile RMS along minor axis (world units)                 [deg]
#   9 THETA_WORLD            Position angle (CCW/world-x)                               [deg]
#  10 FWHM_WORLD             FWHM assuming a gaussian core                              [deg]
#  11 ELONGATION             A_IMAGE/B_IMAGE                                           
#  12 ELLIPTICITY            1 - B_IMAGE/A_IMAGE                                       
         1 -13.2269    180.8167     78.4080   5.4423890551e+01   2.9265045723e+01     4.245943     1.508496 -51.49  0.004828603    3.921    0.745
         2 -13.4157    235.0666     64.3503   4.3100856804e+01   1.9459457701e+01     3.198972     1.053462 -47.13  0.005560473    2.707    0.631
         3 -11.8974    249.9700     22.0537   3.2830968299e+01   2.2078365822e+01     1.110045    0.4103417 -30.46  0.005000882    3.051    0.672
         4 -14.0184    221.5829     74.5413   4.7092066100e+01   2.0725782248e+01     10.50983     2.056865 -45.72   0.02920599    4.948    0.798
         5 -14.0900    238.7535     45.3897   3.8582688462e+01   2.1381832521e+01     7.158018     1.418206  65.16   0.02315795    4.973    0.799
         6  -8.9617     57.0407     21.6238   6.7432769485e+01   6.4801339472e+01    0.3936806    0.1567745 -30.19  0.001555934    2.536    0.606
         7  -8.9846    205.1609     19.3765   3.6047312780e+01   3.1881715930e+01     0.486758    0.2535375 -75.87  0.002325798    2.175    0.540
         8  -9.8715    143.2752      9.2834   4.0828292971e+01   4.7511816605e+01    0.4328507    0.2152471 -15.78  0.001634979    2.595    0.615
         9  -9.1364    143.9405      2.0285   3.8522567058e+01   4.7969300233e+01    0.2502366    0.2162493 -37.83 0.0008081006    1.312    0.238
        10  -9.8741    125.0818     14.1133   4.5439196044e+01   5.1398964939e+01    0.3345173    0.2337258  47.39  0.001883524    1.297    0.229
        11 -11.2793    119.2049      9.4964   4.4961921380e+01   5.3192334137e+01    0.6918896    0.4477655  55.64  0.002460113    1.312    0.238
        12  -9.5445    249.4802      3.6228   2.9294930078e+01   2.4242519983e+01    0.3920197    0.2649277   4.03  0.002105949    3.475    0.712
        13  -7.8587    165.0147     12.3129   3.8718869218e+01   4.2014968402e+01    0.1809569    0.1456975  76.20 0.0004520191    1.089    0.082
        14  -9.4203    207.2880     10.1062   3.3707310334e+01   3.2404942112e+01    0.3414094    0.1988494  83.38   0.00190535    1.573    0.364
        15  -7.5836    171.6129     10.7448   3.7486140100e+01   4.0592996824e+01    0.1607446    0.1126424 -44.81 0.0007133232    1.468    0.319
        16  -8.4978      9.3149      9.3441   8.4676870545e+01   7.2716241775e+01    0.1217041   0.06674114 -15.05 0.0007047759    1.712    0.416
        17  -9.3096    247.0162     10.2503   3.0723569649e+01   2.4010097650e+01    0.3884918    0.2480733  -7.58 0.0008002262    3.210    0.688
        18  -8.7309    233.3653      8.5519   3.1317426440e+01   2.6956880976e+01    0.3275978    0.1994534 -38.43  0.001845718    1.587    0.370
        19  -7.4893    208.6599    183.7090   7.3767784693e+01   3.7409283843e+00      0.14302   0.09962355  -0.56 0.0006022395    1.647    0.393
        20  -9.6201      1.7342    176.5662   1.2172563926e+02   3.6412409493e+01    0.4755833    0.1425936 -76.96  0.001994317    2.718    0.632
        21  -8.2499     43.9882    177.9886   1.1175622238e+02   3.2080274192e+01    0.1915675    0.1672073 -87.59 -0.005334738    1.030    0.030
        22  -8.3121    237.4980    174.9907   6.6719325683e+01   5.4735769852e-01    0.2015738    0.1144876 -36.74 0.0006996581    1.550    0.355
        23 -11.8806     31.9556    159.2773   1.1265886627e+02   3.7963095600e+01    0.6539378    0.5931264 -61.69   0.00169095    1.172    0.147
        24  -9.7972    249.4721    157.7220   6.1239160608e+01   1.5277320408e+00    0.3316877    0.2247045 -34.77  0.001882571    1.240    0.193
        25 -11.8367     42.9839    153.7635   1.0896952593e+02   3.8192186597e+01    0.8891963    0.8091635 -74.87  0.002645332    1.062    0.059
        26  -8.3245     89.1321    248.6463   1.0925011094e+02   1.0803503955e+01    0.1941437    0.1539638  79.87 0.0006483902    1.306    0.234
        27  -9.1863    190.6259    136.7139   6.7180123849e+01   1.6072246008e+01    0.2777253    0.2074203  41.87 0.0007373682    1.418    0.295
        28  -7.6872     92.2563    130.0374   9.0295647027e+01   3.7323334295e+01    0.2013739    0.1837168 -55.37 0.0002150411    1.048    0.046
        29 -10.0591    183.3535    128.2622   6.6661389211e+01   1.9278299579e+01    0.4071568    0.3036952  -5.44   0.00153085    1.755    0.430
        30 -10.6469    186.1713    121.0512   6.4333174375e+01   2.0114862182e+01    0.6194415    0.3413938 -43.56  0.002528465    1.718    0.418
        31  -8.7435    201.5544    245.7262   8.6245416529e+01  -5.2155760629e+00    0.2117887     0.138014  26.88 0.0005335876    1.307    0.235
        32  -8.8706    134.6185    112.0753   7.3867434724e+01   3.3280340233e+01     0.369466    0.1485397 -43.85  0.001248095    2.437    0.590
        33 -10.6987    205.5511    110.0097   5.8007954333e+01   1.8079893711e+01    0.4532588    0.3043451  25.91   0.00204181    2.088    0.521
        34  -7.8811     77.0392    108.6912   8.9936613070e+01   4.5011556269e+01    0.1901455    0.1819876 -21.29 0.0003066118    1.054    0.052
        35 -11.7661    205.5078     78.2131   5.0271739293e+01   2.3642131806e+01     1.466498    0.8115317  63.08  0.006669432    1.960    0.490
        36  -8.8387    150.3127    102.1260   6.7265543505e+01   3.1909065011e+01    0.3223763    0.2738613  -9.41 0.0008402842    1.348    0.258
        37  -8.5806    240.8394    240.7159   7.8227544069e+01  -9.7237131100e+00      0.16005    0.1312584  43.66  0.001072427    1.926    0.481
        38  -7.5681    120.7155     99.3343   7.4096040471e+01   3.9014036204e+01    0.1546416      0.12456 -81.15 0.0007011837    1.621    0.383
        39  -8.2674    136.0612     98.0891   6.9650726805e+01   3.5940425637e+01    0.2297253     0.225897  80.56 0.0005041624    1.058    0.055
        40  -7.5232    170.3463    235.6855   9.0842401420e+01   9.1941314265e-01    0.1247812    0.0973597  58.80 0.0005048224    1.717    0.418
        41  -9.7124    161.6127     96.9571   6.3278233582e+01   3.0354663237e+01    0.5115314    0.2581827  42.29  0.001964119    2.158    0.537
        42  -7.8408    110.4677     97.4236   7.6472010490e+01   4.1549111532e+01    0.1522164    0.1472651 -12.60 0.0001090247    1.011    0.010
        43  -9.0601    144.5540     92.3486   6.5914984592e+01   3.5180244123e+01    0.3007956    0.2732965 -78.16 0.0006519376    1.208    0.172
        44 -10.3368     94.7697     89.8054   7.9024394037e+01   4.6263927985e+01    0.2499247    0.2353156 -13.70 0.0002413609    1.019    0.019
        45 -10.5025    160.6317     87.4186   6.0867342945e+01   3.2396631382e+01    0.3532214    0.2850896 -28.23 0.0006702499    1.304    0.233
        46  -7.3460    106.3142     88.7577   7.5158250130e+01   4.4234649123e+01    0.1427165    0.1205444  78.11 0.0001803673    1.509    0.337
        47  -9.0278    200.5234    228.1920   8.3585182461e+01  -2.4462429623e+00    0.2739021    0.2383351 -82.64  0.001174348    2.007    0.502
        48  -9.1958    123.6398     79.4004   6.7389125147e+01   4.2420158025e+01    0.2744312    0.2275613 -43.85 0.0005788197    1.224    0.183
        49  -8.2212      1.6833     79.3202   1.1051964767e+02   5.9676724186e+01     0.115717   0.08854938  73.63 0.0007041162    1.660    0.397
        50  -8.7181    129.7660    138.1216   8.1683175757e+01   2.8375632336e+01    0.3955095    0.2037556  41.76   0.00130544    1.975    0.494
        51  -9.2493    142.6643     67.0920   5.8909560511e+01   4.0243616673e+01    0.2476241    0.2012671  68.26 0.0006092171    1.302    0.232
        52  -8.3943    196.5498     65.4607   4.8445075845e+01   2.7712775495e+01    0.2570326    0.1930507 -49.76  0.001021086    1.254    0.203
        53 -10.2332    150.8459     65.8503   5.6747403559e+01   3.8502777692e+01    0.3137791    0.2716995  53.37  0.001262754    1.133    0.117
        54  -7.1860    198.6844    153.2870   6.9329943791e+01   1.1218384173e+01    0.1380814    0.1174792 -80.23 0.0002311703    1.587    0.370
        55 -10.4688     57.9786    148.6089   1.0398100107e+02   3.7724498522e+01    0.8106816    0.5252509 -65.55  0.004006522    1.410    0.291
        56  -7.7326    125.4933     44.5047   5.5642661142e+01   4.7767404919e+01      0.14065    0.1321888  45.49 -0.000110424    1.011    0.011
        57 -10.4507     67.9620    144.0016   1.0031032711e+02   3.7569281901e+01    0.7461823    0.5023052  71.34  0.003428074    1.883    0.469
        58  -9.0373    156.5351     38.3345   4.7459648614e+01   4.1146965114e+01    0.2393759    0.1952848  57.25 0.0002613502    1.162    0.139
        59  -7.7885    164.1479     39.8686   4.6632028227e+01   3.9101302083e+01    0.1788625    0.1591349  28.95  0.000365667    1.291    0.226
        60  -7.9925    192.0182    143.9853   6.8578209129e+01   1.4346659383e+01    0.2213025     0.180247 -71.63 0.0004408387    1.580    0.367
        61  -9.7556    125.1402     32.3450   5.1621617223e+01   4.9431259352e+01     0.266647    0.2269856 -42.24 0.0002314202    1.290    0.225
        62  -9.5031    230.5315     27.0400   3.5413396081e+01   2.5439281808e+01    0.3550098    0.2385947 -58.12 0.0009235358    1.275    0.216
        63  -8.7904    144.7954     27.3319   4.6160339219e+01   4.5320260710e+01    0.2201071    0.1796259 -48.73 0.0006848736    1.317    0.240
        64 -10.3353    220.5169    222.1463   7.8721712914e+01  -4.4270328799e+00    0.2247097     0.187143   8.51 0.0003214054    1.097    0.089
        65 -10.3875    127.4925     22.4816   4.7801549343e+01   4.9994099352e+01    0.3837692    0.2727968 -77.73  0.001990071    1.820    0.451
        66  -9.1758    130.3606     19.1878   4.6153106186e+01   4.9655247372e+01    0.2660445    0.1326821 -26.92  0.001237849    2.208    0.547
        67  -8.9759    188.7171    222.4382   8.4952737404e+01   2.7233983639e-01    0.2150946    0.2102861 -40.34 0.0004417295    1.344    0.256
        68  -7.5894    250.3002    221.7038   7.3327873536e+01  -8.3653771055e+00   0.09924608   0.09277178 -21.86 0.0002584801    1.574    0.365
        69  -8.9218    190.0277    218.0107   8.3925841439e+01   8.0727080904e-01    0.1947955    0.1681611   5.74            0    1.014    0.013
        70  -8.9946    135.1561     19.6071   4.5415600483e+01   4.8469510261e+01     0.203367    0.1027181  53.25 0.0009476909    1.732    0.423
        71  -8.5616    214.1694     15.4160   3.4303602524e+01   3.0311673257e+01    0.1850457    0.1510117 -51.26 0.0002441776    1.192    0.161
        72 -12.0535    247.1410     81.6645   4.5461568858e+01   1.4435204678e+01     1.347511    0.4502589 -44.08  0.001235667    2.465    0.594
        73  -8.4315    190.9689    213.1224   8.2875568565e+01   1.4879484873e+00    0.1979594     0.172639   7.23 0.0003852409    1.019    0.019
        74  -9.9801    157.6883    207.4910   8.8923769148e+01   8.0175661238e+00    0.2368176    0.2270979  23.50 0.0003566357    1.088    0.081
        75 -10.0664    123.9985    205.9995   9.6272578302e+01   1.3997587127e+01     0.195709    0.1820218  41.27            0    1.003    0.003
        76  -8.1327    109.7433    204.0410   9.9279977901e+01   1.6744069917e+01    0.1759555    0.1715832 -78.10 0.0002087847    1.088    0.081
        77  -9.5640    234.9816    196.6554   7.1400976581e+01  -2.5834534689e+00    0.4296213    0.2397696  49.39  0.001944873    2.653    0.623
        78  -9.2751     42.0743    193.4285   1.1386915648e+02   2.8619462440e+01    0.2207232    0.1761502 -76.77 0.0003209077    1.164    0.141
        79  -8.2646    191.6435    192.1274   7.8838441156e+01   5.1080112909e+00    0.2726253    0.1262519 -49.96  0.001084797    2.592    0.614
        80  -9.9082    185.8729    139.7339   6.8858935777e+01   1.6439827477e+01    0.3373561    0.2592738 -38.17 0.0004395551    1.230    0.187
        81  -8.5708    180.0328    193.0079   8.1439064533e+01   6.9489987413e+00     0.206383     0.185374  -0.12            0    1.026    0.025
