#   1 NUMBER                 Running object number                                     
#   2 MAG_AUTO               Kron-like elliptical aperture magnitude                    [mag]
#   3 X_IMAGE                Object position along x                                    [pixel]
#   4 Y_IMAGE                Object position along y                                    [pixel]
#   5 X_WORLD                Barycenter position along world x axis                     [deg]
#   6 Y_WORLD                Barycenter position along world y axis                     [deg]
#   7 A_WORLD                Profile RMS along major axis (world units)                 [deg]
#   8 B_WORLD                Profile RMS along minor axis (world units)                 [deg]
#   9 THETA_WORLD            Position angle (CCW/world-x)                               [deg]
#  10 FWHM_WORLD             FWHM assuming a gaussian core                              [deg]
#  11 ELONGATION             A_IMAGE/B_IMAGE                                           
#  12 ELLIPTICITY            1 - B_IMAGE/A_IMAGE                                       
         1 -14.8360    180.1610     30.0436   6.9803963232e+01   3.6403953048e+01     1.328686    0.9417939   4.12  0.004838997    1.905    0.475
         2 -14.0195    184.6733     22.9841   6.7122417089e+01   3.6089933220e+01    0.8182431    0.6572385 -34.63  0.001398681    1.290    0.225
         3 -10.9627     13.5465     36.9906   1.2201745717e+02   6.7221085781e+01    0.1917788    0.1553096  -3.53 0.0005403849    1.314    0.239
         4 -16.7768    108.5991    246.6674   1.3226144067e+02   1.0829048969e+01     5.684676     2.386055  36.54   0.02817158    2.271    0.560
         5 -10.2237    165.9039    208.5169   1.1630348256e+02   7.8792223780e+00    0.2072477    0.1150254  42.85   0.00102647    1.589    0.371
         6 -12.8352     11.2707    206.6190   1.4681220097e+02   3.0412607550e+01    0.3134686     0.256747  45.56   0.00245629    1.455    0.313
         7 -10.5431     86.5096    206.5708   1.3218687845e+02   2.1345056165e+01      0.21042    0.1699923  86.96 0.0005465011    1.167    0.143
         8 -11.2845     87.5484    203.4874   1.3161605856e+02   2.1808900589e+01    0.2430318    0.1921969  76.68 0.0007125883    1.155    0.134
         9 -12.8509    126.2368    204.9675   1.2380153772e+02   1.5375270170e+01    0.3171954    0.2326489  79.55  0.001758259    1.628    0.386
        10 -13.6940    104.0121    203.0660   1.2815094010e+02   1.9375171232e+01    0.8030776    0.3036333 -59.73   0.00340471    2.856    0.650
        11 -10.9649     15.8408    201.1630   1.4564182466e+02   3.1062471018e+01    0.1246833    0.1044054  48.79  0.000407425    1.399    0.285
        12 -13.0224    196.9746    197.0966   1.0827132822e+02   4.2444981720e+00    0.6731343    0.4325119  46.10  0.002465209    1.546    0.353
        13 -11.5264    189.1474    187.8688   1.0808624637e+02   7.1716901742e+00    0.5604123    0.3381108 -62.44  0.002380727    2.930    0.659
        14 -13.8210     80.0145    193.6839   1.3202995863e+02   2.4920317400e+01    0.7882655    0.7380869  83.37  0.003994422    1.183    0.155
        15 -19.2961     34.6781    140.9808   1.3604855712e+02   4.2399865708e+01     19.41737     3.001372 -69.72   0.04987819    6.723    0.851
        16 -13.9712    110.8218    207.6467   1.2734210263e+02   1.7398560514e+01    0.7131394    0.5065577  18.57  0.003813065    2.032    0.508
        17 -10.8434    180.5608    194.1093   1.1093354539e+02   7.6912097217e+00    0.3379614    0.2261582 -70.73  0.001534524    2.688    0.628
        18 -10.5403    158.1281    193.2294   1.1533319774e+02   1.1947802336e+01    0.1830262    0.1538277  67.32 0.0003814341    1.335    0.251
        19 -11.5278     98.3204    191.5612   1.2782607172e+02   2.2603791748e+01    0.2511149    0.1116389  44.50  0.001121097    2.036    0.509
        20 -11.7802    207.8305    185.6098   1.0405332080e+02   4.1261395879e+00    0.3466219    0.2587619   9.43  0.001062613    1.412    0.292
        21 -11.9597    212.3929    182.1941   1.0253288532e+02   3.8445287589e+00    0.3235786     0.237172   2.13  0.001155539    1.488    0.328
        22 -11.0602    147.1382    185.7236   1.1634692520e+02   1.5373070566e+01    0.2172498    0.1891854 -72.27 0.0002733383    1.288    0.223
        23 -12.3589     99.3363    181.0340   1.2610858441e+02   2.4662518403e+01     0.323612    0.2319988 -58.73  0.001037558    1.435    0.303
        24  -9.5155     22.2778    185.1735   1.4327120554e+02   3.3740402316e+01   0.08586364   0.08264623 -89.19 0.0006437957    1.402    0.287
        25 -11.0859      7.1803    228.1316   1.4863576128e+02   2.6710355608e+01    0.1779204    0.1344537   2.84  0.001210391    2.881    0.653
        26 -11.1938    198.5167    177.8070   1.0430719340e+02   7.1238077184e+00    0.3397278    0.2489148 -52.60  0.001163934    1.674    0.403
        27 -12.7261    111.8573    196.7241   1.2564018341e+02   1.9372379006e+01    0.6935587    0.3986269  13.80  0.002285085    5.296    0.811
        28 -12.4586    127.1349    172.9913   1.1851800886e+02   2.1608317100e+01    0.5021505     0.255025  51.71  0.002129773    2.037    0.509
        29 -12.3167    137.0340    170.9245   1.1591081941e+02   2.0211742222e+01    0.4319825    0.2316999  50.64   0.00187246    1.884    0.469
        30 -10.9087    145.5205    168.4674   1.1354827735e+02   1.9104526316e+01    0.1426545    0.1355346  51.62  7.17765e-05    1.004    0.004
        31 -10.6640    110.2153    166.8289   1.2134400737e+02   2.5933358582e+01    0.2509017    0.1452485  75.08 0.0009586822    2.904    0.656
        32  -9.6074    121.7295    165.2936   1.1838129276e+02   2.4228931280e+01    0.1398407    0.1071845  79.34 0.0001688545    1.515    0.340
        33 -12.7376    101.5328    156.8615   1.2167888295e+02   2.9636620146e+01    0.6223751    0.3944168 -38.79   0.00244395    1.980    0.495
        34 -11.3512    163.1993    155.0762   1.0691456293e+02   1.8301580323e+01    0.2776783    0.2160594 -67.70  0.001363336    1.573    0.364
        35 -10.4322    139.8049    156.2155   1.1242810024e+02   2.2761785396e+01    0.2140641    0.1903314  72.07 0.0006367369    1.178    0.151
        36 -11.1532    174.5463    148.9870   1.0313348873e+02   1.7157465735e+01    0.2408617    0.1972966  43.46 0.0006639431    1.205    0.170
        37 -11.7650    133.7706    145.1040   1.1153032522e+02   2.6338545522e+01    0.9273107     0.228857 -53.39  0.002324677    5.335    0.813
        38 -12.4856      9.2613    144.9363   1.4274596234e+02   4.3735270423e+01    0.3664881      0.32073 -39.62   0.00182194    1.500    0.334
        39 -13.5505      3.9842    132.2614   1.4283712725e+02   4.6986922437e+01     1.206411    0.4828609 -76.59  0.006068028    1.976    0.494
        40 -12.0276    110.8917    141.2985   1.1637193004e+02   3.1537827677e+01    0.4702272     0.291055 -36.60  0.002053323    1.980    0.495
        41 -12.5053    100.1587    141.5741   1.1916353782e+02   3.3367167046e+01    0.2675376       0.2555  45.09 0.0004386666    1.127    0.113
        42 -10.2985    116.6917    138.9780   1.1442080146e+02   3.0994192893e+01    0.2666134    0.1527255  71.76 0.0009051614    3.342    0.701
        43 -11.3748    117.3190    131.1645   1.1255042112e+02   3.2641016102e+01    0.3141568    0.2426187 -22.51 0.0007362764    1.652    0.395
        44 -11.4046    143.1060    127.7784   1.0533800385e+02   2.8176707808e+01    0.3637818    0.2661089  84.45  0.001580209    1.955    0.489
        45 -11.7768    105.6296    128.9431   1.1510105825e+02   3.5318720180e+01    0.5289648    0.2880895 -57.36  0.001304969    1.848    0.459
        46 -10.9843    160.5784    127.7852   1.0126424262e+02   2.4403792117e+01    0.2243806     0.143769 -53.14 0.0009564263    1.695    0.410
        47 -10.2555    111.8729    119.8776   1.1135733283e+02   3.6232425918e+01    0.2167348    0.2005063 -20.87 0.0003377399    1.184    0.155
        48 -13.0546     11.1403    136.5263   1.4147398892e+02   4.5500235061e+01    0.4587026    0.2315923 -82.50 0.0005031617    1.683    0.406
        49 -11.2186    168.7458    113.5891   9.5874596452e+01   2.5433905803e+01    0.3463405    0.2747236 -84.11 0.0008937255    1.641    0.390
        50 -10.9599    163.9183    111.1257   9.6295451438e+01   2.7027184950e+01    0.3436196    0.2222954  49.70 0.0005167301    1.571    0.363
        51 -11.5527     78.8689    143.8676   1.2508170613e+02   3.6235160678e+01    0.2066519    0.1850644 -46.05 0.0004540546    1.238    0.192
        52 -10.6235    205.4872    110.1892   8.7672662306e+01   1.7672669300e+01    0.2655696     0.212945  50.46 0.0006647839    1.306    0.234
        53 -11.9437    182.0114    233.1779   1.1703411325e+02   1.3463112725e+00     0.307593    0.1742344  36.15  0.001312308    1.478    0.323
        54 -13.8045    167.0827     44.6112   7.6315972949e+01   3.7828767986e+01    0.7008796    0.5351821 -11.59  0.001027221    1.525    0.344
        55  -9.7989    168.2841    248.3097   1.2164399547e+02   1.4098316124e+00    0.1125858   0.08184262  14.89 0.0001851002    1.569    0.363
        56 -13.0912     94.7828    206.9533   1.3054190799e+02   2.0036306416e+01    0.5625519    0.3330652 -67.50  0.002061116    1.796    0.443
