#   1 NUMBER                 Running object number                                     
#   2 MAG_AUTO               Kron-like elliptical aperture magnitude                    [mag]
#   3 X_IMAGE                Object position along x                                    [pixel]
#   4 Y_IMAGE                Object position along y                                    [pixel]
#   5 X_WORLD                Barycenter position along world x axis                     [deg]
#   6 Y_WORLD                Barycenter position along world y axis                     [deg]
#   7 A_WORLD                Profile RMS along major axis (world units)                 [deg]
#   8 B_WORLD                Profile RMS along minor axis (world units)                 [deg]
#   9 THETA_WORLD            Position angle (CCW/world-x)                               [deg]
#  10 FWHM_WORLD             FWHM assuming a gaussian core                              [deg]
#  11 ELONGATION             A_IMAGE/B_IMAGE                                           
#  12 ELLIPTICITY            1 - B_IMAGE/A_IMAGE                                       
         1  -7.4757    144.0402      9.3139   5.6724481558e+01   4.8137397839e+01    0.1946997    0.1656841  54.84 0.0003059733    1.095    0.086
         2  -7.2806    145.7200      2.6285   5.3983063807e+01   4.8339664028e+01    0.1504125   0.09446675  30.77 0.0006166195    1.695    0.410
         3  -7.6177    210.7795    249.8398   1.0225334682e+02  -4.2298574674e+00    0.1456849    0.1137159  46.63   0.00104479    1.341    0.254
         4 -10.7731    248.0484    233.0760   9.3727240789e+01  -8.2131003793e+00    0.7089147    0.3659401  42.34  0.004224135    1.723    0.420
         5 -11.3179    245.2808    245.8373   9.6133230822e+01  -9.0304093833e+00     1.059108    0.5307601  36.10  0.003084344    1.510    0.338
         6  -7.1617    104.4832    237.5352   1.1864913019e+02   1.4088847420e+01    0.1145506   0.08433562  60.39   0.00039661    1.034    0.033
         7 -10.0504    139.5324    230.7300   1.1189500453e+02   9.7061138530e+00     0.213611    0.1839225  59.67  0.000556804    1.113    0.102
         8  -7.1440    171.4255    230.4746   1.0627071568e+02   4.4728806090e+00    0.1194599   0.09511329  42.30 0.0003050726    1.012    0.011
         9 -10.3102    249.0508    225.6696   9.2371783898e+01  -7.6189018093e+00    0.4660577    0.2735986   1.99  0.002758176    1.899    0.473
        10  -8.0249     11.9593    219.9903   1.3250314258e+02   2.8479791815e+01    0.1465799    0.1074168  78.60 0.0005440358    1.148    0.129
        11  -7.7250    141.1352    216.2686   1.0981607634e+02   1.1681924533e+01    0.1948351    0.1514755  81.14 0.0007273466    1.458    0.314
        12  -8.6015    248.5791    201.7373   8.8327361529e+01  -4.9329558738e+00    0.2199224     0.173014  21.71 0.0005507456    1.059    0.056
        13  -6.7101    130.6499    189.7152   1.0815175417e+02   1.8048991153e+01    0.1231239    0.1012126  15.94 0.0003832701    1.656    0.396
        14  -7.0988     47.7182    188.6526   1.2433227346e+02   3.0490307015e+01    0.1021436   0.08162171 -57.10  0.000258972    1.644    0.392
        15  -9.3466    246.5139    183.5365   8.5264600489e+01  -2.3776597151e+00    0.2984748     0.265406 -80.08 0.0008231114    1.910    0.476
        16  -7.4040    159.5623    182.0664   1.0113763165e+02   1.4149168122e+01    0.1779034    0.1345058 -49.48 0.0003517293    1.485    0.327
        17  -9.0376    234.7728    178.6934   8.6324724583e+01   3.4344657495e-01    0.3216655    0.2136181  48.09  0.001114179    1.591    0.371
        18  -7.4814     17.0900    178.2017   1.2926327365e+02   3.5785222408e+01     0.147747    0.1207935 -84.10 0.0005097493    1.273    0.215
        19  -7.4888    117.9555    176.0005   1.0869379054e+02   2.2870365310e+01    0.1585745    0.1338079  59.38 0.0009541579    1.062    0.059
        20 -10.4785    100.9959    176.0035   1.1224771973e+02   2.5682696159e+01    0.1840549    0.1579249  73.42  0.001162533    1.001    0.001
        21  -9.0146    235.5723    173.6840   8.5190781738e+01   8.8130644381e-01     0.285712    0.2015313  22.16 0.0004736646    1.344    0.256
        22  -6.9514      6.3371    173.3363   1.3094050494e+02   3.7706479346e+01   0.09908967   0.06932664 -59.01 0.0007051669    1.750    0.428
        23  -9.3338     89.9258    170.1385   1.1377563163e+02   2.8609969618e+01    0.2111145    0.1798323 -85.31            0    1.094    0.086
        24  -8.5134    156.6406    169.1796   9.9444121352e+01   1.7043164410e+01    0.2422074    0.1995728  34.48 0.0003634864    1.219    0.180
        25  -7.2722    245.1726    168.7770   8.2551271032e+01  -2.0773040335e-01    0.1825921    0.1335579   9.64 0.0004674795    1.322    0.244
        26  -8.2432    235.6407    168.9909   8.4228678688e+01   1.5203136881e+00    0.2206827    0.1741797  39.82 0.0003437758    1.259    0.206
        27  -7.2175     16.4517    169.0294   1.2873926223e+02   3.7688664284e+01    0.1584085    0.0841967 -79.14 0.0005812843    1.493    0.330
        28 -10.3594    203.5697    166.3275   8.9523241936e+01   8.1514715595e+00    0.2587397    0.2422179  31.32 0.0003264302    1.088    0.081
        29  -7.3047    152.7691    154.9623   9.7546573948e+01   2.0521089857e+01    0.1763265     0.120084 -46.52 0.0003930987    1.557    0.358
        30  -8.6944     89.2690    154.8102   1.1170031463e+02   3.1965425303e+01    0.2087252    0.1901234 -84.19 0.0002483118    1.105    0.095
        31  -7.5058    133.5274    150.5653   1.0092120755e+02   2.5195265114e+01    0.1418816    0.1314418  69.58  0.000137456    1.015    0.014
        32  -8.8575    223.2293    149.0912   8.2207723196e+01   6.8967163029e+00    0.2257744    0.1895259  40.52 0.0002629469    1.188    0.158
        33  -8.0287    209.3415    148.0587   8.4549508078e+01   9.9410325581e+00    0.2431219    0.2200238 -69.46 0.0007078367    1.386    0.279
        34  -8.1071    151.4028    146.4403   9.6110664571e+01   2.2481905545e+01    0.2323837    0.2176863 -41.34 0.0003857402    1.133    0.117
        35  -7.4291    156.2679    141.9264   9.4079614770e+01   2.2372927039e+01    0.1949969    0.1908444 -36.57 0.0003028176    1.072    0.067
        36  -7.1136    250.2457    136.6081   7.4775623700e+01   3.3536824972e+00    0.1787046    0.1208391  33.76 0.0002818647    1.494    0.331
        37  -7.7248    160.4822    134.4527   9.1491017364e+01   2.2961523948e+01    0.1480327    0.1433489  44.87 0.0001352344    1.013    0.013
        38  -7.1467    109.0348    131.9779   1.0298806381e+02   3.3719944640e+01     0.166178      0.15359  71.33  0.000339657    1.061    0.057
        39  -7.4246     16.7083    127.0934   1.2500923106e+02   4.6568292778e+01     0.163453    0.1127059 -79.40 0.0003260562    1.111    0.100
        40  -7.0365    189.2952    126.3276   8.3453293632e+01   1.8115099318e+01    0.1543496    0.1175251   8.45 0.0004015668    1.629    0.386
        41  -7.5814    240.6674    123.7829   7.3383165926e+01   7.2081766778e+00    0.2193911    0.1799453  81.76 0.0006230712    1.706    0.414
        42  -7.5861    179.5061    123.9221   8.4891888522e+01   2.0784156441e+01    0.2156743    0.1501776 -38.00 0.0002899984    1.458    0.314
        43  -8.9563    166.0320    100.7733   8.1836445659e+01   2.8358273933e+01    0.2676918    0.2224769 -38.78 0.0001982638    1.199    0.166
        44  -7.9972    129.0020     99.0527   9.0201563873e+01   3.7031877567e+01     0.219576     0.212933 -72.12            0    1.035    0.034
        45  -9.7370    222.2530     94.3497   6.9158947042e+01   1.5983065097e+01    0.2718525    0.2544848 -14.44 0.0002659059    1.032    0.031
        46  -8.2456    226.9624     90.4795   6.7374457608e+01   1.5497446512e+01     0.284937    0.2108501 -28.91 0.0005469073    1.293    0.227
        47  -7.1679    127.9817     89.5175   8.7821271904e+01   3.9233165165e+01    0.2101461    0.1321289  22.21 0.0006262265    2.416    0.586
        48  -7.6167    156.4034     85.8294   7.9798119261e+01   3.3521468206e+01    0.2956457    0.1186495  53.95  0.000956726    2.642    0.622
        49  -6.9548    218.1741     83.6424   6.7012867342e+01   1.8689016930e+01    0.2074812    0.1337191  44.58 0.0003406656    1.632    0.387
        50  -8.7467    109.5230     80.8284   9.0269188033e+01   4.4787525750e+01    0.2785896    0.2294785  71.29 1.507535e-05    1.475    0.322
        51  -6.7179     17.7139     79.7476   1.1826036437e+02   5.6973142252e+01    0.1124722   0.07178546 -45.62 0.0001585906    1.474    0.322
        52  -7.0552    249.0348     77.0322   6.0640597264e+01   1.2465236145e+01     0.172789    0.1480827 -31.33 0.0003008604    1.067    0.063
        53  -7.5402    209.7060     75.1892   6.6127033780e+01   2.2130725488e+01    0.2534767     0.183153 -48.89  0.001178766    1.429    0.300
        54  -7.9099    166.8662     74.1375   7.3990816352e+01   3.3114946637e+01    0.2341072    0.2232476  17.53 0.0006165844    1.067    0.062
        55  -8.9466    141.1151     62.8610   7.6298404006e+01   4.1398753343e+01    0.4453897    0.2861233  14.75   0.00172897    2.414    0.586
        56 -10.3075    123.1895     59.1025   7.9590352366e+01   4.6168638030e+01    0.2554023     0.244834  -9.57  0.000271847    1.012    0.011
        57  -6.9131     86.5787     59.5078   9.0416698417e+01   5.3261786835e+01    0.1396652    0.1250628 -34.62  0.000122544    1.037    0.035
        58  -7.4119    134.7468     56.2117   7.5639327584e+01   4.4051225803e+01    0.2045564    0.1701756  14.47 0.0003664139    1.309    0.236
        59  -9.2686    219.0925     45.8212   5.6507192418e+01   2.4146525469e+01     0.405418    0.2800904 -27.07  0.001036247    1.455    0.313
        60  -7.7153    193.0147     38.0921   5.8070394915e+01   3.1956439334e+01    0.2166563     0.211813 -73.50 0.0003077071    1.013    0.013
        61  -6.8284    178.7009     34.7225   5.9335427546e+01   3.6179777571e+01    0.1513862    0.1105353  31.88 0.0002001026    1.537    0.350
        62  -7.4716    165.8513     28.1671   5.9410842557e+01   4.0399565768e+01    0.1989748     0.161383  32.32  0.001009227    1.286    0.222
        63  -6.8024    160.7188     16.7168   5.6421599345e+01   4.3081144540e+01    0.1466667    0.1030115  33.40            0    1.515    0.340
        64  -7.9622      3.4957    249.1026   1.3492133926e+02   2.4498840835e+01    0.1337096    0.1044611  72.49  0.001262263    1.370    0.270
