#   1 NUMBER                 Running object number                                     
#   2 MAG_AUTO               Kron-like elliptical aperture magnitude                    [mag]
#   3 X_IMAGE                Object position along x                                    [pixel]
#   4 Y_IMAGE                Object position along y                                    [pixel]
#   5 X_WORLD                Barycenter position along world x axis                     [deg]
#   6 Y_WORLD                Barycenter position along world y axis                     [deg]
#   7 A_WORLD                Profile RMS along major axis (world units)                 [deg]
#   8 B_WORLD                Profile RMS along minor axis (world units)                 [deg]
#   9 THETA_WORLD            Position angle (CCW/world-x)                               [deg]
#  10 FWHM_WORLD             FWHM assuming a gaussian core                              [deg]
#  11 ELONGATION             A_IMAGE/B_IMAGE                                           
#  12 ELLIPTICITY            1 - B_IMAGE/A_IMAGE                                       
         1 -13.8802    204.0096     18.2070   6.1719195818e+01   3.2469740778e+01     1.302499     1.189709  88.00   0.00585052    1.155    0.134
         2 -13.9965    210.0082     12.9787   5.9898982757e+01   3.1670984094e+01     3.384887     1.850926  30.94  0.001911057    4.458    0.776
         3 -11.7049      1.9802     13.8882   1.1401390517e+02   7.0659734237e+01    0.4784099    0.1493683 -44.10   0.00252091    2.580    0.612
         4 -11.1156      1.8973      5.1051   1.1040279762e+02   7.1858366287e+01    0.4879288    0.1227214 -43.13  0.002307569    3.510    0.715
         5 -14.0732     10.5095    206.7265   1.4574911595e+02   2.9817010224e+01     2.337118     1.020984 -49.44   0.01082836    3.596    0.722
         6 -11.8167    139.4324    248.2487   1.2485690445e+02   3.0591071550e+00    0.5325834    0.3203786 -71.88  0.002668753    2.371    0.578
         7 -11.7311    126.0319    244.6959   1.2703198025e+02   5.9416944717e+00    0.3112597    0.2617444 -43.34  0.001950356    1.486    0.327
         8 -12.5246    101.1258    249.1950   1.3241819979e+02   9.1358474119e+00    0.7843855    0.5147955 -72.29  0.004594023    1.662    0.398
         9 -12.1982    108.7420    246.0193   1.3058682780e+02   8.5252605314e+00    0.4875524    0.3248588  64.88   0.00215548    1.451    0.311
        10 -11.3357     93.0647    249.8462   1.3401986890e+02   1.0262338018e+01    0.4614054    0.3721562 -32.07  0.002362846    2.000    0.500
        11 -12.3147     88.9872    244.4783   1.3422538963e+02   1.1914628454e+01    0.6459191    0.3510495  67.66  0.001960976    1.998    0.499
        12 -13.1977      5.0300    246.5428   1.4919587012e+02   2.2249989032e+01      2.40123     0.656107 -76.73   0.01152799    3.068    0.674
        13 -14.4226     34.0028    246.3108   1.4439200855e+02   1.9068772568e+01     12.62352     3.608703  30.19   0.02607078   18.195    0.945
        14 -15.4538      4.7215    181.0989   1.4488526456e+02   3.5990781029e+01      7.40037      1.26387 -69.71   0.02712077    3.811    0.738
        15 -14.8019     53.6442    208.7230   1.3743840285e+02   2.4479250724e+01     4.921455     1.264291  53.61   0.01536632    5.030    0.801
        16 -11.6450     51.6339    235.8202   1.4042530275e+02   1.8953729577e+01       0.4629    0.2465507 -83.71  0.001711598    1.806    0.446
        17 -11.5292     55.0861    230.0544   1.3925994531e+02   1.9687281532e+01    0.4055955    0.2197892  64.52  0.002194493    1.707    0.414
        18 -12.3145     15.9235    241.4582   1.4712849545e+02   2.2086922183e+01     1.037315    0.2687217  53.77   0.00471653    3.125    0.680
        19 -10.7668    249.1443    231.2683   1.0103956407e+02  -1.2011887012e+01    0.2253762    0.1384226 -42.08  0.001281504    1.869    0.465
        20  -9.7388    198.6470    247.3242   1.1314898034e+02  -6.6523714495e+00    0.1208992    0.0963512  63.96 0.0007047403    1.760    0.432
        21 -11.5513     21.1568    229.5383   1.4544704840e+02   2.3909146983e+01    0.4367963      0.21053  54.24  0.001745663    1.761    0.432
        22 -12.7019     38.5040    225.8348   1.4201337650e+02   2.2677162812e+01    0.3359206    0.2800534 -79.51 0.0007295831    1.287    0.223
        23 -10.8647     75.4159    228.8564   1.3519324291e+02   1.7097294647e+01    0.2878076    0.1589545  64.49  0.001462203    1.797    0.443
        24 -11.1616     22.5673    236.3412   1.4566937905e+02   2.2372279695e+01    0.2780573     0.180645 -60.94  0.001227616    1.838    0.456
        25 -10.1990     68.7004    227.8000   1.3640589358e+02   1.8287224409e+01    0.2590793    0.1242683  60.91   0.00116323    2.100    0.524
        26  -9.8043     25.5097    226.3565   1.4444046432e+02   2.4083038043e+01    0.1800262   0.09747472  42.32  0.000914218    1.837    0.456
        27 -14.0778     45.8149    216.3966   1.3977586277e+02   2.3792574550e+01     1.177006     0.756214  68.71  0.005911623    1.368    0.269
        28 -10.8548     26.3366    214.9603   1.4340532039e+02   2.6399802605e+01    0.2970934    0.1436644  80.84  0.001233231    2.052    0.513
        29 -10.4052    162.4401    249.2945   1.2048290497e+02  -9.8914799422e-01    0.2330014    0.1392488  54.44  0.001195678    1.788    0.441
        30 -10.8325    227.8886    204.2657   9.9918918367e+01  -4.5782197797e+00    0.3150772     0.239303 -57.92 0.0007765631    1.799    0.444
        31 -10.7775     27.4754    204.4105   1.4229873016e+02   2.8574622970e+01    0.2633332    0.1203364  47.03 0.0007585676    2.050    0.512
        32  -9.9289    191.8998    192.9897   1.0482806642e+02   3.9258577676e+00    0.3293793    0.2030585 -66.89  0.001314275    2.762    0.638
        33 -11.5642     64.5281    193.1600   1.3331670382e+02   2.6562824633e+01    0.3864655    0.2544803 -49.13  0.001235391    1.782    0.439
        34  -8.5378    181.5075    192.4435   1.0689967482e+02   6.0292759971e+00    0.1433275    0.1376473  29.16 0.0003044122    1.022    0.021
        35 -11.3943     99.4637    237.3349   1.3138498690e+02   1.1689040540e+01     0.363681    0.2353296  82.61  0.001538826    1.752    0.429
        36 -11.7430     69.8895    185.9099   1.3115189950e+02   2.7509802334e+01    0.3096531     0.257682 -50.78  0.000475832    1.382    0.276
        37 -11.1587     79.4017    174.1491   1.2717942168e+02   2.8921146999e+01    0.2680905     0.237046 -79.04 0.0004306688    1.043    0.041
        38 -13.3234     66.6142    171.5650   1.2987505129e+02   3.1402673522e+01    0.5298914    0.2863412 -45.83  0.001821439    2.169    0.539
        39 -10.4696    102.7802    172.4757   1.2120939805e+02   2.5521639451e+01     0.680755    0.2022587  50.17  0.001922194    4.397    0.773
        40 -12.2108     86.4265    165.6389   1.2404969225e+02   2.9893328055e+01     1.003266    0.6117489  60.43  0.004534215    1.882    0.469
        41 -12.9027     67.9064    144.6373   1.2512163014e+02   3.7785504519e+01     1.077098     0.657361 -88.74   0.00296507    2.201    0.546
        42 -11.9365     58.6082    133.7732   1.2566125691e+02   4.1656224185e+01     2.947293    0.9504101 -71.49  0.005440496   11.709    0.915
        43 -10.8114    230.8116    168.0827   9.2076323027e+01   1.2924473469e+00    0.3106555    0.1834749 -49.83  0.001428242    1.808    0.447
        44  -9.7835     99.1251    149.6635   1.1780772661e+02   3.1676872178e+01    0.2985631     0.263373 -28.23 0.0007014191    1.316    0.240
        45  -9.0191    102.2678    145.5954   1.1614603934e+02   3.2112535704e+01    0.2986369    0.1819347 -33.78  0.001213916    2.169    0.539
        46 -12.1467     87.9159    148.8519   1.2059114927e+02   3.3751980093e+01    0.3009339    0.2548849 -41.24 0.0005029838    1.271    0.213
        47 -11.1702     38.7916    146.6502   1.3312958977e+02   4.0843949977e+01    0.3241338    0.2096468  51.11   0.00117758    1.714    0.417
        48 -13.0393     28.4458    141.6593   1.3508396348e+02   4.3065932949e+01    0.6912157    0.4921742  79.05   0.00405391    1.485    0.327
        49 -11.9363     62.6780    217.5018   1.3652642322e+02   2.1332519678e+01    0.5572976     0.229687  49.35  0.001561777    2.195    0.544
        50  -9.5528    110.4668    135.5060   1.1176645021e+02   3.3039649403e+01    0.3288797    0.2269406 -15.49  0.001238512    2.335    0.572
        51  -9.0789    107.1913    122.8377   1.0967773186e+02   3.6636746465e+01      0.20644    0.1936766 -77.68 0.0002892364    1.086    0.079
        52 -10.6198     97.6810    132.6313   1.1457395936e+02   3.6042177695e+01    0.2831457    0.2426092 -28.05 0.0009810212    1.306    0.234
        53 -11.1296    168.0531    113.0338   9.1923582864e+01   2.5770495977e+01    0.3742036    0.3105268 -81.08 0.0009548583    1.372    0.271
        54  -9.6061    204.4891    110.8961   8.4017750184e+01   1.7780501646e+01    0.4096505     0.200414  38.01  0.001465556    2.848    0.649
        55 -11.0047      1.6464     88.6210   1.3441085523e+02   5.7066233992e+01    0.4397044   0.09187178 -63.76  0.001696023    3.323    0.699
        56 -11.4240      2.4208     79.8019   1.3251301102e+02   5.8880571698e+01    0.6060572   0.07913196 -61.17  0.002099799    4.200    0.762
        57  -9.4009    157.4936     77.4988   8.4715430488e+01   3.5157671781e+01    0.1485334    0.1442747  70.55 -6.551685e-06    1.014    0.014
        58  -8.8936    109.0234     42.5239   8.5545233713e+01   5.1595027853e+01    0.1914665    0.1256587  51.89 0.0004601532    1.479    0.324
        59 -11.0870    247.1777    249.1325   1.0448716233e+02  -1.4141295727e+01    0.4049419    0.1518468  37.95  0.001950043    2.509    0.601
        60 -10.8426    190.8405    249.5856   1.1500481262e+02  -5.7360171748e+00    0.3098627    0.1066528  38.42   0.00128204    2.522    0.604
        61 -11.5789    133.9570    246.9368   1.2576026445e+02   4.2102357902e+00    0.4196982    0.2746404 -87.97  0.002144204    2.230    0.552
