#   1 NUMBER                 Running object number                                     
#   2 MAG_AUTO               Kron-like elliptical aperture magnitude                    [mag]
#   3 X_IMAGE                Object position along x                                    [pixel]
#   4 Y_IMAGE                Object position along y                                    [pixel]
#   5 X_WORLD                Barycenter position along world x axis                     [deg]
#   6 Y_WORLD                Barycenter position along world y axis                     [deg]
#   7 A_WORLD                Profile RMS along major axis (world units)                 [deg]
#   8 B_WORLD                Profile RMS along minor axis (world units)                 [deg]
#   9 THETA_WORLD            Position angle (CCW/world-x)                               [deg]
#  10 FWHM_WORLD             FWHM assuming a gaussian core                              [deg]
#  11 ELONGATION             A_IMAGE/B_IMAGE                                           
#  12 ELLIPTICITY            1 - B_IMAGE/A_IMAGE                                       
         1 -14.0841      8.1369    207.3638   1.5260115842e+02   3.0945069029e+01     8.062503    0.5703066  32.84   0.03375047    3.945    0.747
         2 -14.5129      2.9868    176.3224   1.5292432534e+02   3.7260897918e+01       8.7298    0.5768542 -82.49  0.002987608   10.998    0.909
         3 -14.4956     16.8569    167.3783   1.4934383029e+02   3.8052541127e+01     4.580349      1.34952  73.66   0.01763729    3.944    0.746
         4 -12.3817      2.6294     40.4764   1.4450113843e+02   6.8875787901e+01     1.034158    0.2927804 -86.29  0.003524106    4.184    0.761
         5 -12.9659      9.8971      5.5814   1.2970426421e+02   7.6633063352e+01     1.164469    0.7092444 -48.16   0.00686682    1.313    0.238
         6 -13.2531    190.8786     28.2486   7.1385777884e+01   3.3446001331e+01     1.373115     1.150575  61.85  0.006435777    1.192    0.161
         7 -13.6143    204.5258      9.8401   6.4460892408e+01   3.1843442245e+01     1.636127     1.081505  38.90  0.008204908    1.807    0.447
         8 -12.4646      2.3735      9.2533   1.3772130888e+02   7.6139441382e+01     1.452826    0.3299123 -71.56  0.005121622    4.073    0.754
         9  -9.0842     72.4922    240.5229   1.4127106077e+02   1.8871755019e+01    0.1748698    0.1053104 -76.22  0.001195443    2.111    0.526
        10 -11.5399    139.6838    248.8201   1.2902520132e+02   9.2171065943e+00    0.3726642    0.2530121  49.75  0.002625093    1.527    0.345
        11 -10.8526    122.1257    249.8510   1.3243630700e+02   1.1384919757e+01    0.3145601    0.1106876  37.66  0.001658591    1.924    0.480
        12 -10.7538    102.1230    247.1437   1.3601984839e+02   1.4306618728e+01    0.2161186     0.167915  69.70 0.0009160658    1.517    0.341
        13 -10.0125     81.2452    248.4902   1.4009877035e+02   1.6658092828e+01    0.3124468    0.1382368  60.34  0.001730959    2.577    0.612
        14 -10.0388     29.2547    249.6612   1.4977224283e+02   2.2042088101e+01    0.2926412     0.104074  49.78  0.001029149    1.811    0.448
        15 -11.0329     35.2290    244.8732   1.4853128879e+02   2.2196905523e+01    0.3925819    0.2796823 -51.01  0.002991429    2.237    0.553
        16  -9.8138     25.5186    247.4475   1.5037480687e+02   2.2730897914e+01    0.2309333   0.08166143  50.84  0.001350424    1.837    0.455
        17 -11.1994      2.4052    248.6421   1.5444834676e+02   2.4579375777e+01    0.7128845    0.2374066  39.02   0.00466289    1.834    0.455
        18 -10.3901      5.9197    241.0083   1.5371475396e+02   2.5464349584e+01    0.1883594    0.1520937  30.75  0.000449675    1.470    0.320
        19 -10.7317      2.1731    240.6519   1.5436916124e+02   2.5829887149e+01    0.3273534    0.1136993  89.33  0.001986574    2.911    0.657
        20 -10.6558    233.0820    235.9469   1.1077044800e+02  -1.6761899644e+00    0.2340237     0.168298 -45.87  0.001530122    3.116    0.679
        21 -12.1963     21.4445    200.6860   1.4964174954e+02   3.1038239064e+01      0.72338     0.094758  41.10  0.002239299    3.168    0.684
        22 -10.1825    249.9816    248.8348   1.0988492984e+02  -4.7845715417e+00    0.1754695    0.1150419  -0.85  0.001409751    1.273    0.214
        23  -9.0429    162.3105    249.3090   1.2487092918e+02   6.1526753358e+00    0.1100091   0.06820393  14.98 0.0003828244    1.621    0.383
        24  -9.8604     46.6468    248.6206   1.4657951241e+02   2.0474364487e+01    0.2596601    0.1143813  59.97  0.001021887    1.962    0.490
        25  -9.6808    229.2984    229.4844   1.1046444442e+02  -5.9186251228e-01    0.1495829    0.1299428 -24.15  0.001170828    1.842    0.457
        26  -8.5454     94.1466    216.2094   1.3501109758e+02   2.0076429664e+01    0.1641013    0.1071285  52.65 0.0002085902    1.354    0.261
        27  -8.6803    152.4697    212.9875   1.2238648565e+02   1.2238837057e+01    0.1413157    0.1235162 -36.08 0.0004223937    1.467    0.319
        28  -9.1755     32.9167    207.3345   1.4748431945e+02   2.8740372037e+01    0.1807348     0.114362  63.19 0.0005329278    1.298    0.230
        29 -11.2441     65.9199    198.5938   1.3971214923e+02   2.6782921498e+01    0.3020625    0.2270605 -42.57  0.001565944    1.868    0.465
        30  -9.6903    191.5610    192.4445   1.1148315399e+02   9.0346527484e+00    0.4384073    0.2618922 -60.82  0.001685824    5.436    0.816
        31  -8.7448     51.4350    197.2449   1.4288720893e+02   2.8705576097e+01     0.145231   0.09544633  73.50 0.0003573926    1.466    0.318
        32 -11.5249     71.3930    190.7577   1.3779326152e+02   2.7604329070e+01    0.2396981    0.2304209   8.87 0.0004807666    1.318    0.241
        33 -10.7010     80.7088    178.0150   1.3429115587e+02   2.8909942078e+01    0.2210787    0.2053045  54.75 0.0004059268    1.124    0.111
        34 -13.0513     67.9767    175.9292   1.3723765666e+02   3.0992112383e+01    0.4613445    0.2818081 -42.63  0.001814712    2.304    0.566
        35  -8.2869    171.0481    173.0348   1.1231214165e+02   1.5276605218e+01    0.1612967    0.1319465  24.18 0.0002984905    1.012    0.012
        36  -8.3908    250.6966    171.6727   9.7366682038e+01   2.5022393730e+00     0.125222   0.07304271   6.77 0.0002884825    1.646    0.392
        37 -11.7489     87.9700    168.3220   1.3132719684e+02   2.9881019592e+01    0.6373897     0.532764  40.61   0.00390581    1.074    0.069
        38 -11.3844      2.3332    152.5299   1.5240166956e+02   4.2272699231e+01    0.3786544    0.2102063  69.49  0.002292884    1.484    0.326
        39 -12.4315     40.7471    233.2426   1.4703899016e+02   2.3489507012e+01    0.2453637    0.2261357  48.37 0.0007666308    1.362    0.266
        40 -10.9541     32.2954    156.0786   1.4477190377e+02   3.9166967898e+01    0.2898962     0.152898 -76.88  0.001555733    1.828    0.453
        41  -8.8878    180.0725    142.8680   1.0447515077e+02   1.8496235483e+01    0.1978659    0.1841734  45.53 0.0003401358    1.257    0.204
        42 -10.5771    189.4221    152.9227   1.0463287835e+02   1.5116466448e+01    0.4194125    0.3242609 -87.54   0.00142342    2.725    0.633
        43  -9.6324    183.5049    146.7516   1.0457513660e+02   1.7201801063e+01    0.2458444     0.218258  79.43 0.0005917316    1.644    0.392
        44  -9.8194     99.7681    152.3700   1.2597240718e+02   3.1459412428e+01     0.286952    0.2622371  39.34 0.0008320548    1.058    0.054
        45  -9.0265    102.8394    148.0771   1.2444727836e+02   3.1883966842e+01    0.2483541    0.1748337 -27.84 0.0009253055    1.946    0.486
        46 -11.9492     88.5247    151.7854   1.2893968167e+02   3.3324757054e+01    0.2730505     0.251796   0.98 0.0005983514    1.273    0.214
        47 -12.4318     67.3151    144.2772   1.3387011374e+02   3.7979826837e+01     0.811469    0.5196355  71.25  0.004088616    1.730    0.422
        48  -8.5209    192.0004    143.9759   1.0224837530e+02   1.6018881914e+01    0.1652233    0.1426551  -4.36 0.0003720568    1.100    0.091
        49  -9.5590    110.6659    137.0757   1.2033577633e+02   3.2930482374e+01    0.3482879    0.2303676 -24.69   0.00111249    2.217    0.549
        50 -11.4607     58.4947    134.5388   1.3521998785e+02   4.1353182943e+01    0.5941316     0.280515  87.25  0.002261665    3.139    0.681
        51 -11.6995     24.6328    137.2284   1.4557004070e+02   4.4111900195e+01    0.5562559    0.1147596  38.30  0.002133421    3.352    0.702
        52 -10.4817     98.0673    134.6200   1.2344958685e+02   3.5635286679e+01    0.2761479    0.2398854  -9.36 0.0005489349    1.385    0.278
        53  -9.9941     86.6218    136.5400   1.2711389886e+02   3.7028150581e+01    0.2769308    0.2056217  60.50 0.0005634775    1.381    0.276
        54 -10.0436    163.2192    127.6523   1.0482658643e+02   2.4532871897e+01    0.4167945     0.307094  87.10  0.001549144    2.463    0.594
        55 -14.5330     46.8075    225.7218   1.4550232951e+02   2.4105930215e+01     3.777086     1.384376  30.10  0.007592238    2.343    0.573
        56  -9.4400    110.2947    225.6413   1.3251955045e+02   1.6402341608e+01    0.1193103     0.072676  55.85 0.0007031761    1.699    0.411
        57  -9.4561    107.5209    124.0271   1.1862998132e+02   3.6370820600e+01    0.2068101    0.1865144  40.05 0.0001222196    1.044    0.043
        58 -10.4212    168.0001    113.2138   1.0025607085e+02   2.6121378980e+01    0.3350681    0.3021109  87.23 0.0009342321    1.409    0.290
        59  -9.2493    203.1649    111.3172   9.2611928016e+01   1.8838789652e+01    0.2292564    0.1649437  24.93  0.000754797    1.424    0.298
        60 -10.7114    173.7646    222.3241   1.1941551881e+02   7.8334573288e+00    0.3331135    0.2638673  51.80  0.002262706    1.680    0.405
        61  -9.8026     35.0177     93.1779   1.3749515896e+02   5.3980935835e+01    0.3724795    0.1755821  42.13  0.001500061    2.161    0.537
        62  -9.0730    155.6173     76.1746   9.2813214604e+01   3.5681565316e+01    0.2253326    0.1505223 -20.32 0.0007307314    1.732    0.423
        63 -10.7727     15.1322     65.7967   1.4183885176e+02   6.2218108129e+01    0.3604488    0.2217662  34.57   0.00105434    1.793    0.442
        64 -11.4782      5.1213     62.7459   1.4609703946e+02   6.3384055095e+01    0.4613789     0.287839  11.02  0.001370021    1.890    0.471
        65  -9.0636     31.7512     61.6482   1.3318665876e+02   6.2153536211e+01    0.2157511    0.1629634  34.92 0.0006778028    1.452    0.311
        66  -8.5887     23.8407     58.6394   1.3642847405e+02   6.3487652526e+01    0.1708296     0.114294  34.05 0.0004421548    1.654    0.396
        67 -10.1566    198.9482    246.4881   1.1796888129e+02   1.6364259113e+00     0.211755     0.151043 -58.99  0.001293451    3.643    0.726
        68  -9.9591     98.5006    250.0641   1.3693476795e+02   1.4348700569e+01    0.2428817    0.1131797  32.15  0.001360886    1.647    0.393
        69 -10.3941     12.7475     55.0010   1.4134269783e+02   6.5001048573e+01    0.1775553    0.1514768 -68.67 0.0004287377    1.024    0.023
        70 -10.1287     81.8472    242.2320   1.3956842259e+02   1.7509371087e+01    0.2814939    0.1259279  54.37  0.001611434    2.066    0.516
        71 -11.2012     12.1930    240.0813   1.5257882249e+02   2.5076090201e+01    0.4294053    0.1189326  59.13  0.002148924    2.575    0.612
