#   1 NUMBER                 Running object number                                     
#   2 MAG_AUTO               Kron-like elliptical aperture magnitude                    [mag]
#   3 X_IMAGE                Object position along x                                    [pixel]
#   4 Y_IMAGE                Object position along y                                    [pixel]
#   5 X_WORLD                Barycenter position along world x axis                     [deg]
#   6 Y_WORLD                Barycenter position along world y axis                     [deg]
#   7 A_WORLD                Profile RMS along major axis (world units)                 [deg]
#   8 B_WORLD                Profile RMS along minor axis (world units)                 [deg]
#   9 THETA_WORLD            Position angle (CCW/world-x)                               [deg]
#  10 FWHM_WORLD             FWHM assuming a gaussian core                              [deg]
#  11 ELONGATION             A_IMAGE/B_IMAGE                                           
#  12 ELLIPTICITY            1 - B_IMAGE/A_IMAGE                                       
         1 -15.4683    241.7165     13.1112   3.3063940420e+01   2.4548597595e+01     2.637889     1.240862 -51.66   0.01413288    1.759    0.432
         2 -13.5896     11.5267     23.9502   9.1479192426e+01   7.0685824990e+01    0.6989468     0.309165 -25.30  0.003472121    2.424    0.587
         3 -12.3107     12.8090     13.0567   8.5788982558e+01   7.2296672190e+01    0.3275515    0.2111682 -25.12  0.002191614    1.240    0.194
         4 -13.3005      5.9552     11.3291   8.8897409274e+01   7.3160827108e+01    0.8146753    0.3821036 -26.98  0.004581328    1.917    0.478
         5 -12.4208      8.5887      1.9801   8.2438935043e+01   7.4258433328e+01    0.8045225    0.1764661  30.18   0.00328509    4.594    0.782
         6 -12.4187     15.4018      6.8565   8.1141148334e+01   7.2916988548e+01    0.4789513    0.2589864  -5.18   0.00269762    2.073    0.518
         7 -13.3165     24.2901      4.3632   7.4958483705e+01   7.2210831066e+01    0.5669367    0.3095791  21.27  0.003386723    1.751    0.429
         8 -12.6014     19.3763     14.3547   8.2816188094e+01   7.1448680876e+01    0.3709872    0.1950507 -17.81   0.00204179    1.981    0.495
         9 -12.0646      1.6783     24.9444   9.7273524768e+01   7.1230361172e+01    0.4877162    0.1224442 -54.12  0.002045252    3.370    0.703
        10 -12.1074    182.7431      2.6205   3.5502533847e+01   3.8960452472e+01    0.2429171    0.1501731  88.62  0.001322536    1.488    0.328
        11 -10.9197    118.9792      3.2390   4.4123284018e+01   5.4261021976e+01    0.1792894    0.0959236  65.42 0.0008896855    1.641    0.391
        12 -12.7985    160.5500      2.6974   3.7904617609e+01   4.4306120459e+01    0.4628942     0.170092  77.87  0.001823082    2.767    0.639
        13 -11.8600     40.5513      2.9746   6.6417516636e+01   7.0089735420e+01    0.3181668    0.1318031  31.30  0.001544379    2.398    0.583
        14 -11.4916      2.9529     33.5895   9.9736514337e+01   6.9587041707e+01    0.2462627    0.1110668 -41.44  0.001372756    1.674    0.403
        15 -12.1829    248.9942    225.3125   7.6603993456e+01  -8.7496515209e+00      0.39902    0.2155335 -21.13  0.002106975    1.763    0.433
        16 -13.0049    234.5032    244.3169   8.2287255283e+01  -9.2886926554e+00    0.6835901    0.3076372 -25.22  0.003538334    2.388    0.581
        17 -11.6543    249.9034    232.9872   7.7769672850e+01  -9.8540219501e+00    0.3349704    0.1990036 -15.96  0.001642686    1.554    0.357
        18 -12.0447    240.3327    239.1795   8.0436824311e+01  -9.4028225955e+00    0.3397202    0.1912435 -12.52  0.001364871    1.865    0.464
        19 -12.8590    244.5944    232.4112   7.8570957660e+01  -9.0955871203e+00    0.5965547    0.2107774 -27.36  0.002588355    3.197    0.687
        20 -12.5865    243.1045    245.4492   8.0990463855e+01  -1.0534066325e+01     0.583571     0.291519 -19.86  0.003249653    2.087    0.521
        21 -12.1361    247.6787    239.0949   7.9170680661e+01  -1.0333843133e+01    0.4481005    0.2464151 -15.01  0.001896192    1.821    0.451
        22 -11.4256    249.0107    250.1380   8.0749545943e+01  -1.1822582582e+01    0.3758548    0.1766389  26.52  0.002116052    1.883    0.469
        23 -11.2097    248.8842    245.1341   7.9961980703e+01  -1.1217327018e+01    0.3020189    0.2019314  -7.48  0.001820144    1.270    0.213
        24 -12.3867    225.8474    248.1631   8.4421444444e+01  -8.6290305531e+00    0.3368624    0.2286538  13.12  0.001832777    1.249    0.199
        25 -11.4138    203.2973    249.3406   8.8677383447e+01  -5.6704908197e+00    0.2607127    0.1652267   6.88  0.001511929    1.710    0.415
        26 -10.8137    183.8237    250.3819   9.2471651074e+01  -2.9857400018e+00     0.179335   0.09590188  27.65 0.0009481435    1.705    0.414
        27 -11.5211    168.8457    250.4082   9.5335080086e+01  -7.4748080063e-01    0.3158359    0.1016949  35.49   0.00129917    2.697    0.629
        28 -10.7778     87.5100    250.5143   1.1120487071e+02   1.1409087628e+01    0.2581641    0.1003456  38.06  0.001218317    2.193    0.544
        29 -11.3903     74.2319    250.3546   1.1373014772e+02   1.3266900015e+01    0.3408605    0.1187729  42.04  0.001609787    2.243    0.554
        30 -11.7400     65.0064    249.1802   1.1537740081e+02   1.4709070021e+01    0.4015191    0.1754396  50.30  0.002119652    1.849    0.459
        31 -11.2726     50.5001    250.1357   1.1814857019e+02   1.6372577057e+01    0.3973624    0.1253941  40.38  0.001893552    2.482    0.597
        32 -11.7583     36.6516    248.7151   1.2057164598e+02   1.8294164169e+01    0.4391976    0.1809513  54.89  0.002393378    1.941    0.485
        33 -11.6291     20.2040    249.1478   1.2350427687e+02   2.0042910345e+01     0.364956    0.1565533  50.87  0.001955419    1.755    0.430
        34 -11.5414     11.8737    248.9927   1.2492941308e+02   2.0941864760e+01    0.3464735    0.1593714  53.60  0.001898615    1.624    0.384
        35 -10.9544      3.5346    250.3196   1.2639162678e+02   2.1528710474e+01    0.2775544    0.1405336  30.61  0.001707766    2.388    0.581
        36 -12.0341      3.2845    243.2131   1.2613212921e+02   2.2883939731e+01     0.433342    0.1976572  72.38  0.002324024    1.785    0.440
        37 -12.8347    226.4764    240.7699   8.3122214579e+01  -7.7618756790e+00    0.3434033    0.2050438   4.65  0.001946058    1.814    0.449
        38 -11.6962     72.2877    240.2585   1.1321404724e+02   1.5429273542e+01    0.3335491    0.1616947  53.09  0.001745286    1.783    0.439
        39 -10.7687     38.1367    240.5714   1.1977403686e+02   1.9680500646e+01    0.2825819    0.1332694  58.58  0.001524019    1.779    0.438
        40 -12.3577     97.3155    245.1235   1.0875631261e+02   1.0987309398e+01    0.4661754    0.1713225  48.78  0.002062364    2.403    0.584
        41 -12.3036    116.0296    244.5094   1.0497122199e+02   8.3144019871e+00    0.3284577    0.1658366  49.81  0.001664253    1.796    0.443
        42 -10.5311     64.8520    240.1312   1.1465548139e+02   1.6447553749e+01      0.20125    0.1309271  63.76  0.001231018    1.329    0.248
        43 -11.2025    214.8479    239.2139   8.4964496211e+01  -5.9339778426e+00    0.1745982    0.1213907   6.26  0.001075485    1.353    0.261
        44 -10.3537    150.3409    238.3148   9.7282914916e+01   4.0486140280e+00     0.127709   0.09373627   6.36  0.000704769    1.704    0.413
        45 -11.3709     44.9150    237.3639   1.1827481191e+02   1.9505513641e+01    0.2931603    0.1411592  58.46  0.001599457    1.789    0.441
        46 -11.4814      6.4790    236.2878   1.2526482191e+02   2.3906207924e+01    0.3403489    0.1687763  70.97  0.001718497    1.622    0.384
        47 -11.2813     81.9680    236.3917   1.1092383851e+02   1.4838280822e+01    0.3505495    0.1512283  55.38   0.00160599    2.310    0.567
        48 -11.5059     95.1797    235.6246   1.0817091346e+02   1.3080270893e+01    0.3384048    0.1412223  52.03  0.001506027    2.315    0.568
        49  -9.4444      1.3001    235.3236   1.2612812806e+02   2.4590560566e+01    0.0943806    0.0757244 -65.73 0.0004822848    1.630    0.387
        50 -11.4104    120.5667    239.1792   1.0342056444e+02   8.5742651682e+00    0.2563826   0.07825409  40.29  0.001005215    2.691    0.628
        51 -11.3612     14.1060    231.9592   1.2367927899e+02   2.4001504552e+01    0.3435311    0.1810874  64.21  0.002074132    1.515    0.340
        52 -11.0862     59.4029    232.0368   1.1503198321e+02   1.8756744338e+01    0.3274796    0.1382736  54.46  0.001576734    2.140    0.533
        53 -11.2227     39.5145    230.7921   1.1883277352e+02   2.1460784836e+01    0.3345475    0.1642955  63.18  0.001810146    1.839    0.456
        54 -11.9527    107.5284    240.3805   1.0620023860e+02   1.0345552491e+01    0.3998251     0.175312  50.67   0.00184962    2.149    0.535
        55 -10.8300     48.4415    230.4197   1.1706495243e+02   2.0465377893e+01    0.2937086    0.1284527  64.75  0.001385083    2.409    0.585
        56 -12.1629     25.6892    228.7956   1.2134195969e+02   2.3424051021e+01    0.4488551    0.2225513  74.52  0.002497818    1.855    0.461
        57 -11.6938      4.6557    228.2999   1.2520564431e+02   2.5660476123e+01     0.384861    0.1736876  65.85  0.002036673    1.815    0.449
        58 -12.1942    237.2861    228.1711   7.9106846037e+01  -7.5633006700e+00    0.3750682    0.2035815 -17.83  0.002019227    1.954    0.488
        59 -12.4772    231.9077    234.4016   8.1107706407e+01  -7.6621920212e+00    0.3510513    0.2209518  -5.39  0.001859715    1.612    0.379
        60 -10.3204    229.4088    226.7783   8.0255633070e+01  -6.2813034036e+00     0.170542     0.100258 -21.67 0.0009360833    1.686    0.407
        61 -11.1014     11.0225    225.9219   1.2391952788e+02   2.5524063893e+01    0.3235076    0.1531306  63.71  0.001622273    1.744    0.427
        62  -9.9717    224.2964    225.3235   8.0922393733e+01  -5.3481767022e+00    0.1269695   0.08220541   0.05 0.0003193031    1.622    0.384
        63 -11.2337     18.6099    221.8723   1.2225844268e+02   2.5591033553e+01    0.3002239    0.1517652  69.97  0.001707739    1.721    0.419
        64 -11.5129      2.1608    220.6054   1.2528231638e+02   2.7452226359e+01    0.3133273    0.1493847  85.02  0.001643851    1.752    0.429
        65 -10.8245     43.5057    221.0312   1.1729912060e+02   2.3001952143e+01    0.2540833    0.1305236  53.47   0.00138299    1.666    0.400
        66 -12.5316    248.5731    214.8321   7.4822234418e+01  -7.2876120974e+00     0.502077    0.2379415 -21.26  0.002445487    2.301    0.565
        67 -11.8763    239.3376    219.0396   7.7155214795e+01  -6.5983103996e+00    0.2697634    0.1599652 -14.53   0.00149815    1.720    0.418
        68 -10.6906    227.3029    217.8313   7.9068725097e+01  -4.7087043875e+00    0.2241167    0.1936542 -38.74  0.001479448    1.469    0.319
        69 -11.6501     12.0129    216.9454   1.2322888627e+02   2.7277803492e+01    0.4078608    0.1977453  60.46  0.002341088    1.723    0.420
        70 -10.4588     24.3297    217.6283   1.2087503784e+02   2.5881159131e+01    0.1990885    0.1022888  64.76  0.001106615    1.701    0.412
        71 -11.5488     34.8672    216.6722   1.1870298777e+02   2.4929126825e+01    0.2780293     0.086751  53.66  0.001157905    2.965    0.663
        72 -11.4192      2.4052    212.3869   1.2481521415e+02   2.9135702262e+01    0.3086097    0.1518002  78.41  0.001660939    1.705    0.414
        73 -10.0698    233.5144    211.4836   7.6819613746e+01  -4.6913323155e+00    0.1277114    0.1016949  -1.63 0.0002057122    1.052    0.049
        74 -10.7072     28.6084    210.8278   1.1953523731e+02   2.6876226803e+01    0.1778336   0.09354459  87.58 0.0009518241    1.762    0.432
        75 -10.3950    240.2949    206.5485   7.4728895815e+01  -4.9558350337e+00    0.2187585   0.09945985 -34.47  0.001065399    2.035    0.509
        76 -10.0329     35.9790    207.4991   1.1774779383e+02   2.6787127660e+01    0.1857678   0.06862767  54.01 0.0008100796    2.537    0.606
        77 -12.3291     12.4507    205.0357   1.2241568670e+02   2.9776279845e+01    0.4569201    0.1953298  57.58  0.002380745    2.062    0.515
        78 -10.2912    246.9967    205.5469   7.3397106401e+01  -5.7676906889e+00    0.2236278    0.1114763 -27.62  0.001141429    1.866    0.464
        79 -10.4290    250.5044    200.4663   7.1863461086e+01  -5.5325996530e+00    0.2508834    0.1058243 -34.89  0.001198666    2.122    0.529
        80 -10.6820    243.4233    199.7789   7.2929469746e+01  -4.4158128871e+00    0.1815766    0.1025123 -23.89 0.0009522348    1.677    0.404
        81 -12.1209      3.3775    197.0721   1.2376081716e+02   3.2342728632e+01    0.3736853     0.184729  75.06  0.002072653    1.767    0.434
        82 -10.6647     16.8722    189.7283   1.2042300483e+02   3.2760783264e+01    0.2528495    0.1190348  74.21  0.001235805    2.123    0.529
        83 -12.0127      4.0897    188.8327   1.2310007244e+02   3.4111558800e+01    0.3939661     0.164701  65.69  0.001931675    2.307    0.567
        84 -10.2814     24.4856    186.9740   1.1852305043e+02   3.2647931486e+01    0.1891452   0.08324173  78.56 0.0008103905    2.598    0.615
        85 -11.7521     11.3273    184.0709   1.2121067218e+02   3.4562714264e+01    0.2998163    0.1250116 -85.69   0.00142574    2.152    0.535
        86 -10.5373      5.4122    183.1852   1.2244017339e+02   3.5276821379e+01    0.1774693   0.08948109  86.83 0.0009467449    1.708    0.414
        87 -11.2228      1.7975    177.8668   1.2286685828e+02   3.6787292999e+01    0.2871558    0.1288382 -88.12   0.00146487    1.896    0.473
        88 -10.3061      5.6556    161.3259   1.2073487822e+02   4.0342167227e+01    0.1322474   0.07352221  67.52 0.0005702781    1.742    0.426
        89 -11.2845      6.4980    171.4460   1.2134391650e+02   3.7894933461e+01    0.2621821   0.09854501 -77.91  0.001212337    2.173    0.540
        90 -10.8328    250.0000    151.0054   6.2118224989e+01   2.2213762274e+00    0.2267891   0.06527084 -37.63 0.0008053323    2.963    0.662
        91 -10.7754      4.0000    136.9875   1.1893339634e+02   4.6293503629e+01    0.2149682   0.05725817 -74.25 0.0008056837    2.965    0.663
        92 -11.3599    248.3266    129.9625   5.7896749477e+01   5.9927687010e+00     0.301273    0.1791037 -50.08  0.001490167    1.722    0.419
        93 -11.4403    241.8633    125.5787   5.7905279133e+01   7.9050041929e+00    0.2523969    0.1396123 -40.64  0.001207914    1.554    0.357
        94 -11.8122    247.9904    112.7590   5.4194699184e+01   8.9162131211e+00    0.3304047    0.1818684 -52.71  0.001161419    1.916    0.478
        95 -12.0984    248.7890    118.6773   5.5378469440e+01   7.7876570767e+00    0.4431647    0.1679704 -41.32  0.001815581    2.212    0.548
        96 -12.0630    243.8524    109.3553   5.4020208511e+01   1.0262904361e+01    0.2470686    0.1425115 -42.26 0.0008685236    1.478    0.324
        97 -13.0624    243.0370     98.4415   5.1693368650e+01   1.2226325674e+01     0.453829     0.320286 -85.10  0.002356144    1.894    0.472
        98 -10.0057    236.3212    107.6577   5.4714626275e+01   1.2013610909e+01    0.1448603   0.09859965 -63.01 0.0006714471    1.724    0.420
        99 -11.3960    248.4812    106.9845   5.2857600491e+01   9.7761454764e+00    0.2377646      0.17819 -67.70 0.0008954949    1.548    0.354
       100 -11.9362    249.2018     97.8812   5.0757025074e+01   1.1121849159e+01    0.3341407    0.2099285 -58.54  0.001704332    1.705    0.414
       101 -11.9686    247.4767    102.9763   5.2108416029e+01   1.0623634257e+01    0.3468264    0.1772196 -52.49  0.001189814    2.031    0.508
       102 -11.6473    242.7592     92.9436   5.0495784850e+01   1.3177797302e+01     0.269317    0.1599658 -50.71  0.001143781    1.556    0.357
       103 -10.8328    237.1768     90.2041   5.0612771228e+01   1.4747100043e+01    0.2001226    0.1439776 -57.95  0.001073321    1.356    0.263
       104 -12.3073    243.9272     88.2564   4.9293291475e+01   1.3700088532e+01    0.3733893    0.2018835  73.99  0.001676345    2.590    0.614
       105 -12.3019    249.4986     87.9865   4.8539106732e+01   1.2645182554e+01    0.4611217    0.2075474 -31.13  0.001972825    2.271    0.560
       106 -12.1024    246.5917     84.7872   4.8187119678e+01   1.3721038101e+01    0.2501492    0.1716622 -68.39 0.0009339747    1.621    0.383
       107 -12.5649    248.7349     74.7529   4.5714742842e+01   1.4849573584e+01     0.451248    0.1622972 -45.09  0.001864743    2.319    0.569
       108 -10.2167    239.6634     81.3230   4.8267150154e+01   1.5664253814e+01    0.1439511   0.09181368 -63.85 0.0007050806    1.714    0.417
       109 -10.6038    239.5149     72.5022   4.6284677064e+01   1.7068600746e+01    0.1365675    0.1137559 -55.64  0.000125425    1.029    0.029
       110 -12.3181    249.6139     66.7989   4.3873895921e+01   1.5867818762e+01     0.526905    0.1138644 -45.57   0.00172772    3.803    0.737
       111 -11.9093      2.9200     50.2769   1.0485079455e+02   6.6326793169e+01    0.4120703    0.1095355 -55.66  0.001811346    2.524    0.604
       112 -12.9591    213.0583    247.7468   8.6646662828e+01  -6.8314119082e+00    0.5679566     0.288183  16.11  0.002803664    2.380    0.580
       113 -11.5643     18.0090     31.4867   9.1188496872e+01   6.8841331479e+01    0.2334901    0.1290667 -22.40  0.001298413    1.777    0.437
       114 -10.8313    109.9811    248.9628   1.0667214361e+02   8.4348657061e+00    0.2028091    0.1263188  61.29  0.001136107    1.678    0.404
       115 -10.6593     26.9154    248.7523   1.2230852362e+02   1.9388423908e+01    0.2203403    0.1063484  54.89  0.001330701    1.592    0.372
       116 -12.8524    143.1119    247.7737   9.9996852185e+01   3.6046032071e+00    0.4443417    0.2055364  37.01  0.002193396    1.822    0.451
       117 -12.4020    194.9862    245.6059   8.9653813924e+01  -3.9509770426e+00    0.3287036    0.2000021   6.71  0.001753687    2.027    0.507
       118 -11.3669     44.4387    244.9665   1.1890423060e+02   1.8086693092e+01    0.3114729    0.1599848  56.11  0.001815805    1.574    0.365
       119 -11.8540    158.5148    245.5220   9.6663319618e+01   1.5884784070e+00    0.2707847    0.1048832  37.78  0.001211275    2.170    0.539
       120 -11.8994     25.9730     16.6699   8.0505238683e+01   7.0381554662e+01    0.2301412    0.1351644 -15.17  0.001334954    1.669    0.401
       121 -11.1701     34.5461     16.3013   7.6097882128e+01   6.9364157589e+01     0.217395    0.1263237  13.20  0.001206934    1.838    0.456
       122 -12.1390     84.0270    244.6433   1.1132181836e+02   1.2976950163e+01    0.3167952    0.1617052  52.60  0.001690579    1.696    0.411
       123 -11.8279    178.7208    243.6371   9.2455465038e+01  -1.2266548486e+00    0.3036768    0.1703519  21.20  0.001546212    1.953    0.488
       124 -11.7294      2.4815     40.5440   1.0224331979e+02   6.8291220301e+01    0.3585711     0.134983 -48.46  0.001849895    1.897    0.473
       125 -12.1814    127.0133    247.9652   1.0319953904e+02   6.0423431748e+00    0.3225678    0.1492959  44.58  0.001598488    1.819    0.450
       126 -11.9325     57.1883    242.0762   1.1629257667e+02   1.7064129429e+01    0.4319268     0.188019  56.75  0.002163491    2.063    0.515
       127 -11.7779     29.5213    240.6586   1.2136679741e+02   2.0646048874e+01    0.4106309    0.1851712  67.17  0.001974574    2.028    0.507
       128 -12.1201     15.8416    240.4158   1.2381559586e+02   2.2163634415e+01    0.5297256     0.200751  50.93  0.002470508    2.002    0.500
