#   1 NUMBER                 Running object number                                     
#   2 MAG_AUTO               Kron-like elliptical aperture magnitude                    [mag]
#   3 X_IMAGE                Object position along x                                    [pixel]
#   4 Y_IMAGE                Object position along y                                    [pixel]
#   5 X_WORLD                Barycenter position along world x axis                     [deg]
#   6 Y_WORLD                Barycenter position along world y axis                     [deg]
#   7 A_WORLD                Profile RMS along major axis (world units)                 [deg]
#   8 B_WORLD                Profile RMS along minor axis (world units)                 [deg]
#   9 THETA_WORLD            Position angle (CCW/world-x)                               [deg]
#  10 FWHM_WORLD             FWHM assuming a gaussian core                              [deg]
#  11 ELONGATION             A_IMAGE/B_IMAGE                                           
#  12 ELLIPTICITY            1 - B_IMAGE/A_IMAGE                                       
         1 -14.0047    219.9720    121.2582   6.9080266175e+01   1.2063544464e+01     3.165026     2.109995  -3.38   0.01363052    2.126    0.530
         2 -10.6629    238.3066     24.0271   4.2324308937e+01   2.2882855173e+01    0.4847409     0.334377 -25.73  0.002652993    1.591    0.372
         3 -10.1480     87.7813     18.6590   6.6817685629e+01   6.0150934655e+01    0.4401554    0.2635247 -51.29  0.001785233    2.579    0.612
         4 -10.8321    155.1764     16.5713   5.0538292822e+01   4.4579084421e+01    0.3743777    0.2566326   8.43  0.001041467    1.868    0.465
         5  -9.8225    102.3344     13.8562   6.0578403302e+01   5.7634532623e+01    0.2664073    0.2234843   7.83 0.0006431913    1.145    0.126
         6  -9.4069     21.9902      3.4285   8.6467278232e+01   7.2281182953e+01    0.1785234    0.1293925 -31.13 0.0004378984    1.283    0.221
         7 -10.7771      9.8725     14.2842   9.8240738178e+01   7.1650834210e+01    0.4461721    0.3160768 -56.12  0.003024017    1.655    0.396
         8 -10.2545     20.9943     15.6095   9.2967666120e+01   7.0523311156e+01    0.3593462    0.2017043  21.21 0.0009687335    1.914    0.478
         9  -9.0734     25.4757      8.4881   8.7254833177e+01   7.1187036796e+01    0.2065618    0.1414487  -5.01 0.0005517132    1.306    0.234
        10 -10.2537     17.6542      4.6299   8.9440658266e+01   7.2538007638e+01    0.2864773    0.2659292   0.05  0.002253352    1.516    0.340
        11 -10.9510     18.7971     10.6331   9.1801938869e+01   7.1519306622e+01    0.3386671    0.2252387  36.97  0.001090995    2.076    0.518
        12 -10.8560     11.8949      6.6656   9.3649437533e+01   7.2736104870e+01    0.3999705    0.2827289 -44.73  0.001445034    1.474    0.322
        13 -10.4951      6.7940      3.3885   9.4955160679e+01   7.3644353616e+01     0.236923    0.2111005 -27.10 0.0008156539    1.419    0.295
        14 -11.4720    182.4839     13.6282   4.5648847058e+01   3.7854147847e+01     0.680576    0.4291255  48.42  0.003358342    1.643    0.391
        15 -10.1786     57.4344     13.8296   7.5312125383e+01   6.6216608662e+01    0.3555721    0.2234322  36.30   0.00188151    1.573    0.364
        16  -9.4265     93.5069     10.9458   6.1726101909e+01   5.9845556595e+01    0.2487768     0.187473 -41.32  0.001408086    1.594    0.373
        17  -9.9444     41.7321      9.6250   7.9938202962e+01   6.9071992984e+01    0.2903036    0.2322411 -61.66 0.0009898671    2.404    0.584
        18  -9.3172     37.8671      4.8457   7.9243391823e+01   7.0216941353e+01    0.1688602    0.1280556  -1.65  0.001147335    1.060    0.057
        19 -10.1412    215.8214      8.7619   4.0674499020e+01   2.9984990383e+01     0.262008    0.1617864 -46.41 0.0008231804    1.511    0.338
        20  -8.5294     73.4756      8.4984   6.6789109947e+01   6.4090918153e+01    0.1275184     0.108458  11.45 0.0008099179    1.036    0.035
        21  -9.2645     78.7098      6.8821   6.4299118271e+01   6.3267631788e+01    0.2118865      0.14098   7.31   0.00114411    1.520    0.342
        22  -8.8830     47.2744     10.0185   7.7668026585e+01   6.8248538921e+01    0.1784206    0.1129568  10.49  0.001021533    1.609    0.379
        23  -9.2335    127.0529      5.6732   5.1694865734e+01   5.2683587060e+01    0.1945149    0.1515848  56.22 0.0003180938    1.149    0.130
        24  -8.9822    227.1888      8.2121   3.9523153243e+01   2.7311023430e+01    0.1867504    0.1288444 -66.08 0.0003999085    1.322    0.244
        25  -9.5132     34.2536     14.7284   8.5965978615e+01   6.9281497988e+01    0.2070192    0.1371815 -27.10 0.0008573341    1.243    0.196
        26  -9.9719    210.0644      9.7798   4.1487966927e+01   3.1289279951e+01    0.3475655    0.2212187 -38.87  0.001834088    1.526    0.345
        27  -8.8721     49.7886      4.0921   7.3528492203e+01   6.8611385999e+01    0.2371954    0.1550825  52.79  0.001350301    2.183    0.542
        28 -10.2175    190.5772      2.4920   4.1519239709e+01   3.6903907042e+01    0.3500082    0.1837254 -71.06  0.001148234    2.229    0.551
        29  -8.9270     30.5573      3.0846   8.1848265594e+01   7.1367871195e+01    0.1735817   0.09483416 -31.81 0.0005472217    1.591    0.371
        30  -8.8634     42.1667      1.8734   7.5663325135e+01   6.9996800384e+01    0.1609719    0.1100344  -1.08 0.0003728677    1.281    0.219
        31  -8.2004    241.7438      1.3643   3.6790056351e+01   2.4672230109e+01    0.1354155   0.07359789 -56.97 0.0003299681    1.629    0.386
        32 -10.5250    121.5356     12.2545   5.5344360126e+01   5.3389249601e+01     0.514712    0.2590275  41.01  0.002294919    1.928    0.481
        33  -9.2209    137.2389      1.3760   4.8279771571e+01   5.0549187711e+01    0.1904445    0.1208359  79.07 0.0004246738    1.656    0.396
        34  -8.9295     98.1869    117.6194   9.6478831322e+01   3.9091394625e+01    0.1967883    0.1443958  26.26 0.0009338516    1.629    0.386
        35 -10.8084    101.2719    248.3808   1.1532773192e+02   1.1047223707e+01     0.365263    0.2319048  62.42  0.002339434    1.398    0.285
        36  -8.3590     58.0149    117.4727   1.0801958131e+02   4.5130324388e+01    0.1750986    0.1174155 -13.53 0.0008085041    2.434    0.589
        37 -10.6255     25.6540    116.5615   1.1720156728e+02   4.8681924258e+01    0.3939976    0.2538718  20.94  0.001798967    2.005    0.501
        38 -10.1507     11.5422    115.2240   1.2098365706e+02   5.0066411767e+01    0.2664771    0.1783357 -37.48 0.0009913793    1.801    0.445
        39  -9.5801     39.5674    113.9761   1.1279655187e+02   4.8025533810e+01    0.2053175    0.1511344  10.38   0.00117429    1.831    0.454
        40  -9.4239      1.5002    112.7754   1.2347255976e+02   5.1264182760e+01    0.3708026    0.1179737 -78.58  0.001102433    2.672    0.626
        41  -9.0842     49.8699    112.1142   1.0942643207e+02   4.7380801598e+01    0.1999455    0.1647038  86.92  0.000435599    1.240    0.193
        42 -10.1356     14.3959    109.9986   1.1952496458e+02   5.1090210838e+01    0.3477363    0.1743022  78.44  0.001446976    2.514    0.602
        43 -10.8219     18.7523    109.1956   1.1815617173e+02   5.0965281672e+01    0.3503744    0.1550749  27.57  0.001765119    2.679    0.627
        44  -8.3209     90.6931    111.7421   9.7248847540e+01   4.1764536927e+01    0.1394191    0.1137368 -18.13 0.0001693151    1.519    0.342
        45  -8.3916     62.5468    111.5001   1.0552014553e+02   4.5996915273e+01    0.1394987    0.1216011 -62.58 0.0001211179    1.021    0.021
        46  -8.4288    127.6989    109.7504   8.6429883546e+01   3.5191004940e+01    0.1479596    0.1230431   3.54 0.0002563793    1.496    0.332
        47  -9.1684     27.3970    108.7293   1.1554592876e+02   5.0392177893e+01     0.254559     0.106177 -72.43  0.001135096    2.125    0.529
        48  -9.5787     71.9522    107.8140   1.0190608043e+02   4.5602273035e+01    0.2336893    0.1826874 -56.94 0.0003018932    1.145    0.127
        49  -9.9443      7.0023    107.9985   1.2139092522e+02   5.2039736831e+01    0.1789557    0.1517787 -75.30 0.0003653358    1.110    0.099
        50  -8.4116    118.7261    107.6543   8.8292755807e+01   3.7515777209e+01    0.1551419    0.1211425 -16.16 0.0004264683    1.624    0.384
        51  -8.9226     34.9224    106.8878   1.1299220723e+02   5.0164472115e+01    0.1750116     0.138873  82.37 0.0008674969    1.316    0.240
        52 -10.1870     80.1683    103.5955   9.8437560808e+01   4.5382430933e+01    0.3248286    0.2718807 -27.61  0.001265196    1.326    0.246
        53  -9.7990     16.3122    104.8360   1.1826217096e+02   5.2163754600e+01     0.188107    0.1752566 -31.89 0.0005963828    1.315    0.239
        54  -9.6420      8.7359    103.4449   1.2031559502e+02   5.2987959595e+01    0.2627177    0.1791072 -43.54  0.001567619    1.543    0.352
        55  -8.9136      7.9332    100.0223   1.2010220925e+02   5.3828730891e+01     0.175527    0.1196593  75.72 0.0003387212    1.570    0.363
        56  -8.9348     28.8927    138.1367   1.1909834952e+02   4.3291476561e+01    0.1887806    0.1422947  76.42 0.0005217329    1.242    0.195
        57  -9.4514    109.0303    103.0163   8.9771024029e+01   4.0485168479e+01    0.3235338    0.2119821  36.92 0.0008904813    1.647    0.393
        58  -9.0643     57.4652    102.5099   1.0520120549e+02   4.8786800972e+01    0.1377357    0.1199835 -68.02 9.611905e-05    1.056    0.053
        59  -9.6944     53.0461     99.6518   1.0598200673e+02   4.9993613623e+01    0.3785603    0.1766819 -62.35  0.001670934    1.910    0.476
        60 -10.1949     69.0938     96.4872   1.0016139832e+02   4.8682885820e+01     0.306638    0.2249295  63.88 0.0007258914    1.719    0.418
        61  -9.6957     79.3436     95.1202   9.6582344514e+01   4.7488016229e+01     0.341565    0.2345898 -58.29  0.001447361    1.387    0.279
        62  -9.0779     82.5084     91.9986   9.4767545426e+01   4.7704890666e+01    0.2033171    0.1934537  24.54 0.0003442818    1.145    0.126
        63  -9.0195     63.3100     96.6418   1.0204053663e+02   4.9431556438e+01    0.1413039     0.104551  84.47 0.0007042328    1.736    0.424
        64  -9.2385     16.0339     95.7043   1.1699073774e+02   5.4311881459e+01    0.1781779    0.1468187  88.79 0.0005309322    1.224    0.183
        65  -8.6596     37.7936     94.1110   1.0973913044e+02   5.2915514453e+01     0.177173    0.1281812 -44.07 0.0002233283    1.319    0.242
        66  -8.4737      1.2748    136.6609   1.2578723615e+02   4.5812360875e+01    0.1203343   0.06911345  74.86 0.0005724859    1.612    0.380
        67  -8.4174      9.4124     93.5140   1.1873573746e+02   5.5241370551e+01    0.1220832   0.09334706 -70.66 0.0001285819    1.031    0.030
        68  -9.2553     89.1450     92.1713   9.2743116891e+01   4.6567540667e+01    0.2003412    0.1763936  85.51 0.0009423835    1.320    0.242
        69 -10.0941     51.9177     91.2831   1.0449760333e+02   5.2091259230e+01     0.359501    0.1879628 -53.53  0.001231819    1.605    0.377
        70  -9.4383     56.8060     89.9332   1.0256393998e+02   5.1823278567e+01    0.2502126    0.1937741  40.98 0.0004447679    1.478    0.324
        71  -9.7559     43.5457     91.5222   1.0731691958e+02   5.2950376641e+01    0.2348593    0.1336731  26.44  0.001189668    2.096    0.523
        72  -8.8486     31.9611     91.4691   1.1112684961e+02   5.4065958685e+01    0.1699952    0.1301238  16.71  0.001035998    1.620    0.383
        73  -9.1617      2.8436     90.5256   1.2037117417e+02   5.6292915652e+01    0.2156249    0.1231662 -56.08  0.001298121    1.404    0.288
        74  -8.7209     62.3455     90.2682   1.0081784057e+02   5.1043346990e+01    0.1375821    0.1000334 -25.14 0.0002490321    1.612    0.380
        75  -8.7675     15.5320     90.5052   1.1631879025e+02   5.5548957128e+01    0.1253751   0.09601293 -61.57 0.0001377132    1.051    0.048
        76  -9.3967     47.7162     89.0593   1.0538538421e+02   5.3080480038e+01    0.1922074    0.1437994 -54.66 0.0002484949    1.129    0.114
        77  -9.4778    131.5189     87.3011   7.9108097362e+01   3.9193618780e+01     0.255562    0.2413537  13.50 0.0006443238    1.102    0.092
        78  -8.4115      9.6524     88.7328   1.1793648871e+02   5.6324956648e+01     0.121501   0.07228754 -43.95 0.0006986924    1.615    0.381
        79 -10.0645    124.2607     85.8317   8.0616177455e+01   4.1100815149e+01    0.4111612    0.2885458  17.59 0.0007318844    1.951    0.488
        80 -10.0429     26.9755     85.0775   1.1153839449e+02   5.5963986214e+01    0.2523736    0.1705558 -53.57 0.0005931393    1.209    0.173
        81  -8.6564     66.0185     84.9185   9.8227932835e+01   5.1776164981e+01    0.1716819    0.1419436 -50.39   0.00054233    1.072    0.067
        82 -10.2512     46.1155     84.4981   1.0486979370e+02   5.4306813545e+01    0.2507858     0.182731 -57.32 0.0004199753    1.167    0.143
        83 -10.8276    135.3658     83.1793   7.6860304536e+01   3.9158335641e+01    0.3524592    0.2614282  54.14  0.001630974    1.408    0.290
        84 -10.3423     80.8632     82.0425   9.2522578474e+01   5.0203852160e+01    0.4289216    0.2443177 -54.69  0.001667811    1.727    0.421
        85 -10.4825     75.9771     83.1587   9.4441390168e+01   5.0724360937e+01    0.3558286    0.3002477  73.92  0.001332053    1.485    0.327
        86 -11.6925    104.8860     79.5310   8.4235735717e+01   4.6437020754e+01    0.6254799     0.546015   5.53  0.001984057    1.252    0.201
        87 -10.1206     51.0316     81.2728   1.0238772956e+02   5.4496333040e+01    0.2148638    0.1883672 -52.29 0.0005188514    1.037    0.035
        88  -9.0658     37.1189     81.1419   1.0720292851e+02   5.5982058331e+01     0.215048    0.1594974   4.89  0.001264141    1.676    0.403
        89  -9.3301     21.8047     80.5857   1.1242393597e+02   5.7388071733e+01    0.2200375    0.1467751 -69.65 0.0005873773    1.304    0.233
        90 -10.4916     20.9663     75.5266   1.1169259692e+02   5.8593702992e+01    0.3386127    0.2054459 -68.41 0.0007666579    1.439    0.305
        91  -9.9475     49.0237     77.0554   1.0201052635e+02   5.5675774354e+01    0.2362885     0.168372 -54.89 0.0004491622    1.212    0.175
        92  -9.6503     28.3706     78.1800   1.0962070140e+02   5.7426276264e+01    0.2177241    0.1529292 -40.96 0.0003088758    1.322    0.243
        93  -8.6960     43.9373     78.4775   1.0417277591e+02   5.5908651083e+01    0.1634637    0.1317048  20.90 0.0003357677    1.454    0.312
        94  -8.4706     15.2886     78.6847   1.1432311948e+02   5.8266787372e+01    0.1157008   0.08502301  82.12 0.0007000806    1.589    0.371
        95 -10.9992     76.8512     75.4702   9.1907675830e+01   5.2274134280e+01    0.5787259     0.274142  30.48  0.001775692    2.536    0.606
        96 -10.0942     83.6850     73.2449   8.8946553910e+01   5.1635776451e+01    0.4133623    0.2409878  38.78  0.001901169    1.846    0.458
        97  -9.7800     64.5655     70.9256   9.4772268299e+01   5.5069547911e+01    0.4467914    0.1868042  39.88  0.001290608    2.695    0.629
        98  -9.7983     53.8069     75.4394   9.9882722388e+01   5.5478439440e+01    0.3257072    0.1800598 -26.48  0.001421614    2.454    0.592
        99  -9.8067     58.0339     71.4030   9.7238260092e+01   5.5838818232e+01    0.3878025    0.2184887 -24.78  0.001690531    2.423    0.587
       100  -8.3309    157.7112     74.3443   6.8762672767e+01   3.5500853329e+01    0.1615081    0.1213905 -68.85 0.0007023633    1.652    0.395
       101  -8.7304    151.7377     74.0015   7.0018175531e+01   3.7033419410e+01    0.2012084    0.1348799 -36.71 0.0008724966    1.485    0.327
       102 -10.8925     97.2321     69.7584   8.3465399336e+01   4.9922963612e+01    0.4126723    0.2313812 -44.60 0.0003712364    1.710    0.415
       103  -9.6113    110.1344     71.8572   8.0239837075e+01   4.6941442668e+01     0.229771    0.2078002 -69.97 0.0006933878    1.267    0.211
       104 -11.0100      6.5563     80.2946   1.1760898685e+02   5.8418201741e+01    0.2806608    0.2137075  74.19 0.0005597128    1.523    0.343
       105  -8.4444     38.6772     71.6887   1.0435933313e+02   5.7958818099e+01     0.135505   0.08355255 -33.63 0.0007038447    1.653    0.395
       106  -9.2290     27.6368     69.3689   1.0787552877e+02   5.9458546693e+01    0.2688189    0.1372865 -33.78 0.0007328704    2.117    0.528
       107  -9.4617    142.3184     69.0674   7.0701438257e+01   4.0222762186e+01    0.2115249    0.2021681 -34.35 0.0004674202    1.044    0.042
       108  -8.5311    120.4975     69.4770   7.6504444588e+01   4.5190250621e+01    0.1520616    0.1449551  -5.16 0.0008100584    1.030    0.029
       109  -8.6699    197.4920     68.5135   5.9258485468e+01   2.6510484447e+01    0.1514615    0.1439101 -62.40 0.0008104444    1.014    0.014
       110  -9.4730    162.9923     67.3045   6.5452778407e+01   3.5431312608e+01     0.432421    0.0984609  48.12  0.001108775    4.423    0.774
       111  -9.5380    104.9959     67.0741   8.0188710767e+01   4.8930486607e+01    0.2155154    0.2073261 -12.57  0.001208141    1.030    0.030
       112 -10.2749     88.3586     65.9788   8.5057011838e+01   5.2316438745e+01    0.3018676    0.2459493 -35.17  0.001022525    1.141    0.123
       113 -10.7768     44.4440     63.6128   9.9989173471e+01   5.9122232614e+01    0.3971384    0.3342811  13.31  0.002516277    1.338    0.253
       114  -9.5752    108.9287     63.3472   7.7755240709e+01   4.8833798995e+01    0.4200724    0.1963934 -40.36   0.00164876    2.077    0.519
       115  -9.5312    111.6186     56.5317   7.4602346522e+01   4.9504746932e+01    0.4540662    0.2791106  -9.68  0.001004078    2.475    0.596
       116 -10.0658     32.9782     63.5021   1.0435630888e+02   6.0282997101e+01    0.3009763    0.2521484  67.88   0.00191188    1.597    0.374
       117 -11.0413      2.2226     62.6466   1.1600188667e+02   6.2543789620e+01    0.2456918    0.1591992 -65.92 0.0002916684    1.219    0.180
       118 -10.0671      5.3765     59.2708   1.1410126953e+02   6.3120967545e+01    0.2322284    0.1685657 -34.50 0.0009918094    1.329    0.248
       119  -9.2822    172.8180     62.4573   6.1978017089e+01   3.3756825009e+01    0.3004716    0.2114034  -8.84  0.001301726    1.864    0.463
       120  -9.1564     74.5666     62.9418   8.8715134257e+01   5.5249010613e+01     0.287916    0.1858858  24.67 0.0007031228    1.782    0.439
       121  -8.6775    120.5371     60.9628   7.3638326198e+01   4.6758626816e+01    0.2040042    0.1312267  -8.26   0.00080468    2.292    0.564
       122  -9.7548     88.9665     60.4916   8.2988923646e+01   5.3282649048e+01    0.2141405    0.1410231  41.83  0.001035162    1.606    0.377
       123  -9.6972     81.3426     59.8854   8.5333151692e+01   5.4742470522e+01    0.2760526    0.1760287  21.05   0.00128436    1.927    0.481
       124 -10.0338     50.1216     60.0048   9.6730229011e+01   5.9236977320e+01    0.1957719    0.1738095 -24.24 0.0003042142    1.084    0.077
       125 -10.1976    159.3883     57.5268   6.3154619791e+01   3.7979179668e+01    0.4220064    0.3064733   3.70  0.001265783    1.853    0.460
       126  -9.6210    150.9582     57.9149   6.5092505075e+01   4.0036767925e+01     0.224622     0.217627  45.26 0.0003327786    1.019    0.018
       127 -10.6766     95.7604     56.6284   7.9433041989e+01   5.2732655793e+01    0.4971488    0.3168371  -9.76   0.00211556    2.241    0.554
       128  -9.1956     34.4287     57.6799   1.0215759534e+02   6.1389262857e+01    0.2335036    0.1105732 -59.90 0.0008457577    2.014    0.503
       129  -9.1917     78.0318     56.6720   8.5352118434e+01   5.5920857186e+01    0.2393089    0.1776861 -20.59 0.0006424554    1.375    0.273
       130 -10.1473     81.3065     51.8990   8.2497776538e+01   5.6258681504e+01    0.4150152    0.1921809 -39.19  0.001739351    2.025    0.506
       131 -10.4108     69.5848     56.1209   8.8162324330e+01   5.7376340084e+01    0.3579592    0.2061414 -28.06  0.001406633    1.900    0.474
       132  -9.9579    200.8010     55.9751   5.5217218237e+01   2.7656230684e+01    0.3087015    0.1951751  47.95 0.0009972183    1.695    0.410
       133  -8.9790    206.4609     54.5124   5.3955985621e+01   2.6457639945e+01    0.2339959    0.2206254 -69.23 0.0008810637    1.009    0.009
       134 -10.7764    204.5604     51.0675   5.3289006620e+01   2.7442821697e+01    0.6657441     0.408049  53.05  0.002440624    1.679    0.404
       135  -9.6474     86.6112     54.9316   8.1802043906e+01   5.4759112372e+01    0.2423061      0.19865  44.57 0.0005284445    1.344    0.256
       136  -8.7502    135.5415     54.5267   6.7550459949e+01   4.4378208063e+01    0.1490059    0.1457172  17.74 0.0001884374    1.010    0.010
       137 -10.5231    179.2609     52.3959   5.7745614086e+01   3.3695428893e+01    0.4204943    0.2538236 -41.85 0.0004011963    1.642    0.391
       138  -8.9558    145.0014     53.0241   6.4818577181e+01   4.2312529578e+01    0.2181216     0.214673   4.30 0.0003325692    1.020    0.020
       139  -8.7315     29.3903     52.7965   1.0275942440e+02   6.2861316169e+01    0.1669333   0.09240358 -46.47 0.0002437723    1.432    0.302
       140 -10.4002    233.7438     51.0486   4.9409662942e+01   2.0365414878e+01    0.2653787    0.2560875  24.34 0.0003837792    1.232    0.188
       141  -9.9304    106.5939     51.5215   7.4269623374e+01   5.1445531478e+01     0.240254    0.2253671  -7.24 0.0002226614    1.019    0.019
       142  -9.2112     14.9642     51.9890   1.0850640055e+02   6.4119445340e+01    0.1899496    0.1455733 -17.48 0.0003829395    1.380    0.275
       143 -10.3844     18.4789     51.0577   1.0679041940e+02   6.4077141706e+01    0.4082671    0.2293296 -11.93  0.002225429    2.239    0.553
       144  -8.1322    116.0000     50.9683   7.1381100210e+01   4.9500060747e+01    0.2313632   0.08241483 -35.18 0.0004498807    2.793    0.642
       145  -9.6590     55.4147     50.5080   9.1520571777e+01   6.0483177061e+01    0.2496528    0.1765777 -29.50 5.284069e-05    1.287    0.223
       146 -11.5542     59.2945     47.8263   8.9048806886e+01   6.0469444505e+01    0.4891349    0.3809383 -11.60  0.001365832    1.271    0.213
       147  -9.0218    105.0848     56.2940   7.6437660592e+01   5.0925377992e+01    0.2007053    0.1765769  34.54 0.0003553718    1.144    0.126
       148  -9.6468     49.0594     49.7875   9.3778079439e+01   6.1426275840e+01    0.2186249    0.1599305 -10.81 0.0004959851    1.451    0.311
       149  -9.5595     97.0962     48.2917   7.5961911219e+01   5.3944835266e+01     0.327953    0.1886092 -25.78 0.0006395396    1.876    0.467
       150  -9.6805     43.0067     48.8931   9.5917759931e+01   6.2304420746e+01    0.2234438    0.1615624 -72.57   0.00116315    2.019    0.505
       151 -10.2753     60.7430     57.4755   9.1885523245e+01   5.8392472975e+01    0.2996078    0.1938859 -12.00  0.001020794    1.999    0.500
       152  -9.7506     35.0604     47.8427   9.8854894830e+01   6.3343191639e+01    0.2514292    0.2067652 -65.33 0.0006963448    1.443    0.307
       153  -8.7759     36.4914     44.5222   9.7134347468e+01   6.3854290753e+01    0.2126992    0.1044811 -48.78  0.001075273    1.706    0.414
       154  -8.8490    126.7022     50.0788   6.8216057995e+01   4.7201035417e+01    0.2666734    0.1791031 -35.85  0.000859657    1.495    0.331
       155 -10.0925     84.0376     47.0891   7.9766036565e+01   5.6634711202e+01    0.2501219    0.1962229  44.75  0.001370552    1.402    0.287
       156  -8.6877     67.5163     46.5343   8.5443631432e+01   5.9501282442e+01    0.1362857    0.1171051 -17.45  8.54096e-05    1.022    0.022
       157 -10.7635    167.4162     43.3834   5.7100025955e+01   3.8077699140e+01    0.3737225    0.3230973  39.53   0.00097416    1.203    0.169
       158  -8.6849    160.4782     44.1042   5.8634665179e+01   3.9759601061e+01    0.2091837    0.1487429 -28.86 0.0004831875    1.464    0.317
       159  -9.9706    143.6180     43.2835   6.1834492248e+01   4.4148298472e+01    0.4218638    0.2353443  38.31  0.001732306    2.001    0.500
       160  -9.2702    108.5509     44.0911   7.0949794156e+01   5.2251106704e+01    0.2926654    0.1988827  39.83  0.001428807    1.451    0.311
       161  -8.7869    187.4686     43.4859   5.3728495122e+01   3.2883440434e+01    0.1463197     0.139675 -85.14 0.0008096694    1.008    0.008
       162  -8.7788    123.0155     49.0000   6.8786998082e+01   4.8231486495e+01    0.2997559    0.1180698  52.68  0.001070769    2.521    0.603
       163  -9.8000     56.6589     41.9425   8.7873595474e+01   6.1920846192e+01    0.1833542     0.160508  -5.64 0.0003261295    1.093    0.085
       164  -9.7023     44.8000     40.3423   9.2113542870e+01   6.3734154558e+01    0.3714513    0.1783228 -51.89  0.001756754    2.143    0.533
       165 -10.0013     47.7151     37.3947   8.9757340825e+01   6.3915876635e+01    0.3279489    0.1711994 -32.76  0.001307212    1.769    0.435
       166  -9.3574    204.3490     41.6674   5.0727446989e+01   2.8831525374e+01    0.2624816    0.1808259 -66.71  0.001259947    1.569    0.363
       167  -8.5888    118.4518     41.4732   6.7247700673e+01   5.0450660275e+01    0.1471432    0.1337336  16.69 0.0002839765    1.060    0.056
       168 -10.0576     31.3322     39.9812   9.7779737166e+01   6.5238173862e+01    0.3570145    0.2360205 -23.18  0.001412922    1.448    0.310
       169  -8.7495    149.5499     38.7384   5.9034183007e+01   4.3305265012e+01    0.2082276    0.1344462 -42.41 0.0009465995    1.625    0.385
       170  -8.8330    112.9978     39.2668   6.7884517610e+01   5.2013001033e+01    0.2120286    0.1532502   2.14 0.0006924489    1.623    0.384
       171  -9.4894    157.1481     37.7915   5.7218342242e+01   4.1499402232e+01    0.2652261    0.1922511  53.78 0.0007325733    1.313    0.238
       172 -10.6857    127.3170     37.0227   6.3368845830e+01   4.9025303202e+01    0.3121954    0.2954137  14.58 0.0006508889    1.030    0.029
       173  -8.9832     75.1874     38.1545   7.9352481496e+01   5.9704759385e+01    0.1811073    0.1586281 -19.04 0.0004093469    1.073    0.068
       174 -10.1249     81.7996     36.8752   7.6515186301e+01   5.8741364980e+01    0.3929912    0.2306186 -32.08  0.001787432    1.624    0.384
       175 -11.1029     78.4718     31.3679   7.5385836484e+01   6.0195344820e+01    0.4674428     0.297397 -30.76  0.001397471    1.492    0.330
       176  -9.7318     81.0924     26.6778   7.2485165882e+01   6.0396177361e+01    0.2657226    0.2393152  41.37  0.001307568    1.265    0.210
       177  -9.4660    162.4846     37.0732   5.5988480334e+01   4.0224868592e+01    0.2185311    0.1464435 -29.05  0.000727553    1.558    0.358
       178  -8.5269    102.1515     36.8601   7.0031422735e+01   5.4728922777e+01    0.1944237    0.1549722  12.03 0.0005294689    1.283    0.221
       179  -9.4732     69.7172     36.8549   8.0821490842e+01   6.0833589083e+01    0.2640814     0.149206  23.63  0.001233836    2.102    0.524
       180  -9.6990     62.2401     36.3653   8.3465928186e+01   6.2089578040e+01    0.2983093    0.1944549  14.21  0.001087268    1.750    0.429
       181 -10.1679    224.1750     32.1213   4.5750620505e+01   2.5205043762e+01    0.2683412    0.1881683 -34.74 0.0009883861    1.396    0.284
       182  -8.9661     94.0519     35.6561   7.2009954096e+01   5.6578598212e+01    0.1897231    0.1600524  31.10 0.0002034075    1.143    0.125
       183  -9.3043    245.4712     35.0547   4.4252071175e+01   1.9855647255e+01    0.2069519    0.1661742  83.55 0.0007332704    1.253    0.202
       184  -9.3973     42.9781     34.9868   9.0823616288e+01   6.4921831616e+01     0.196246    0.1567659 -19.74 0.0005781788    1.062    0.058
       185  -9.4094     33.2323     34.6475   9.4982691211e+01   6.6051217887e+01    0.2006111    0.1812844  48.98  0.001375997    1.587    0.370
       186  -9.5115    203.9776     33.0722   4.8412722474e+01   3.0071155731e+01    0.3425898    0.1386836 -52.29  0.001226468    2.874    0.652
       187  -9.1159    150.1444     34.0961   5.7345211018e+01   4.3781799048e+01    0.2181885    0.1885823  21.14 0.0003697723    1.242    0.195
       188  -8.4693     86.5045     34.5251   7.3974253048e+01   5.8227843545e+01    0.1372592    0.1229213   0.48 0.0002445421    1.018    0.018
       189 -10.9981    237.0164     31.6492   4.4278889984e+01   2.2228111115e+01    0.4214951    0.3367348 -83.38  0.001628389    1.195    0.163
       190 -12.6928     76.7747    219.3108   1.1712170423e+02   1.9736221833e+01     1.916931    0.5532619  51.18  0.002710707    3.123    0.680
       191  -8.9128    184.8185     33.6171   5.1227758842e+01   3.4900428648e+01    0.2046583    0.1338877  80.11 0.0009422236    1.621    0.383
       192  -9.3853    142.1377     32.2226   5.8323009924e+01   4.6045851320e+01    0.3593542    0.2584899  59.59  0.001789893    1.333    0.250
       193  -9.1266    106.1497     28.9499   6.5751170688e+01   5.4982249871e+01    0.3990118    0.2103681  59.17  0.001730862    2.122    0.529
       194  -9.5425    110.9615     29.9781   6.4851038915e+01   5.3777999816e+01     0.353425    0.2472066 -56.22 0.0007864093    1.934    0.483
       195  -8.6150    120.4448     32.4348   6.3350089453e+01   5.1277778831e+01    0.1423258      0.13203  26.64 0.0001226207    1.003    0.003
       196 -10.1802     48.0631     29.0280   8.6186819614e+01   6.5312880924e+01    0.4222273    0.2904324  54.55  0.002102616    2.467    0.595
       197  -8.3915     58.2747     31.6536   8.3075493783e+01   6.3462096574e+01    0.1171951    0.1008885 -58.38 0.0005566122    1.627    0.385
       198  -8.7586     20.5514     31.0275   9.9478005212e+01   6.7870411693e+01    0.1578417    0.1239673  -5.49 0.0007050691    1.284    0.221
       199 -10.4266    180.7067     28.7713   5.0396226280e+01   3.6577232507e+01    0.3661616    0.2564512  41.06  0.001795819    1.583    0.368
       200  -9.2177    125.8416     29.9386   6.1104805437e+01   5.0332127518e+01    0.2151975    0.1758873  25.03 0.0002397075    1.236    0.191
       201  -9.8204    193.7738     33.2283   4.9822990546e+01   3.2646147082e+01    0.3555626    0.2365197  -4.13  0.001041908    2.118    0.528
       202  -9.0738    215.1377     28.1563   4.5742435049e+01   2.7910020274e+01     0.201501    0.1826081  40.47 0.0005777011    1.303    0.232
       203  -9.9216    119.6695     26.6730   6.1346273123e+01   5.2207134428e+01    0.5204563    0.2324888  40.07  0.002048736    2.355    0.575
       204 -10.3927     16.9806     27.0716   9.9725593140e+01   6.8877721395e+01     0.256184    0.1735581 -29.03 0.0005411265    1.208    0.172
       205  -9.1395    221.9316     26.8431   4.4653243683e+01   2.6412671459e+01    0.1913524    0.1783253  55.62 0.0003098062    1.231    0.188
       206  -8.6153     31.2832     26.6874   9.2718093464e+01   6.7667190007e+01    0.1638724    0.1237618 -34.90 0.0003839361    1.133    0.118
       207  -9.8131     29.6623     23.1110   9.1977632058e+01   6.8443024798e+01    0.2574063    0.1787243 -23.31  0.001094655    1.198    0.165
       208  -9.1561    197.3440     26.0187   4.7307436668e+01   3.2636873788e+01    0.1941661    0.1750168 -46.19 0.0005437763    1.127    0.113
       209  -9.0667     67.9956     25.2961   7.6542713419e+01   6.2915029555e+01    0.1758518    0.1511925  14.40  0.000310593    1.109    0.098
       210  -9.7060    228.7647     24.0708   4.3252890763e+01   2.5112998434e+01     0.293682    0.1425304 -73.10  0.001179714    2.687    0.628
       211 -10.9266    164.0983     22.4339   5.0997974492e+01   4.1634358328e+01    0.4442756    0.2737123  48.59 0.0007995013    1.589    0.371
       212  -9.0294    114.3110     32.6643   6.5008708300e+01   5.2659177344e+01    0.2272646    0.1782154 -48.52  0.000866738    1.483    0.326
       213  -8.6193     34.5197     24.5059   9.0287157663e+01   6.7694961114e+01    0.1241186   0.09558683 -20.79 6.406278e-05    1.041    0.040
       214  -9.8365    178.8542     22.8026   4.8871195192e+01   3.7772740527e+01    0.3038347    0.2067034 -57.96  0.001489757    1.577    0.366
       215  -8.8022     62.5361     23.5099   7.7827802067e+01   6.4067712265e+01    0.1295524    0.1085601  -5.21 6.651501e-05    1.009    0.009
       216  -9.5759     52.4501     20.9845   8.0752684109e+01   6.5971413487e+01    0.3867789    0.2081098  -7.40  0.001714631    2.748    0.636
       217  -8.9477      7.5292     22.5052   1.0274930504e+02   7.0364478745e+01    0.1757754    0.1320032  51.22   0.00115866    2.220    0.549
       218  -9.7574      2.1134     21.8479   1.0530000531e+02   7.0797990598e+01    0.2703761    0.2046202  39.08  0.001924021    1.930    0.482
       219  -9.2026    141.6645     21.8714   5.4779179787e+01   4.7426796617e+01    0.2949426    0.1531367  42.38  0.001007467    1.961    0.490
       220  -9.4045    132.0501     20.9285   5.6380945986e+01   4.9919731210e+01    0.3612839    0.2383231 -70.96  0.001622723    2.229    0.551
       221 -12.1167     69.1445    217.9142   1.1845725979e+02   2.1052539526e+01     0.701003    0.3614675  61.37  0.002748924    1.774    0.436
       222  -9.4943    223.1296     20.1245   4.2832023447e+01   2.6935018648e+01    0.2019644    0.1816396  51.28  0.001230978    1.299    0.230
       223 -10.2877    111.0582     19.3178   6.0585072988e+01   5.5076625960e+01    0.3002658    0.2386681  47.34 0.0008023098    1.172    0.147
       224  -9.9435    149.8456     18.4074   5.2064724187e+01   4.5743503160e+01    0.3294695    0.2384114  -9.58  0.001006116    1.595    0.373
       225  -8.3388    119.8301     19.1991   5.8421906476e+01   5.3056147389e+01    0.2041999    0.1490822  29.11 0.0007449341    1.377    0.274
       226  -9.4542     28.9098     18.3941   9.0262943387e+01   6.9298448570e+01    0.1829529    0.1366772 -35.74  0.001224408    1.231    0.188
       227 -10.1612    129.0094    205.9296   1.0503133158e+02   1.4162866754e+01    0.2781279    0.2008945  63.27  0.001553885    1.402    0.287
       228  -9.1801    124.0541    205.9948   1.0606666497e+02   1.4991751981e+01    0.1861624    0.1587123  56.78            0    1.018    0.018
       229  -9.6066     38.7502     17.8528   8.5331827449e+01   6.8269740688e+01    0.1934384    0.1406958   4.54 0.0006219476    1.292    0.226
       230  -8.8346    163.2271    193.0012   9.5849971623e+01   1.0448685802e+01    0.1698869    0.1157385 -46.17 0.0006056479    1.627    0.385
       231 -10.2778      1.4317    185.7146   1.2909233508e+02   3.5080453530e+01    0.3681627   0.07991298 -77.01   0.00152566    3.541    0.718
       232 -11.7864      4.8727    167.7712   1.2731415652e+02   3.8616120973e+01    0.5522782    0.2075654  54.75  0.002835014    2.468    0.595
       233 -11.3063    216.4590    157.7621   7.8126879458e+01   6.4191334532e+00    0.6161354    0.3404678 -47.32  0.002698522    2.083    0.520
       234 -10.3583     18.7896    160.0903   1.2372498779e+02   3.9142100781e+01    0.2058911    0.1457689 -35.72   0.00125402    2.131    0.531
       235 -11.6441      2.8319    153.3895   1.2674193299e+02   4.1940118505e+01     0.486294    0.2055774 -64.96 0.0009273514    1.972    0.493
       236 -10.5364      7.7402    156.7204   1.2590644550e+02   4.0823974898e+01     0.167751    0.1420526  39.49 0.0007744156    1.477    0.323
       237 -10.5437     20.5813    153.9126   1.2276592777e+02   4.0383530252e+01    0.2057577    0.1533854 -34.44  0.001287685    1.947    0.486
       238  -9.1129    217.3286     15.4365   4.2224097281e+01   2.8883874375e+01     0.187959    0.1186736 -89.71  0.000877536    1.578    0.366
       239 -11.1718     11.4998    153.0187   1.2476826296e+02   4.1355421528e+01    0.3184053    0.1252517 -70.44  0.001613347    1.978    0.494
       240  -8.8737     35.5889    142.7309   1.1795295818e+02   4.1563220690e+01     0.175716    0.1036835 -82.20 0.0009365878    1.505    0.336
       241  -8.8465     66.8007     13.1180   7.1366890776e+01   6.4754532586e+01      0.18022    0.1256671  17.77 0.0004773249    1.356    0.262
       242 -11.2801      5.9492    140.9396   1.2503447285e+02   4.4517733008e+01    0.4832619     0.264366 -35.11   0.00187155    2.908    0.656
       243  -9.4709    102.7831     17.9299   6.2167360121e+01   5.7084766963e+01    0.3044665    0.2050977  66.18  0.001540586    1.759    0.431
       244 -13.8202    232.0566    132.9890   6.9735041799e+01   7.5192594215e+00     2.157522     1.444017  -1.64  0.009890517    1.980    0.495
       245  -9.0740    148.5148    249.4811   1.0691696278e+02   3.6691116888e+00    0.1198385   0.09372342  43.23 0.0008101938    1.007    0.007
       246  -8.3245     45.2881    135.6255   1.1451827953e+02   4.2234429425e+01    0.1386833   0.08774497  77.85 0.0007019639    1.722    0.419
       247  -9.6250     32.8630    127.7795   1.1675036410e+02   4.5374206383e+01    0.3150021    0.1502753 -64.71 0.0009585415    1.693    0.409
       248  -9.3794     31.0060    124.2652   1.1677697738e+02   4.6383237391e+01    0.1700479    0.1435233 -82.58 0.0004415322    1.053    0.051
       249  -9.4855     12.3367    127.3433   1.2214030160e+02   4.7186973972e+01    0.2410318    0.1210937 -59.29  0.001193774    1.698    0.411
       250  -9.5737     13.0000    123.9750   1.2159869455e+02   4.7923091315e+01     0.272646    0.1259281 -67.69  0.001434824    1.658    0.397
       251  -8.6523     37.5055    126.5042   1.1531023002e+02   4.5229665549e+01    0.1306884    0.1074622 -78.50 -3.103611e-05    1.013    0.013
       252  -8.8443    144.4611     14.0383   5.1509396885e+01   4.7569045519e+01    0.2001313    0.1388741 -22.64 0.0007534687    1.562    0.360
       253  -9.0421      9.3997    122.8215   1.2242449284e+02   4.8445103118e+01    0.1564257    0.1497064  -9.85  0.000672623    1.409    0.290
       254  -9.3583      3.1862    122.8957   1.2405948142e+02   4.8835527091e+01    0.2500567    0.1415441  -2.71  0.001246637    2.972    0.664
       255  -8.2502     93.2574    122.6811   9.8997535446e+01   3.8735415376e+01    0.1451908    0.1106511  89.12 0.0002989582    1.540    0.351
       256  -8.9190     74.7590    122.3669   1.0414518126e+02   4.1704359437e+01    0.3050055    0.1091658  44.33  0.001105543    3.027    0.670
       257  -9.2994     20.0431    119.6615   1.1918225137e+02   4.8403679273e+01    0.2380291    0.1306539 -53.66  0.001303147    1.672    0.402
       258  -8.8017     76.2524    119.4384   1.0312588730e+02   4.2192350711e+01    0.1838552    0.1321293  51.19 0.0004666641    1.507    0.336
       259 -10.0440     69.7018    118.0353   1.0473148040e+02   4.3465331513e+01    0.3390398    0.2452956 -79.91  0.001035044    1.448    0.310
       260  -9.0697     21.0481    142.2679   1.2151368264e+02   4.3024481218e+01    0.1603346     0.138513  85.51 0.0005919482    1.131    0.116
