#   1 NUMBER                 Running object number                                     
#   2 MAG_AUTO               Kron-like elliptical aperture magnitude                    [mag]
#   3 X_IMAGE                Object position along x                                    [pixel]
#   4 Y_IMAGE                Object position along y                                    [pixel]
#   5 X_WORLD                Barycenter position along world x axis                     [deg]
#   6 Y_WORLD                Barycenter position along world y axis                     [deg]
#   7 A_WORLD                Profile RMS along major axis (world units)                 [deg]
#   8 B_WORLD                Profile RMS along minor axis (world units)                 [deg]
#   9 THETA_WORLD            Position angle (CCW/world-x)                               [deg]
#  10 FWHM_WORLD             FWHM assuming a gaussian core                              [deg]
#  11 ELONGATION             A_IMAGE/B_IMAGE                                           
#  12 ELLIPTICITY            1 - B_IMAGE/A_IMAGE                                       
         1 -12.1596     76.6449     22.9041   1.4320519710e+01   6.3115546207e+01    0.5215262    0.4816739 -12.49  0.002422846    1.181    0.153
         2 -12.0923     49.5449     33.5557   3.1307570571e+01   6.7319270144e+01    0.7535812    0.5151356  20.49  0.003345351    1.703    0.413
         3 -12.4859     66.6130     18.1834   1.5437454582e+01   6.6099000786e+01    0.7319311    0.4825983  30.41  0.002700909    1.704    0.413
         4 -10.7927    135.2558     24.5951   1.6767760623e+00   4.7972130913e+01    0.4086455      0.29928  33.13  0.002081179    1.768    0.434
         5 -11.1342     15.2004     15.2568   4.4428885224e+01   7.6007455493e+01    0.4096742    0.2380339 -38.86   0.00169026    1.651    0.394
         6 -11.8994     33.6859     14.1588   2.9516334805e+01   7.3466660600e+01    0.6130698    0.3322966 -42.79  0.002542214    2.014    0.503
         7 -10.7669     86.2747     15.2209   7.6939584599e+00   6.1683464649e+01    0.3653286     0.211859  49.95  0.001730614    1.599    0.375
         8 -11.2703    250.0233     13.0145   3.4899407934e+02   2.3882824594e+01    0.3267933    0.1470386 -23.81  0.001711131    2.598    0.615
         9 -10.9038     49.4524     14.0736   2.0453397943e+01   7.0432219501e+01    0.2957698     0.253455  34.92 0.0008007201    1.053    0.050
        10 -10.1997     45.3294     12.0231   2.1256641496e+01   7.1559573018e+01    0.2481183    0.1832095  50.67 0.0006209255    1.304    0.233
        11 -12.1365    241.3673     10.4812   3.4886295841e+02   2.5695652815e+01    0.3669893    0.1365107 -33.21  0.001926605    2.140    0.533
        12 -10.5940    101.3712     12.5299   2.9670337188e+00   5.8108679016e+01    0.2283535    0.2141561  88.62 0.0005065761    1.063    0.059
        13 -10.7568     58.4809     10.8415   1.4443166043e+01   6.8867069699e+01    0.4962127    0.2688524  30.36  0.002177527    2.281    0.562
        14 -10.7195     78.3635      7.8404   6.1330409088e+00   6.4437097734e+01    0.3433599    0.2198318  -4.12   0.00168499    2.006    0.501
        15 -10.1635     69.2608      9.4577   9.7186106729e+00   6.6500527316e+01    0.2312022    0.1912796 -15.09 0.0007782895    1.348    0.258
        16  -9.5616    218.9432      8.6774   3.4955106344e+02   3.0186955767e+01    0.1612006    0.1214681 -69.50 0.0004151234    1.122    0.109
        17 -10.3128    115.2373      8.8585   3.5897384866e+02   5.4859279187e+01    0.2040449    0.1692376 -73.35    0.0005072    1.160    0.138
        18 -11.4244     85.5350      7.3486   4.0553528839e+00   6.2682230187e+01    0.2750809    0.2535422 -36.58 0.0006117274    1.205    0.170
        19 -10.4749    236.6850      7.8266   3.4851956290e+02   2.6832617686e+01    0.2437804   0.09639262 -63.71  0.001262323    2.254    0.556
        20 -11.2957    182.0742      7.9391   3.5160301668e+02   3.8241484168e+01    0.1953074    0.1573234 -65.36 0.0003805375    1.013    0.012
        21 -11.5724    174.0891      2.9297   3.5080237156e+02   4.0592283691e+01    0.4114704    0.1851513 -72.66  0.001839012    2.208    0.547
        22  -9.9595     98.4475      8.1526   1.6277137185e+00   5.9295295439e+01    0.2703671    0.1518653 -67.63   0.00113231    2.232    0.552
        23  -9.3980     96.5053      4.4720   3.5003293469e-01   6.0131420185e+01     0.199448    0.1208817 -38.16 9.848003e-06    1.755    0.430
        24 -11.3114    123.9137      6.5784   3.5684250368e+02   5.2810442313e+01    0.3776919    0.2253382 -78.44  0.001821399    1.722    0.419
        25  -9.9490    103.4966      4.9672   3.5929983770e+02   5.8274753599e+01    0.1879872    0.1360163 -26.83 0.0004328949    1.540    0.351
        26 -10.4926     27.7554     11.4711   3.1816375135e+01   7.4892252649e+01    0.2350339    0.1739267 -32.61  0.001371263    1.379    0.275
        27 -11.0955    121.4905     12.7746   3.5951900622e+02   5.2844841002e+01    0.4513357    0.2339503  74.55  0.002042044    1.769    0.435
        28  -9.0531     16.2854      4.6677   3.6197120729e+01   7.7716607638e+01    0.1103701    0.1013115  74.53 0.0003307258    1.618    0.382
        29  -9.4658    131.4779      3.4975   3.5478610286e+02   5.1126664880e+01    0.1356664    0.1172433 -89.40 0.0001947925    1.023    0.022
        30  -9.2438    229.6760      1.7131   3.4752558742e+02   2.8772239405e+01   0.09463868   0.08622264  48.68 0.0003718319    1.604    0.377
        31  -9.5290    178.7741      1.4012   3.5007085162e+02   3.9637529482e+01    0.1609787    0.1047821  72.08 0.0002239173    1.526    0.345
        32 -10.3194    113.4725      1.5011   3.5630801493e+02   5.5970306088e+01    0.2748429    0.1198634  74.99 0.0009934261    2.024    0.506
        33  -9.5221     72.5082      1.4810   4.3126362363e+00   6.6473374910e+01    0.1338714    0.1196397  69.59 1.983624e-05    1.062    0.058
        34 -10.5317    138.8415    112.4653   2.7758607409e+01   3.1885286712e+01    0.2786334     0.229571 -77.38 0.0006737998    1.426    0.299
        35  -9.5310     96.1807    111.7832   3.9560078873e+01   4.0833623345e+01    0.2097016    0.1836535 -21.54 0.0004659205    1.306    0.235
        36 -10.5727     25.0624    112.0923   6.6333904643e+01   5.1220525058e+01    0.2158958    0.2018186 -79.56 0.0004145547    1.027    0.026
        37  -9.3796     79.5066    110.5395   4.4868888626e+01   4.4254836369e+01    0.1546787    0.1527498  73.80 0.0008091966    1.025    0.024
        38  -9.2442     49.6800    109.2888   5.5856039240e+01   4.9252377265e+01    0.1585899    0.1105228  61.99 0.0002437533    1.599    0.375
        39  -9.8093      1.4693    108.5469   7.5646116590e+01   5.3814400932e+01    0.1373285     0.122883 -88.22 4.292685e-05    1.003    0.003
        40 -10.3951    236.5010    107.4884   9.6322808354e+00   1.4169022593e+01    0.1228212   0.09784151 -36.59 0.0008105565    1.011    0.011
        41 -11.3061     26.5939    105.4941   6.4744227304e+01   5.2897042945e+01    0.3299353    0.2577147 -24.45  0.001253127    1.461    0.316
        42  -9.3610     12.7335    105.6770   7.0670425742e+01   5.3948569351e+01    0.1461353    0.0947098 -47.62 0.0001956399    1.564    0.360
        43 -10.5014      2.1529    104.5172   7.5035746709e+01   5.4875226513e+01    0.2801138    0.1815626 -52.54 0.0009976983    1.507    0.336
        44  -9.0690     76.9966    103.2359   4.3966614105e+01   4.6561699734e+01    0.1968095    0.1305076  36.86 0.0002572898    1.505    0.335
        45 -11.7860    246.4901    101.5117   7.2775949085e+00   1.3461490928e+01    0.2107675    0.1630765 -26.06 0.0008290723    1.194    0.162
        46 -11.0152     97.1160     99.4906   3.6030761343e+01   4.3604358466e+01    0.2723009    0.2416144 -51.73 0.0002991442    1.134    0.118
        47 -11.4471     28.5023     99.5192   6.2955738983e+01   5.4354477490e+01    0.3618849    0.2473959 -30.61  0.001710341    1.683    0.406
        48 -11.1583    236.8632     97.0982   7.4485576557e+00   1.5606159372e+01    0.4319887    0.1372902 -26.96  0.001266333    5.882    0.830
        49 -10.0577    226.2263     98.0335   8.9016305917e+00   1.7246127012e+01    0.1750817   0.08686343 -35.97 0.0008772278    1.660    0.398
        50 -11.5592     36.8161     97.6221   5.8942206005e+01   5.4000591463e+01    0.3581227    0.2647684  -1.43  0.001725765    1.612    0.380
        51 -10.8769    103.2056     95.9187   3.3097482921e+01   4.3165389896e+01     0.402445     0.327594 -66.73  0.001928692    1.317    0.241
        52 -11.2663     64.4978     96.2505   4.6948650944e+01   5.0500684924e+01    0.3147087    0.3020246  59.92 0.0006934642    1.038    0.037
        53  -9.4997      4.7865     95.7904   7.3070651506e+01   5.7114124668e+01    0.2547129   0.09828129 -42.20 0.0009534106    2.792    0.642
        54 -11.0329     16.7958     94.3610   6.7416422373e+01   5.6758118637e+01    0.4707228    0.2515756  15.27  0.002085926    2.041    0.510
        55  -9.9034     90.0282     94.0935   3.6878059144e+01   4.6326331247e+01    0.2349712    0.2275587  51.95  0.000508157    1.030    0.029
        56 -10.2484    232.9730     93.4612   7.1305955536e+00   1.6770962191e+01     0.157292   0.09993228 -78.66 0.0008088187    2.508    0.601
        57 -12.3119    248.7655     86.4200   4.0027112850e+00   1.5178798539e+01    0.6476902    0.1880372 -31.21  0.002525865    3.371    0.703
        58  -9.2767    108.6618     90.3589   2.9826824693e+01   4.3233159242e+01    0.1674488    0.1239726 -89.37 0.0007038327    1.817    0.450
        59  -9.4262    107.5069     86.4700   2.9010374557e+01   4.4340274602e+01    0.1569623    0.1504091  84.91 9.642928e-05    1.029    0.028
        60 -10.1306     12.0012     85.7151   6.8422266227e+01   5.9429400373e+01    0.1850927    0.1802561 -23.49 0.0003994631    1.097    0.088
        61 -10.7343      3.1387     76.1340   7.1564918206e+01   6.2466776242e+01    0.3233809    0.2144976 -88.68  0.001327757    1.481    0.325
        62 -11.2775      7.7656     84.2267   7.0294484709e+01   6.0080341782e+01    0.5019484    0.2367728 -45.47  0.002089962    2.067    0.516
        63 -10.8014      6.4869     80.3693   7.0409479578e+01   6.1180750934e+01    0.4136789    0.2345143  -0.02  0.001457541    2.024    0.506
        64 -11.7560     54.4188     78.6933   4.6397542824e+01   5.6581519915e+01    0.3420224    0.2912035  84.42 0.0005290493    1.336    0.251
        65  -9.6445     98.5706     79.2003   2.9518252121e+01   4.7905338915e+01     0.218868    0.1497727 -34.24 0.0006787001    1.654    0.395
        66  -9.0619     78.0060     77.9926   3.6344977242e+01   5.2520015817e+01    0.1802559    0.1729714  48.47            0    1.031    0.030
        67  -9.5393    144.0220     77.2189   1.6935382826e+01   3.7713797347e+01    0.2372768    0.1677297 -89.13 0.0005588657    1.816    0.449
        68 -10.1400    135.1904     76.3613   1.8629277148e+01   3.9963538299e+01    0.2906311    0.1184174 -37.16  0.001008607    2.559    0.609
        69 -11.3420    234.4168     75.1247   3.0769331082e+00   1.9106987959e+01    0.2939005    0.2259416 -18.33  0.001877689    1.490    0.329
        70  -9.4141    152.3148     76.3156   1.4980640323e+01   3.5929018887e+01    0.1447967    0.1183722  14.53 0.0007035906    1.645    0.392
        71  -9.4523     72.3301     70.6863   3.6146691819e+01   5.5310676761e+01     0.156942    0.1211769  78.68 0.0006084691    1.676    0.403
        72 -11.3786     63.9060     69.5623   3.9288597522e+01   5.7163657004e+01    0.2623318    0.2587397  73.87  0.000257844    1.035    0.034
        73 -10.3582      7.6796     69.0266   6.8025112873e+01   6.4112110097e+01    0.2359955    0.1927164 -21.84 0.0005298535    1.266    0.210
        74  -9.8423    151.5994     66.7245   1.2337393334e+01   3.7754493322e+01    0.2156821    0.1268944 -47.63 0.0009509016    1.640    0.390
        75  -9.4385     70.1649     67.0989   3.5783057767e+01   5.6539404864e+01    0.2364763    0.2073991  -1.67 0.0009122193    1.295    0.228
        76  -9.6628    192.1298     65.8013   5.7372052235e+00   2.8664787629e+01    0.1976383    0.1583356 -60.28 0.0003722125    1.144    0.126
        77 -11.3760    165.5334     63.1318   8.8776835591e+00   3.5041375680e+01    0.4646148    0.3635226 -20.40   0.00173779    1.520    0.342
        78 -12.5770    249.1466     56.9416   3.5796334021e+02   1.8969877540e+01     1.047546    0.1243301 -38.04  0.003689602    4.062    0.754
        79 -11.4210    248.8764     44.6910   3.5547563400e+02   2.0521432706e+01    0.2835452    0.2163563 -54.00  0.001609242    1.071    0.066
        80  -9.6254    204.2744     65.2761   4.1080247985e+00   2.6203429592e+01     0.184729    0.1277808 -57.33 0.0008382094    1.341    0.255
        81  -9.6562     33.4568     65.4555   5.2836475815e+01   6.2796889575e+01     0.267568    0.1128387  38.30 0.0009901704    2.423    0.587
        82  -9.2347     15.4973     65.5151   6.2902892345e+01   6.4520569293e+01    0.2214821    0.1094912 -56.02 6.072884e-05    1.769    0.435
        83 -10.5788     15.4611     61.8043   6.2076519179e+01   6.5471043636e+01      0.24806    0.1972428  12.60  0.001383013    1.321    0.243
        84 -11.5833      4.0077     61.3213   6.8804391195e+01   6.6288636263e+01    0.5825312    0.3071681 -81.54  0.002694659    1.914    0.477
        85 -10.5507     99.9358     63.0411   2.3622794863e+01   5.0913121084e+01    0.3615503    0.2287927 -54.22   0.00155365    1.740    0.425
        86 -11.0468     67.0362     62.5051   3.5439269793e+01   5.8162007698e+01    0.4230211    0.2767191 -45.41  0.001445962    1.552    0.356
        87 -11.1994     63.6540     61.7163   3.6615568458e+01   5.8981861448e+01    0.7123604    0.3540819 -30.08  0.002367764    3.338    0.700
        88  -9.9102     79.0716     62.3126   3.0513028696e+01   5.5750579821e+01    0.2448228    0.1845368  28.84  0.001149948    1.476    0.323
        89  -9.4938     53.5980     61.7905   4.1279408408e+01   6.0763280606e+01    0.2043017    0.1428058 -64.81  0.000942269    1.640    0.390
        90 -11.4034    231.2747     60.3681   1.8856517640e-01   2.1661664299e+01    0.2747885    0.1834052 -74.66 0.0008918277    1.661    0.398
        91  -9.9502    124.8591     59.8484   1.5793407740e+01   4.5459343720e+01    0.2139558     0.203063  26.78 0.0003699013    1.198    0.165
        92 -10.5385     33.0041     58.0345   5.0780434919e+01   6.4665320056e+01    0.2262322    0.2037953 -81.96  0.001277438    1.234    0.190
        93 -10.7628     22.1287     57.8172   5.7065055017e+01   6.5904193247e+01    0.2423752    0.2218439  89.64 0.0005048926    1.203    0.169
        94 -10.3196    149.9206     56.5773   9.6079618189e+00   3.9815136361e+01     0.298818    0.2286435  62.29 0.0008451019    1.310    0.237
        95  -9.7461     28.6827     57.6864   5.3152616489e+01   6.5257995360e+01    0.1498824   0.09961848 -28.53 0.0003499511    1.646    0.392
        96  -9.7105     40.0289     55.0244   4.5808094698e+01   6.4437624051e+01    0.2307943    0.1735595  65.49 0.0008496731    1.743    0.426
        97  -9.4197     88.4920     52.6038   2.3415317230e+01   5.5561206408e+01    0.2089855    0.1879317  51.70 0.0006357387    1.070    0.066
        98 -10.5583     86.4080     49.2681   2.2797088806e+01   5.6653352903e+01    0.2977378    0.2501969  14.36 0.0009535373    1.419    0.295
        99 -10.7023     15.5654     51.7088   5.9401829809e+01   6.7978174304e+01    0.1851005    0.1293456 -80.43 0.0009462561    1.607    0.378
       100  -9.3189    162.3117     51.3280   6.0044568629e+00   3.7610803303e+01     0.136951    0.1111957  25.42 0.0004409476    1.666    0.400
       101  -9.3236    149.6694     51.6968   8.1589532068e+00   4.0633125324e+01    0.1422514    0.1123283  30.39 0.0003070845    1.653    0.395
       102 -11.5587     94.0356     48.5504   2.0020083856e+01   5.4980149171e+01    0.2838016    0.2300715 -47.26 0.0001004488    1.283    0.220
       103 -12.0720      6.9550     45.3122   6.3422348040e+01   7.0130470985e+01    0.6777342    0.2863885 -51.61  0.003020615    1.986    0.496
       104 -11.0340    148.2935     44.8897   6.2759693670e+00   4.1982946040e+01    0.2980806     0.269412 -10.58  0.001069338    1.347    0.258
       105 -11.3164     39.5572     44.0042   4.1722732084e+01   6.6953559854e+01    0.5175725    0.3571688  21.38  0.002595953    1.519    0.342
       106 -10.5101     33.4807     42.4369   4.4687716469e+01   6.8173969116e+01    0.3643802    0.2487311 -11.80   0.00107664    1.798    0.444
       107  -9.4938    114.3067     60.9743   1.8800119263e+01   4.7853328959e+01    0.2050833    0.1946757 -60.97 0.0003324248    1.063    0.059
       108  -9.4043     80.5330     44.5425   2.2905265926e+01   5.8848803104e+01    0.1477715    0.1394446  39.90 0.0001480531    1.043    0.041
       109 -10.6541    185.8965     41.5244   2.1419074306e-01   3.3464144478e+01     0.236099    0.1941185 -44.79 0.0003022007    1.142    0.124
       110  -9.9693    119.2863     41.4641   1.0653278246e+01   4.9830764026e+01    0.2899169    0.2291053   9.10  0.001427606    1.724    0.420
       111 -10.2714    225.3311     40.9949   3.5640980917e+02   2.5260492338e+01    0.2208618   0.03499887 -46.59  0.000588435    4.391    0.772
       112 -10.7386    158.9616     39.3422   2.9489358593e+00   4.0117811612e+01    0.2407174    0.1938605 -43.01  0.000280799    1.210    0.174
       113  -9.7766    237.6762    193.3673   2.5492476215e+01   1.8525121061e+00   0.09810459   0.08472963 -46.43 9.410563e-05    1.799    0.444
       114  -9.5190     22.3254    182.2972   7.3738162884e+01   3.2921278969e+01    0.1265696     0.099571 -35.79 0.0003126397    1.628    0.386
       115 -11.3545     58.6692     30.2992   2.5165872179e+01   6.6072377079e+01     0.424942    0.3545489 -31.17  0.001667748    1.259    0.206
       116 -11.7707     64.0397     27.2893   2.1267045505e+01   6.5397043161e+01    0.6601288    0.3823379  64.05  0.002500304    2.098    0.523
       117  -9.0956      1.2597    181.3437   7.9530117329e+01   3.4886468140e+01    0.1207149   0.09076342 -54.27 0.0004550452    1.593    0.372
       118 -12.1024     60.8310     37.0788   2.7518874150e+01   6.4463957536e+01    0.6071759    0.4429989  40.91  0.002212565    1.307    0.235
       119 -11.3849     66.1531     35.8092   2.4587102025e+01   6.3561014472e+01     0.352068    0.3072326  42.91 0.0007008428    1.082    0.076
       120  -9.3917     89.8889     39.1193   1.7457145728e+01   5.7549111464e+01    0.1933816    0.1698954  19.01 0.0002873357    1.290    0.225
       121  -9.2268     96.0172     38.0151   1.5163166021e+01   5.6220239377e+01     0.175641    0.1610972  64.57 0.0003754235    1.022    0.021
       122 -11.2898     40.8005     35.7758   3.7258766921e+01   6.8441702655e+01    0.4556545    0.2745095  47.63  0.001954998    1.844    0.458
       123 -10.3271    119.1853     34.9788   8.2906025893e+00   5.0787200858e+01    0.2388806    0.1956042  70.61 0.0004025888    1.140    0.123
       124 -10.8344     17.9910     32.4058   5.0923254730e+01   7.2222523147e+01     0.328172     0.255974 -67.97  0.001329976    1.477    0.323
       125  -9.5983    226.0000     32.9942   3.5457324848e+02   2.6098629336e+01    0.1996169   0.05717061 -31.82 0.0008058232    2.966    0.663
       126  -9.4906    153.4273     32.7705   1.7116808831e+00   4.2350444462e+01    0.1930763    0.1373014 -12.90 0.0009560664    1.856    0.461
       127 -10.2388     92.5339     31.2695   1.3298733339e+01   5.8080116725e+01    0.2451622    0.2105961  70.38 0.0002887486    1.116    0.104
       128 -11.3674      4.2078     30.4489   6.1045656162e+01   7.3778167198e+01    0.3706208    0.2863829 -83.90  0.001732814    1.523    0.343
       129  -9.6873    129.0666     28.8431   4.1754351265e+00   4.9048414649e+01     0.212341    0.1722104 -80.50 0.0003366666    1.186    0.157
       130 -11.6134    102.8134     26.7014   8.6786137332e+00   5.6100225611e+01     0.472618    0.3593186 -75.93  0.002037308    1.453    0.312
       131 -10.7961     98.4484     22.9483   8.1321917327e+00   5.7689127481e+01    0.2633363    0.2394885  67.51 0.0005190179    1.018    0.018
       132 -10.2947    176.7763     25.3528   3.5679476782e+02   3.7588793458e+01    0.3067574    0.2302755  -4.46  0.001661909    1.884    0.469
       133  -9.3270    160.5831     27.2243   3.5909707883e+02   4.1265676227e+01    0.1630613     0.132387 -21.92 0.0003320758    1.446    0.308
       134  -9.4536    153.2517     27.6038   1.2683256458e-01   4.3038211864e+01     0.181524    0.1195032  62.89  0.000288759    1.499    0.333
       135  -9.7992    118.5147     27.5001   5.6221635513e+00   5.1948256218e+01    0.1442998    0.1307654  85.30  0.000810514    1.002    0.002
       136  -9.4427    120.7006     25.3107   4.3824742520e+00   5.1652718695e+01    0.1483963    0.1342665  64.11 0.0003418396    1.111    0.100
       137 -11.0357     46.9782     26.7673   2.9128867743e+01   6.8994156769e+01    0.2603587    0.2255797  28.41 0.0003467282    1.076    0.071
       138 -10.2639     50.0101     24.5025   2.6285256807e+01   6.8778513740e+01    0.2805984    0.1975113 -53.73  0.000980293    1.774    0.436
       139 -10.3859    243.6128    179.8000   2.2330033842e+01   2.9657144363e+00    0.1536177   0.08690187 -38.67 0.0009427812    1.650    0.394
       140  -9.5842      8.4762     26.5230   5.5991395472e+01   7.4360826992e+01    0.1283133    0.1135319 -25.29 8.172868e-05    1.018    0.018
       141  -9.9297    110.8974     24.9781   6.1780219623e+00   5.4235337786e+01    0.2626659    0.1897709  68.11   0.00129769    1.270    0.213
       142 -11.3753     84.1999     22.5519   1.1770909127e+01   6.1322897991e+01     0.523943    0.2842583  -5.88  0.001951805    3.324    0.699
       143 -11.8769    240.1949     23.2146   3.5156680699e+02   2.4547285185e+01     0.337657    0.1941233 -47.04  0.002142989    1.282    0.220
       144  -9.6356    128.9068     23.8917   2.4348482716e+00   4.9695091430e+01    0.2030032    0.1766592  55.47 0.0002798542    1.213    0.176
       145  -9.3727    208.4918     19.9800   3.5279683948e+02   3.1131243774e+01    0.1885728   0.06112989 -49.34 0.0008091306    2.438    0.590
       146 -10.5202     25.2674    175.2832   7.2436779346e+01   3.4372137928e+01    0.2330118    0.1620615  25.10 0.0008384563    1.437    0.304
       147 -10.7838     23.5309     16.0371   3.8016677205e+01   7.4778514487e+01    0.2090852    0.2067683  49.48  0.001207722    1.289    0.224
       148 -10.6268     19.9675     15.6951   4.0648898825e+01   7.5331568054e+01    0.2732912    0.2031517   4.26  0.000969167    1.341    0.254
       149 -10.6789    107.9701     18.6929   4.2363043811e+00   5.5735462181e+01    0.4731591    0.1874492  72.59  0.001742346    2.605    0.616
       150  -9.5862     48.5059     19.5245   2.4217294314e+01   6.9851271241e+01    0.1358849    0.1238226  27.78 1.277219e-05    1.013    0.012
       151 -10.0627     20.5500    174.8932   7.3780887854e+01   3.4902796182e+01    0.2900898    0.1248142  41.81  0.001090965    1.939    0.484
       152 -10.7404      3.8000     17.1698   5.6047544689e+01   7.6701750306e+01    0.3295767    0.2303891  -3.38  0.001953449    1.376    0.273
       153 -11.0959    224.2012    172.9058   2.4034707935e+01   6.3065587466e+00    0.2453177     0.138614 -42.51  0.001269081    1.784    0.439
       154 -10.5720     21.5813    170.3363   7.3179165978e+01   3.5951003409e+01    0.2354441    0.2265863  54.03 0.0005866626    1.146    0.127
       155 -10.4050    183.1909     14.7313   3.5333413950e+02   3.7282308589e+01    0.2125344    0.1316366 -73.15 0.0006536476    1.478    0.323
       156  -8.9920     39.6780    170.6795   6.7806076181e+01   3.4065255917e+01    0.1389399    0.1046548 -34.19 0.0005340159    1.672    0.402
       157  -9.9499      8.5001    165.0464   7.6761349195e+01   3.8372481091e+01    0.2062481    0.1709734  36.93 0.0009419121    1.189    0.159
       158 -10.5544    111.8785     13.9234   1.5564148127e+00   5.5233700065e+01    0.3998886    0.1729706  69.06  0.001646271    2.067    0.516
       159 -10.1205      3.1660    156.1772   7.7943212861e+01   4.1018520606e+01    0.1899138    0.1708069 -78.72 0.0003997375    1.168    0.144
       160 -10.0639     40.0013    148.0449   6.5349117651e+01   3.9912043568e+01    0.2546774    0.2008746 -85.82 0.0009080447    1.236    0.191
       161 -11.0102    236.0076    146.7198   1.7443100615e+01   8.5281703227e+00     0.327782    0.1161632 -46.88  0.001307013    3.535    0.717
       162  -9.7204     11.5046    147.4602   7.4781222019e+01   4.2703386522e+01    0.1394747     0.120721  69.07 0.0004218393    1.020    0.020
       163  -9.3417    189.3250     10.3268   3.5172197833e+02   3.6344141633e+01    0.1166919   0.09394462  42.36  0.000283677    1.695    0.410
       164  -9.6741     24.9731    146.4492   7.0217659443e+01   4.1856875411e+01     0.208078    0.1363616  23.82 0.0009613452    1.567    0.362
       165 -10.8393    248.8003    145.0247   1.5409770625e+01   7.0555679215e+00    0.1468155    0.1268941 -58.22  0.001062168    1.597    0.374
       166  -9.7831     88.5008     25.5003   1.1885793817e+01   5.9873803063e+01    0.3361548    0.1674893 -56.23  0.001254414    2.926    0.658
       167 -10.9075     21.6647    141.7260   7.0910305914e+01   4.3417200642e+01    0.2847609    0.2620246 -61.31 0.0008182574    1.168    0.143
       168  -9.6146      6.8563    143.1501   7.6046808967e+01   4.4174427739e+01    0.1900273    0.1491151 -60.66  0.001064407    1.329    0.248
       169 -10.8099    246.4888    138.0430   1.4401398139e+01   8.3336602262e+00    0.1867047   0.09152757 -35.19  0.001035564    1.599    0.374
       170  -9.8208     28.5045    138.0931   6.8172379268e+01   4.3776470769e+01    0.2080097    0.1897628  44.05 0.0004728099    1.104    0.094
       171 -10.5384     11.5355    134.8616   7.3865193275e+01   4.6066777366e+01      0.35788    0.2091549 -73.95 0.0009824141    1.578    0.366
       172 -11.1107     18.9305    132.8140   7.1049663201e+01   4.6057131172e+01    0.4092318    0.2031362  40.70  0.001108007    1.894    0.472
       173 -10.7243    244.8050    131.7863   1.3424581928e+01   9.4459076410e+00    0.1935241    0.1139565  -2.53 0.0009536698    2.822    0.646
       174 -11.8451    235.7061    130.3703   1.4328009774e+01   1.0951879914e+01    0.4470106    0.1769867 -28.22  0.001935433    2.693    0.629
       175 -11.3875    249.9129    127.5632   1.1985935626e+01   9.3284484827e+00    0.2474851    0.1367352 -39.36  0.001475113    1.452    0.311
       176  -9.4358      5.5013    125.4850   7.5346818944e+01   4.8998509454e+01    0.1383869    0.1238837  86.40 -7.424707e-05    1.018    0.018
       177  -9.5988     64.0065    122.5047   5.3021486938e+01   4.3663926342e+01    0.2187125    0.1492746  33.77 -0.0002029685    1.450    0.310
       178 -11.4845    245.9265    120.1914   1.1041042012e+01   1.0924906041e+01    0.2094209    0.1632637 -65.72  0.001391391    1.709    0.415
       179 -10.3026     91.4058    116.5173   4.2259509367e+01   4.0576064561e+01    0.2605779    0.2499513  54.20 0.0001914645    1.025    0.024
       180 -10.2642     13.4342    117.2234   7.1610539816e+01   5.0734274206e+01    0.2645601    0.1755168 -18.20 0.0009091057    1.864    0.463
       181  -9.1770      1.5310    117.5152   7.6281884856e+01   5.1379229249e+01    0.1385112    0.1215656  81.38 0.0003767948    1.027    0.026
       182 -10.5222     21.2025    115.6788   6.8355552467e+01   5.0564817109e+01     0.319549    0.1736274 -63.52  0.001424059    1.690    0.408
