#   1 NUMBER                 Running object number                                     
#   2 MAG_AUTO               Kron-like elliptical aperture magnitude                    [mag]
#   3 X_IMAGE                Object position along x                                    [pixel]
#   4 Y_IMAGE                Object position along y                                    [pixel]
#   5 X_WORLD                Barycenter position along world x axis                     [deg]
#   6 Y_WORLD                Barycenter position along world y axis                     [deg]
#   7 A_WORLD                Profile RMS along major axis (world units)                 [deg]
#   8 B_WORLD                Profile RMS along minor axis (world units)                 [deg]
#   9 THETA_WORLD            Position angle (CCW/world-x)                               [deg]
#  10 FWHM_WORLD             FWHM assuming a gaussian core                              [deg]
#  11 ELONGATION             A_IMAGE/B_IMAGE                                           
#  12 ELLIPTICITY            1 - B_IMAGE/A_IMAGE                                       
         1 -11.3470     91.5442      9.8339   9.2882729340e+00   6.1577974401e+01    0.4235874    0.2223413  31.92  0.001292309    2.437    0.590
         2 -10.9111     49.2603      8.2214   2.3948479780e+01   7.1991595059e+01    0.1989353     0.164227  27.27  0.001156974    1.105    0.095
         3 -10.3904     68.1943      5.6146   1.3950024617e+01   6.7956766316e+01    0.1984252    0.1086826  49.63 0.0003750969    1.584    0.368
         4 -10.8142      7.2073      2.0691   5.3917401418e+01   7.9587281037e+01    0.1864646    0.1353329 -21.95 0.0006991474    1.217    0.178
         5 -11.2894    145.4698      1.2890   3.5700908546e+02   4.7731957408e+01    0.2170501    0.1111211  79.11 0.0002068051    1.734    0.423
         6 -11.0410    248.2631    247.9553   3.7641677869e+01  -5.8719446168e+00    0.1168877   0.06832149 -21.39 0.0004064533    1.502    0.334
         7 -11.9356    139.3020    248.8045   5.7331080233e+01   6.3028693755e+00    0.3025525    0.1791051 -34.64  0.001837019    2.121    0.528
         8 -11.3967    124.8927    249.4088   6.0375260549e+01   8.0289214238e+00    0.1898806    0.1602513 -16.70 0.0007004416    1.414    0.293
         9 -11.1686    102.8375    249.8312   6.5077836324e+01   1.0723997000e+01    0.1679101     0.107395  42.70 0.0005736038    1.322    0.244
        10 -10.6041     83.9853    250.4820   6.9174998269e+01   1.2918710126e+01    0.1887076   0.08730964  32.63  0.001018936    1.561    0.359
        11 -11.1237     59.0296    248.5292   7.4425166726e+01   1.6143688818e+01    0.2628379   0.08804785  29.90  0.001226848    2.226    0.551
        12 -12.5811     70.7629    239.2757   7.1233022518e+01   1.6404399339e+01    0.4502833    0.2071045 -57.37  0.001066329    2.744    0.636
        13 -12.9795     72.6926    231.3803   7.0196622056e+01   1.7595476344e+01    0.4397612    0.2994373 -64.60  0.001162126    1.829    0.453
        14 -11.6845     65.1494    249.6579   7.3174947256e+01   1.5259826993e+01    0.3854704    0.1062265  40.85  0.001136783    2.369    0.578
        15 -13.1535     65.6261    246.0360   7.2836851646e+01   1.5823983087e+01    0.6046354    0.1612173  40.38  0.002684566    2.432    0.589
        16 -15.4962     25.8322    191.4639   7.9045276804e+01   3.1067285127e+01     2.183277     0.873749  69.44  0.009295332    2.662    0.624
        17 -14.7292     36.1688    247.5592   7.9280453049e+01   1.8761998284e+01     1.262413    0.7731465  61.36  0.008329731    1.459    0.315
        18 -14.8777     21.3676    214.1735   8.1216940210e+01   2.6598187444e+01     1.534593    0.6178076  42.20  0.007855697    1.772    0.436
        19 -15.0642     13.7566    207.1484   8.2774175476e+01   2.8756115446e+01     1.343779     0.832073  -7.03   0.00628363    2.625    0.619
        20 -13.7591     14.8640    195.4215   8.2065344866e+01   3.1190251061e+01    0.5538672    0.4342109  12.18  0.002534695    1.514    0.339
        21 -13.8434     10.8583    189.7920   8.2877035242e+01   3.2786615458e+01    0.7614421    0.4338779  -2.75  0.003706166    2.726    0.633
        22 -14.5780      6.7421    184.0838   8.3749354359e+01   3.4412632898e+01    0.9533091    0.5984498  38.13   0.00558874    1.348    0.258
        23 -14.8978     26.1402    226.4490   8.0605112856e+01   2.3681960997e+01     1.166788    0.5931377  23.09  0.006356282    1.891    0.471
        24 -14.4042      3.4787    201.3386   8.5083107537e+01   3.0853852560e+01    0.5955886     0.437428 -81.47  0.002791156    1.468    0.319
        25 -14.1715     20.5551    247.8425   8.2579475327e+01   2.0245875067e+01    0.6708341    0.3451259  21.19  0.003905218    1.962    0.490
        26 -14.7102      3.2144    223.7520   8.5669333052e+01   2.6284768614e+01    0.8337431    0.3759428 -74.93  0.004615539    2.480    0.597
        27 -16.3824      8.8639    237.7099   8.4760803728e+01   2.3145115668e+01     2.314018    0.7333602  32.75   0.01185963    2.125    0.529
        28 -15.7480     16.2837    228.6322   8.2900514438e+01   2.4192264553e+01     1.461266    0.4964698  58.63   0.00707896    2.427    0.588
        29 -14.0856      1.9172    249.8276   8.6435661146e+01   2.1568313232e+01     0.291605    0.1446065  75.33  0.001714744    1.897    0.473
        30 -14.4631      6.3472    247.9645   8.5507407929e+01   2.1514004844e+01    0.4595267    0.2255901  52.17   0.00182604    1.438    0.305
        31 -10.7712    237.7421    247.9818   3.9271085190e+01  -4.8657968685e+00    0.1464504   0.09866361  -3.27 0.0007171067    1.103    0.093
        32 -10.1751    204.6743    248.3045   4.4807931991e+01  -1.4507127025e+00   0.09533276   0.07531995  31.17 0.0003424747    1.645    0.392
        33 -10.7795    214.8586    247.1723   4.2900161010e+01  -2.4331252845e+00    0.1498406    0.1162708  11.12 0.0005517225    1.268    0.211
        34 -10.6725    205.6703    244.3178   4.4092844616e+01  -1.1079418044e+00   0.09581861    0.0776532  32.07 0.0005766924    1.684    0.406
        35 -11.2320    131.0399    243.9980   5.8507775830e+01   8.0534769581e+00    0.1848963    0.1383105  27.22 0.0004965129    1.024    0.023
        36 -11.6205    162.9245    242.6131   5.1837652385e+01   4.1926567401e+00    0.1742537    0.1522068   3.06 0.0003600054    1.257    0.204
        37 -11.1982    126.3310    241.4348   5.9220310734e+01   9.0492930486e+00    0.1688922      0.13346  56.73 0.0008226545    1.586    0.369
        38 -11.2666    143.4141    242.5889   5.5772656440e+01   6.6724650056e+00     0.209766    0.1333714  21.70  0.001296002    1.258    0.205
        39 -12.3159     98.9207    247.1519   6.5678285168e+01   1.1635904874e+01    0.2945981    0.2005865   8.42  0.001794619    1.686    0.407
        40 -15.3042      8.7773    165.2281   8.2467797138e+01   3.8700523124e+01     1.517938     1.060671  43.43  0.004777307    1.247    0.198
        41 -10.9653    149.5770    239.2317   5.4101264599e+01   6.3638807569e+00    0.1478599    0.1047174 -22.68 0.0007585027    1.617    0.382
        42 -12.6320    102.5563    237.5729   6.3989344922e+01   1.2748468916e+01    0.3216675    0.2273097 -58.58  0.001525476    1.834    0.455
        43 -12.6049     47.5664    235.4811   7.6194311796e+01   1.9741491202e+01    0.4075807    0.2022664  74.64  0.002148909    2.381    0.580
        44 -11.1450     79.7481    237.0797   6.9047244499e+01   1.5707425976e+01    0.2483922    0.1727535  13.49  0.001495095    1.582    0.368
        45 -11.8176    217.3465    237.7202   4.1158224432e+01  -1.6526898242e+00    0.1668223    0.1286354   8.67 0.0005322666    1.202    0.168
        46 -11.1107    211.0838    236.1655   4.2009577732e+01  -7.7517458874e-01     0.161687    0.1502931 -46.78  0.001235578    2.069    0.517
        47 -10.7671    138.1652    236.1672   5.6104022965e+01   8.3077922413e+00    0.1592296    0.1181566  38.77 0.0002327415    1.293    0.227
        48 -11.5408     58.6204    234.3051   7.3625040024e+01   1.8721578793e+01    0.2279182    0.1275868  34.01 0.0006148445    1.358    0.263
        49 -12.1405    222.6544    232.4689   3.9507189755e+01  -1.6429937595e+00    0.2235707    0.1544337  -6.63 0.0006069297    1.159    0.138
        50 -10.6591    214.3594    233.2851   4.1030224657e+01  -8.1054609337e-01    0.1166739   0.06555894   4.11 0.0005400745    1.679    0.404
        51 -11.8019    181.2421    231.3788   4.6772576831e+01   3.3972960340e+00    0.2654662    0.1424644  32.08  0.001551016    1.567    0.362
        52 -11.5175    142.9592    231.6443   5.4535500710e+01   8.3607868588e+00    0.1814237    0.1705278  17.49 0.0003110379    1.281    0.219
        53 -11.1406    122.9531    231.4907   5.8834285092e+01   1.1070196617e+01    0.1937744   0.09818255  31.74 0.0004558856    1.527    0.345
        54 -12.7269     60.8431    230.0226   7.2826559297e+01   1.9261157779e+01    0.3358855    0.1840401  53.63  0.001867647    1.636    0.389
        55 -12.0341    231.1639    228.7949   3.7566034132e+01  -2.1584520458e+00    0.2121928    0.1787798 -48.30  0.001530002    2.434    0.589
        56 -12.3035    194.6490    228.9544   4.3908473029e+01   2.0446707399e+00    0.2232204    0.2007461  19.13 0.0003378903    1.480    0.324
        57 -10.6913    150.3030    229.6663   5.2738681751e+01   7.6773594318e+00    0.1157507   0.08638862  48.93 0.0004892207    1.659    0.397
        58 -10.9808    138.4964    227.8383   5.5009063823e+01   9.5550198393e+00    0.2650021    0.1878709 -83.71  0.001429541    2.774    0.639
        59 -11.7010     97.9848    227.9792   6.4070244572e+01   1.4998714658e+01    0.2000868     0.124794  52.06 0.0004651535    1.622    0.384
        60 -12.6523     49.2743    226.7384   7.5292389080e+01   2.1206089293e+01    0.3174976    0.1508849  35.56   0.00153573    1.565    0.361
        61 -10.9258    129.3008    226.3192   5.6823882447e+01   1.1056061408e+01      0.12415   0.08728111   1.07  0.000220118    1.622    0.384
        62 -12.0015    116.6997    225.5742   5.9546416273e+01   1.2905448034e+01    0.2455465    0.1712856  50.19 0.0006277201    1.508    0.337
        63 -11.4016    114.5206    221.5188   5.9571099601e+01   1.3907623797e+01    0.1805803    0.1308002 -56.38 3.820879e-05    1.735    0.424
        64 -12.0924     80.9019    225.5696   6.7804242749e+01   1.7649449700e+01    0.2705481     0.227942  19.88 0.0009696409    1.228    0.186
        65 -10.4057    182.4658    225.5103   4.5702982776e+01   4.0317834739e+00    0.1209695   0.09172642  11.55 0.0001594598    1.014    0.014
        66 -11.0878    106.6523    225.6978   6.1844647913e+01   1.4247048604e+01    0.1261576   0.09006104   2.24   0.00027171    1.690    0.408
        67 -12.6450     93.1020    223.6388   6.4765936243e+01   1.6426150880e+01    0.3695294    0.2646565   0.30  0.002096798    1.788    0.441
        68 -12.1732    159.8235    222.3906   4.9776317791e+01   7.4848532034e+00    0.4166265    0.2153154  31.97  0.002239253    1.578    0.366
        69 -11.1186     73.0331    222.7180   6.9411846637e+01   1.9176928400e+01    0.1805357    0.1334802  38.34 0.0003316495    1.059    0.055
        70 -13.0979     57.5128    221.0333   7.2974183998e+01   2.1378082810e+01    0.3525361    0.2818987 -37.47 0.0006264653    1.708    0.415
        71 -12.2164    189.0136    220.9906   4.3790168162e+01   3.8018755030e+00    0.2896486    0.1767955  15.53  0.001744567    1.427    0.299
        72 -13.8691     47.5511    212.9133   7.4823462047e+01   2.4154197887e+01    0.5855693     0.397412  72.51  0.001842805    1.487    0.328
        73 -12.8081     40.7708    212.4664   7.6454831752e+01   2.4991455241e+01    0.3348244    0.3063865  51.82  0.001603246    1.180    0.153
        74 -12.2971    173.7017    219.4511   4.6536656161e+01   6.0362832508e+00    0.2660262    0.2173246 -32.20  0.001474195    1.440    0.306
        75 -11.1525    212.9812    220.5900   3.9379530520e+01   8.7271472861e-01    0.2077757    0.1533771 -27.24  0.001470192    1.459    0.315
        76 -11.1948    223.7365    219.6308   3.7400598652e+01  -2.7427395077e-01    0.1744272    0.1164022  -9.88  0.001207832    1.239    0.193
        77 -11.9298     77.0201    219.4958   6.8181409582e+01   1.9294559107e+01    0.2859173    0.1593515  52.75 0.0007756228    1.712    0.416
        78 -11.0504     67.0820    220.2277   7.0625294602e+01   2.0392146708e+01    0.1901831    0.1560729  15.24  0.001205212    1.343    0.256
        79 -12.5469    145.4371    216.6423   5.2026149397e+01   1.0387004163e+01    0.3536843    0.3000557  54.59  0.001291777    1.512    0.339
        80 -12.5823    141.8632    211.7731   5.2131174489e+01   1.1705010272e+01    0.3103225    0.2016314 -65.24  0.001616846    2.438    0.590
        81 -13.5199     44.5569    220.7280   7.6036977549e+01   2.2904158714e+01    0.5162629    0.4194535  51.06  0.003483214    1.068    0.064
        82 -12.8139    121.4359    216.5101   5.7377622008e+01   1.3820964438e+01    0.3560281    0.2638964  76.89   0.00078527    2.045    0.511
        83 -11.5911     72.7464    212.3299   6.8573946625e+01   2.1250357726e+01    0.3842873    0.1365811  26.46    0.0013809    2.638    0.621
        84 -12.0014     77.9177    213.9980   6.7459211179e+01   2.0253632855e+01    0.4923887    0.1154579  34.85  0.001792989    2.913    0.657
        85 -11.8280     87.0912    214.9888   6.5325027256e+01   1.8854217119e+01    0.2863463    0.2574861  30.32  0.001203026    1.131    0.116
        86 -11.3540     83.6865    214.3403   6.6086010921e+01   1.9431963150e+01    0.2577738    0.1995007 -75.73  0.001250166    1.566    0.362
        87 -12.5586    107.4924    214.3341   6.0364612625e+01   1.6182228643e+01    0.3251041    0.2091897  55.36  0.001733784    1.751    0.429
        88 -11.1409    133.6760    213.6678   5.4222380456e+01   1.2565886500e+01    0.1322503   0.09161219  -0.47 0.0006556473    1.705    0.414
        89 -11.0476     94.7029    217.2550   6.3731331904e+01   1.7399266329e+01    0.2164309    0.1369074  38.01 0.0003248577    1.263    0.209
        90 -12.3433    229.4543    208.4798   3.4703277896e+01   3.9937333333e-01    0.3403834    0.1810175 -10.26    0.0017636    1.968    0.492
        91 -12.4657    226.7036    206.3160   3.4805416381e+01   9.9164917131e-01     0.317177    0.2525377 -53.42  0.001744211    2.430    0.588
        92 -10.6981    209.4949    211.0300   3.8502301492e+01   2.5118864289e+00    0.1602539    0.1018802 -28.54 0.0005007403    1.528    0.346
        93 -12.5868     52.7945    209.8402   7.3314510388e+01   2.4191922478e+01    0.3636098    0.1777385  38.10 0.0008019526    1.575    0.365
        94 -11.6501     59.2717    207.5501   7.1518206099e+01   2.3902905428e+01     0.250264    0.1593416  31.64 0.0008217895    1.334    0.250
        95 -12.7940     53.6343    204.9695   7.2738317011e+01   2.5117015096e+01    0.4934798    0.1698843  46.08  0.002065642    2.348    0.574
        96 -11.5994    169.7022    208.8308   4.5750220017e+01   8.1727117307e+00    0.2719623     0.210135  76.36  0.001060203    2.772    0.639
        97 -11.3032     96.8700    208.9697   6.2297801416e+01   1.8689446157e+01    0.3015274     0.187673 -76.13  0.001545666    2.191    0.544
        98 -11.4152    155.7656    212.9979   4.9286621475e+01   9.5045768919e+00    0.2718045    0.1583861  27.77  0.001474757    1.433    0.302
        99 -11.0116     89.6283    208.8008   6.4057208777e+01   1.9723671056e+01    0.1744381    0.1494445  57.43  0.001083398    1.189    0.159
       100 -12.4241    160.7350    207.2598   4.7377008814e+01   9.7061542295e+00    0.2505402    0.1917202  23.01 0.0002153617    1.083    0.077
       101 -12.7939     63.3142    217.1773   7.1289875003e+01   2.1451464775e+01    0.3337816    0.2532503  46.39    0.0015514    1.073    0.068
       102 -11.7621    116.0923    204.0594   5.7027178755e+01   1.6868733578e+01    0.2114756    0.1891849  50.10 0.0003583725    1.199    0.166
       103 -11.0777    238.8170    204.3948   3.2547406086e+01  -2.0035986543e-01    0.1501213   0.08488804  17.76 0.0003760574    1.620    0.383
       104 -12.4922     90.5099    188.7071   6.1478646843e+01   2.3755343406e+01    0.9752992    0.4786968 -86.17  0.003299345    4.354    0.770
       105 -12.1944     89.3034    201.3172   6.3307027778e+01   2.1276878210e+01    0.3498526    0.2376969 -59.61    0.0015912    1.726    0.421
       106 -12.1666     91.5246    198.5217   6.2417711005e+01   2.1538927764e+01    0.3270788    0.2895776 -55.65  0.001321487    1.333    0.250
       107 -12.6632    144.8251    199.9383   4.9734323198e+01   1.3298084523e+01    0.4833971    0.3825829 -77.27  0.002723936    1.976    0.494
       108 -11.2466    179.9754    208.6075   4.3646684106e+01   6.7632274048e+00    0.2896484    0.1573582 -22.97  0.001486046    2.137    0.532
       109 -11.4560    212.3230    199.9290   3.6200849138e+01   3.6148665563e+00    0.2602024    0.1993135 -55.88  0.001571785    2.398    0.583
       110 -12.5381    134.8143    198.6283   5.1829239006e+01   1.5059771555e+01    0.4920844    0.2845145  57.52  0.001634457    2.685    0.628
       111 -12.1390    138.0174    196.9819   5.0838269791e+01   1.4867412878e+01    0.2750458    0.1955626  25.36 0.0003348789    1.227    0.185
       112 -11.1686     49.3274    199.1389   7.3397735006e+01   2.6872425475e+01    0.3633699    0.2205738 -49.30  0.001774012    2.124    0.529
       113 -11.1069    180.0376    198.9875   4.2092019514e+01   8.2020134837e+00    0.2290206    0.1449444  29.24 0.0007164986    1.385    0.278
       114 -13.2422    173.4351    195.6462   4.2878142891e+01   9.6940403446e+00    0.3555056     0.266255  35.51 0.0005617633    1.326    0.246
       115 -11.7282    149.9889    198.2730   4.8321221786e+01   1.2801600322e+01    0.2136085    0.1889706  71.89 0.0007323756    1.590    0.371
       116 -12.9423    122.1383    196.6215   5.4543057397e+01   1.7377209466e+01    0.4681125    0.3206042  38.10  0.002528189    1.268    0.211
       117 -11.0458    115.9907    195.9753   5.5950198408e+01   1.8440995237e+01    0.2016798    0.1750102  35.02 0.0003924212    1.051    0.049
       118 -11.2661     84.3321    198.2279   6.4226517328e+01   2.2609372318e+01    0.3325793    0.1997962  84.16    0.0015437    2.393    0.582
       119 -11.3020    224.8621    198.0989   3.3758328028e+01   2.2519846019e+00    0.1632284    0.1385796  -4.38 0.0004893054    1.251    0.201
       120 -11.7409     41.5144    191.5367   7.4891620734e+01   2.9437972040e+01    0.2097255    0.1692906 -31.55  0.001080895    1.662    0.398
       121 -12.4484     37.1322    196.8692   7.6407819463e+01   2.8718083907e+01    0.3326595    0.1984199  36.92  0.001812008    1.373    0.272
       122 -13.6067     36.9841    190.0313   7.5997983904e+01   3.0266291740e+01    0.4948508    0.3064046 -63.79  0.001772249    1.811    0.448
       123 -10.5184    233.1332    197.1714   3.2256799863e+01   1.3495609195e+00     0.137889    0.1165412  -5.77 0.0002832761    1.276    0.216
       124 -11.8449    192.5166    195.1552   3.9018558635e+01   6.9874488669e+00     0.309207    0.2453378 -13.59   0.00118878    1.159    0.138
       125 -10.9647    189.4758    192.4573   3.9143696778e+01   7.8271601439e+00    0.2066597     0.155099 -41.06  0.000591104    1.569    0.363
       126 -10.6434    202.2628    195.0110   3.7175172481e+01   5.6428145142e+00    0.1474826   0.09569654 -29.71 0.0006101481    1.490    0.329
       127 -11.8312    160.5427    192.9843   4.5156173546e+01   1.2087687599e+01    0.2693582    0.2365633 -34.31 0.0008511651    1.302    0.232
       128 -11.2204    211.9110    193.4559   3.5182757631e+01   4.5468070734e+00    0.2314703    0.1389737  19.86  0.001349809    1.556    0.357
       129 -12.3390    133.8377    190.7022   5.0850429577e+01   1.6682851382e+01    0.3476441    0.2509336  16.72  0.001244035    1.373    0.272
       130 -12.2338     50.7222    189.9597   7.2296952052e+01   2.8750212874e+01    0.2988741    0.1963607  48.78 0.0004186289    1.289    0.224
       131 -11.7365    101.3548    196.2351   5.9637356673e+01   2.0584565163e+01    0.2962585    0.2516546 -10.31  0.001634024    1.385    0.278
       132 -12.8537     84.7785    167.8595   6.0246909979e+01   2.9303770468e+01    0.4141731    0.2346606  47.19  0.001844321    1.661    0.398
       133 -11.4707     70.4764    186.9322   6.6646235499e+01   2.6953600464e+01    0.3607085    0.1592551  37.64  0.001188012    1.844    0.458
       134 -13.3539     80.0798    173.0519   6.2306725208e+01   2.8789803844e+01    0.7165576    0.4118969 -29.29  0.002825372    2.940    0.660
       135 -12.2555     76.2658    185.7953   6.4944701184e+01   2.6421740523e+01    0.5332431    0.3074658 -60.66  0.002586036    1.931    0.482
       136 -11.3310     75.3920    180.2130   6.4528129263e+01   2.7805953372e+01      0.34141    0.2486721 -77.02  0.001746848    1.541    0.351
       137 -11.6381    174.6355    188.8576   4.1486043789e+01   1.0605307641e+01    0.2229033     0.155245  18.79 0.0005869499    1.315    0.240
       138 -11.1202    168.2784    189.0378   4.2841687761e+01   1.1554839993e+01    0.1808196    0.1565078   4.55  0.000399176    1.052    0.049
       139 -12.7191    110.5673    187.8891   5.6157708586e+01   2.0898284534e+01    0.3040964    0.2656978   5.99  0.001771708    1.215    0.177
       140 -12.7777    126.8018    186.0908   5.1826251973e+01   1.8692742406e+01    0.4463786     0.212403  39.51   0.00194496    1.851    0.460
       141 -11.4983    248.6542    185.8543   2.7958683831e+01   8.7840898400e-01    0.1852349    0.1258135   9.04 0.0006403616    1.316    0.240
       142 -10.8476    208.6794    186.6353   3.4572895115e+01   5.9416128727e+00    0.1319462   0.08103903  -2.40 0.0007039832    1.782    0.439
       143 -11.5452    156.9668    185.6993   4.4717576525e+01   1.3908950407e+01    0.2424095    0.1759484  -8.52  0.001278099    1.535    0.348
       144 -10.9099    100.0630    184.7227   5.8428845291e+01   2.3182924671e+01    0.1964741    0.1637299  32.63 0.0002017728    1.061    0.058
       145 -10.9391    162.9931    184.5601   4.3202300330e+01   1.3145552461e+01    0.2083359    0.1181979  34.33  0.001023672    1.587    0.370
       146 -11.0417     65.6497    184.0391   6.7659477631e+01   2.8247087633e+01    0.2385237    0.2055282  60.72  0.001008036    1.093    0.085
       147 -12.0943     94.3476    181.8934   5.9557581588e+01   2.4665464832e+01     0.359112    0.2910276 -76.77  0.001118357    1.432    0.301
       148 -10.8699     95.2888    176.6485   5.8566172652e+01   2.5680464836e+01    0.1489905    0.1023875  62.52 0.0007025411    1.668    0.401
       149 -12.0888    134.1873    181.9898   4.9367413650e+01   1.8297176807e+01    0.2348591    0.1782627  30.84 0.0002370659    1.160    0.138
       150 -13.1571    116.1973    178.3944   5.3277624175e+01   2.1971562857e+01     0.395999    0.2936932 -35.18  0.002058091    1.564    0.361
       151  -9.6252     60.5745    197.4735   7.0328006389e+01   2.5893177018e+01    0.1329043    0.1136612  44.45 5.216276e-05    1.045    0.043
       152 -11.2055    223.1931    180.2086   3.0944796412e+01   4.8371807857e+00    0.2102098    0.1105306  -1.23 0.0009536137    2.837    0.647
       153 -11.6146     99.6208    179.8382   5.7854488654e+01   2.4305949148e+01    0.2733848    0.1892245   8.28  0.001071762    1.814    0.449
       154 -11.5373     31.0148    180.3380   7.6980764673e+01   3.3122383734e+01    0.1871009    0.1492073  42.18 0.0003994731    1.111    0.100
       155 -12.0879     31.7126    176.1217   7.6499739146e+01   3.4051454101e+01    0.2572606    0.1965073  32.17 0.0006486785    1.245    0.197
       156 -10.2558    231.2718    179.6395   2.9533778238e+01   3.8351797692e+00    0.1038226   0.08805816 -42.07 0.0003282067    1.652    0.395
       157 -11.4763    191.2626    177.9897   3.6245205822e+01   9.7882839522e+00    0.1802752    0.1519579 -11.91 0.0005715706    1.095    0.087
       158 -12.8469    137.1669    176.7242   4.7758523684e+01   1.8831239353e+01    0.3665486    0.2566907 -64.01  0.001604213    1.910    0.476
       159 -13.2084    127.3313    176.3356   5.0112114459e+01   2.0556989470e+01    0.4129891    0.3292465 -57.74  0.002245454    1.468    0.319
       160 -11.6790    246.3147    177.0104   2.6768385345e+01   2.2528602654e+00    0.1795832    0.1142733  29.20  0.000827149    1.626    0.385
       161 -11.4635    154.4594    176.7647   4.3719422628e+01   1.5925749699e+01    0.2521683    0.1378369 -51.36  0.001142962    2.198    0.545
       162 -11.8431     63.1892    177.0708   6.7601893341e+01   3.0183534539e+01      0.32393    0.1919008  16.62 0.0008423133    1.969    0.492
       163 -12.3636    106.6768    175.5369   5.5326263608e+01   2.4125306919e+01    0.2755874    0.2312013  48.70 0.0007400197    1.148    0.129
       164 -12.1084    144.3521    172.6677   4.5324666709e+01   1.8403633816e+01    0.2874214    0.1851947  57.16   0.00130396    2.107    0.525
       165 -11.9666     44.5973    172.2181   7.2479821140e+01   3.3613130198e+01    0.2419977    0.1976108  34.53 0.0004430122    1.166    0.142
       166 -12.2476    198.0004    170.8277   3.3644231229e+01   9.8663760339e+00    0.2907034    0.2140261 -17.57  0.001027354    1.264    0.209
       167 -13.4021     91.0160    170.7623   5.8895225996e+01   2.7673091812e+01    0.3928065     0.335005 -52.24  0.001719115    1.312    0.238
       168 -12.2472    152.9830    165.6636   4.2011989516e+01   1.8253173310e+01    0.3073893    0.2467224  74.34  0.001579073    1.835    0.455
       169 -11.6668     62.0085    170.6940   6.7232538976e+01   3.1853913424e+01    0.2899666    0.1541444  30.01  0.001044808    1.720    0.419
       170 -11.5916     36.3363    170.9416   7.4783556591e+01   3.4824507003e+01    0.1925106    0.1661049  78.38  0.001071296    1.115    0.103
       171 -12.4685    127.4910    165.9556   4.8267795451e+01   2.2671590897e+01    0.3262767    0.2587948   8.77 0.0009418116    1.381    0.276
       172 -12.3204    118.2471    169.2545   5.1241400355e+01   2.3564912022e+01    0.3497964    0.2642772 -10.25 0.0009578987    1.675    0.403
       173 -12.0762    123.1322    167.8454   4.9725019608e+01   2.3029466752e+01     0.327809    0.2204491  18.29  0.001097501    1.660    0.398
       174 -12.2120    101.8887    170.1322   5.5778666283e+01   2.6091276008e+01    0.2683368    0.1871645  28.63 0.0005635571    1.353    0.261
       175 -11.8242    159.3852    168.3440   4.1066213097e+01   1.6639510642e+01    0.2504352    0.2247286  35.94 0.0002296398    1.168    0.144
       176 -12.0826     53.0638    167.9989   6.9576666625e+01   3.3640882752e+01    0.4033764    0.1563807  37.30  0.001617272    2.121    0.529
       177 -11.2376     30.8524    167.7038   7.6146879272e+01   3.6174093096e+01    0.3742457    0.1416699  48.72  0.001527549    2.294    0.564
       178 -12.3089    100.2446    166.1513   5.5601060607e+01   2.7257352831e+01    0.3223495    0.2453739   9.83 0.0002752421    1.537    0.350
       179 -11.8720    110.9701    165.0574   5.2466447888e+01   2.5714762333e+01     0.234465    0.2065872  33.30 0.0006456414    1.034    0.032
       180 -12.5227     57.3632    163.7497   6.7820723715e+01   3.4146498786e+01    0.4094671    0.1921922  59.85  0.001583222    2.501    0.600
       181 -11.0700    205.7525    164.0038   3.0936492444e+01   9.7145247082e+00    0.1826592    0.1506773 -11.81 0.0006965222    1.050    0.048
       182 -10.3098    162.2963    164.2844   3.9644717838e+01   1.6882266542e+01    0.1395853    0.1024225   1.43 0.0001867383    1.544    0.353
       183 -12.3760    153.1395    170.2942   4.2843856407e+01   1.7350333318e+01    0.2669329    0.2391676  39.96 0.0006921616    1.184    0.155
       184 -10.6906     64.3255    164.6697   6.5833150443e+01   3.3007070623e+01    0.1580443    0.0957782  58.78 0.0005717725    1.705    0.413
       185 -11.2068    141.7876    162.8916   4.4134383597e+01   2.0774665495e+01    0.2097768    0.1824948   0.86 0.0003407674    1.170    0.145
       186 -10.8491    229.7649    161.8268   2.6512646053e+01   6.4568792554e+00    0.1532945    0.1314351 -33.05 0.0005821816    1.346    0.257
       187 -11.9060     24.7279    161.2340   7.7516678292e+01   3.8357158703e+01    0.3578811     0.183209 -52.76  0.001625382    2.275    0.560
       188 -12.3650    169.9443    159.9217   3.7128765849e+01   1.6337429169e+01    0.3257785     0.288796 -84.72  0.001847353    1.601    0.376
       189 -10.8002    212.2541    164.0103   2.9800111133e+01   8.7156157178e+00    0.1728048    0.1395272 -16.83 0.0002048549    1.079    0.074
       190 -11.9841     40.6789    161.5678   7.2678447541e+01   3.6670508195e+01     0.246128    0.1344762  20.23 0.0006575136    1.955    0.489
       191 -12.2531    105.7305    158.9547   5.2858754177e+01   2.7981549618e+01     0.369622    0.2162859  50.11  0.001588048    1.768    0.434
       192 -12.7864    133.2486    157.1212   4.5149026347e+01   2.3496685796e+01    0.4306094    0.2767246 -51.13  0.001621801    1.705    0.414
       193 -13.6871     83.7972    150.2293   5.7818802791e+01   3.3698384473e+01     0.531355    0.3734418 -17.89  0.001615392    2.070    0.517
       194 -11.6061     70.1628    157.8185   6.3166618699e+01   3.3883314395e+01    0.1965277    0.1744475 -14.50 0.0004882392    1.350    0.259
       195 -10.9607    160.0848    156.9168   3.8687596198e+01   1.8646879380e+01     0.198351    0.1903888  49.48  0.001166178    1.205    0.170
       196 -11.1698    190.5141    155.4476   3.2068093949e+01   1.3554924265e+01    0.2512688    0.1243415 -38.25 0.0006126682    1.959    0.490
       197 -11.6157    141.3791    155.2695   4.2753696126e+01   2.2389863133e+01    0.2344375    0.1886276 -56.33 0.0006642689    1.427    0.299
       198 -11.4347    112.4310    156.2067   5.0500164103e+01   2.7440749790e+01    0.2024529    0.1484053 -72.52 0.0006706532    1.693    0.409
       199 -11.9618     29.1324    156.1703   7.5784628687e+01   3.9216674258e+01    0.2005852    0.1862063 -49.67    0.0008653    1.265    0.209
       200 -10.9253     20.7718    154.5237   7.8274698558e+01   4.0392649693e+01    0.2032875    0.1889679  32.47 0.0006622336    1.181    0.153
       201 -12.9243      3.3810    151.5157   8.3500192611e+01   4.2457913332e+01      0.52023    0.3136211 -78.88  0.002779309    1.566    0.362
       202 -12.1818     91.1303    149.8594   5.5521185709e+01   3.2593781667e+01    0.2297497    0.2089574 -22.77 0.0003986082    1.253    0.202
       203 -13.5333     51.9380    152.0973   6.8141506614e+01   3.7756153632e+01    0.4333092    0.3143691 -30.99  0.002120301    1.795    0.443
       204 -12.2369     14.1215    152.6479   8.0232175971e+01   4.1409433599e+01    0.5903638    0.2299522  80.59    0.0023248    2.701    0.630
       205 -13.1827      9.0443    146.6181   8.1500899823e+01   4.3311896898e+01    0.4315037    0.3282045  71.44  0.001979658    1.148    0.129
       206 -13.6760     10.9910    141.9129   8.0608692532e+01   4.4380138348e+01    0.5744581    0.3339808  55.07  0.001467287    1.554    0.357
       207 -14.0249     15.0686    132.4262   7.8598882106e+01   4.6558802043e+01    0.6343575    0.3844074 -69.57  0.001637778    1.568    0.362
       208 -12.8678     20.1619    131.0947   7.6697381520e+01   4.6521367356e+01    0.4721441    0.2251683 -59.27  0.001981538    2.060    0.515
       209 -12.0029     99.8166    150.9146   5.3125203797e+01   3.0868494115e+01     0.287714    0.2450641   9.37 0.0007051571    1.310    0.237
       210 -12.4027     96.3188    149.0409   5.3819860584e+01   3.1915639892e+01    0.2944123    0.2324268  54.83 0.0005140571    1.268    0.211
       211 -10.5526    128.3406    151.2766   4.5267993297e+01   2.5643347478e+01     0.151238    0.1152025   2.76 0.0003926023    1.618    0.382
       212 -12.3770     46.5280    150.5924   6.9707481117e+01   3.8792725268e+01    0.3835097    0.1973467 -44.76   0.00156954    2.451    0.592
       213 -12.4914     37.5647    149.7017   7.2518560098e+01   4.0020879203e+01    0.3809473    0.1674652  64.45  0.001426811    2.697    0.629
       214 -12.2579    108.7304    148.9448   5.0180725252e+01   2.9759441469e+01    0.3329539    0.2850814 -56.50 0.0007756613    1.257    0.205
       215 -13.1259     28.1775    149.0375   7.5503902647e+01   4.1128971970e+01     0.460382    0.3593782 -16.26  0.002493356    1.644    0.392
       216 -13.0194     76.4342    154.7511   6.0797983761e+01   3.3723314480e+01    0.3879694    0.1906874  49.31  0.001469327    2.050    0.512
       217 -12.0357     19.2629    148.4148   7.8335255787e+01   4.2075206032e+01    0.4102759    0.2200021  51.20  0.001195983    1.678    0.404
       218 -10.5127    238.3437    145.9978   2.2191685612e+01   7.4140188039e+00    0.1655727    0.1326851 -17.41  0.001117003    1.005    0.005
       219 -12.2359    170.9183    145.4866   3.3957052745e+01   1.8785899604e+01    0.2579792     0.222043 -31.54 0.0003859581    1.154    0.133
       220 -11.3042     62.6678    146.0151   6.3867064187e+01   3.7912981594e+01    0.2478988    0.1140136  83.86 0.0007049168    4.462    0.776
       221 -13.2115    102.1960    142.7375   5.0885553203e+01   3.2392534511e+01    0.6530614    0.3893797  65.04  0.002484203    2.455    0.593
       222 -12.2030     24.2513    144.6998   7.6430033264e+01   4.2607646723e+01    0.3611047    0.1824631  22.92  0.001427044    1.994    0.499
       223 -11.2641    187.0402    143.9478   3.0364367195e+01   1.6103602572e+01    0.2028121    0.1864378  -7.74 0.0003540018    1.040    0.039
       224 -11.8648     85.8163    143.8580   5.6099019903e+01   3.4945671236e+01    0.2151639    0.2059545  -5.30 0.0003187337    1.155    0.134
       225 -13.0450     77.6479    142.7647   5.8500116269e+01   3.6533140927e+01      0.45843    0.2243696  48.84  0.001765054    2.091    0.522
       226 -13.0735     50.8348    142.5425   6.7309108173e+01   4.0360962003e+01     0.433853    0.2614655  27.48  0.001567335    1.637    0.389
       227 -11.9941    209.1957    141.9296   2.5930065470e+01   1.2575914725e+01     0.231921    0.2176947  85.40 0.0008132889    1.469    0.319
       228 -10.7457    178.8263    142.6003   3.1701955567e+01   1.7838546032e+01    0.1995126    0.1310764  52.03  0.000959539    1.776    0.437
       229 -13.2502     93.9452    140.4560   5.2943578581e+01   3.4405114220e+01    0.4499174    0.3540944 -39.27  0.001018756    1.432    0.302
       230 -13.3436     40.3601    137.6197   7.0269796633e+01   4.2876232562e+01    0.4681582    0.2730355  79.85  0.001059962    1.900    0.474
       231 -10.9371    143.8136    143.2158   3.9666013715e+01   2.4403103066e+01    0.2059124    0.1710783   2.83 0.0004184198    1.328    0.247
       232 -12.9490     72.5714    137.6452   5.9286329967e+01   3.8624242878e+01    0.5338477    0.1305281 -59.96    0.0015474    3.865    0.741
       233 -12.9622    130.3023    128.4682   3.9836967840e+01   3.0240815608e+01    0.5200229    0.3796871 -47.93 0.0005561939    1.425    0.298
       234 -13.0300    123.1423    134.7992   4.3213965443e+01   3.0274382586e+01    0.5004227    0.3591701  19.76 0.0002857735    1.638    0.390
       235 -12.4518    128.7898    137.9427   4.2371771079e+01   2.8463698590e+01    0.3578592    0.2935994 -31.48  0.001506291    1.320    0.242
       236 -11.8231    127.9186    134.1715   4.1774051046e+01   2.9466708164e+01    0.2635545    0.2492615  38.92   0.00045144    1.020    0.020
       237 -10.5482    109.5057    138.4583   4.7869324795e+01   3.2062142565e+01    0.1553545    0.1455009  44.17 0.0008091438    1.013    0.013
       238 -13.4422     66.8368    136.2439   6.0973231239e+01   3.9844975985e+01    0.4247504    0.3284218  42.01  0.002119892    1.213    0.176
       239 -12.3820     54.0865    136.5312   6.5378030610e+01   4.1526441848e+01    0.2752142     0.192009  21.28 0.0009005259    1.531    0.347
       240 -13.0036     46.3352    135.8394   6.7971492253e+01   4.2667112345e+01    0.3796416     0.183088 -76.53  0.001519544    2.180    0.541
       241 -12.8775     86.5162    134.5379   5.4147633305e+01   3.7154354282e+01    0.3735834    0.2672546  78.58  0.001653808    1.754    0.430
       242 -12.9215    200.4929    132.9223   2.5522040253e+01   1.5527696819e+01    0.3464358    0.2756512  14.95 0.0004147727    1.328    0.247
       243 -11.2910    196.6920    131.2864   2.5838278149e+01   1.6487406684e+01    0.1981829     0.165881 -21.11 0.0002634704    1.103    0.093
       244 -13.0948    102.8259    134.0300   4.8933184225e+01   3.4362846226e+01    0.4246947    0.2828063  36.80  0.001633586    1.429    0.300
       245 -10.7698     25.9826    135.4932   7.5042982614e+01   4.4865746315e+01    0.2130991   0.08055887  45.88  0.000809119    2.435    0.589
       246 -11.1093    174.4776    134.0466   3.0717606537e+01   2.0204801369e+01    0.2119655    0.1358231 -37.21 0.0004297857    1.527    0.345
       247 -13.3286     59.5084    133.6218   6.3061970326e+01   4.1570125060e+01    0.5295588    0.2164168  34.75  0.001980713    2.208    0.547
       248 -12.5897     77.9439    132.8476   5.6640133901e+01   3.9009000799e+01     0.268671    0.2243061 -64.41 0.0006339728    1.239    0.193
       249 -10.9894    230.1726    130.7493   2.0327597114e+01   1.0813778973e+01    0.1756845    0.1479036 -31.88 0.0005190872    1.135    0.119
       250 -11.9101     69.4005    130.7553   5.9156274459e+01   4.0890222121e+01    0.2159416    0.1372416 -52.39 0.0009459011    1.643    0.391
       251 -12.1043     50.2446    130.7700   6.5889256980e+01   4.3538206743e+01    0.2010731    0.1733941 -34.19   0.00105796    1.335    0.251
       252 -10.7008     31.5077    131.4527   7.2684946483e+01   4.5426406520e+01    0.1434529    0.1287622  68.78 0.0001832765    1.018    0.018
       253 -12.8537    122.4773    128.5745   4.1997424180e+01   3.1809735788e+01    0.4032205    0.3014541 -57.63   0.00188512    1.459    0.314
       254 -13.8094     57.6677    127.6675   6.2751660127e+01   4.3394586799e+01    0.5999114    0.2875573  24.24  0.002302397    2.243    0.554
       255 -13.1825      9.1640    126.3804   8.0266919714e+01   4.8552882699e+01    0.3961433    0.2304697 -39.89  0.001891325    2.057    0.514
       256 -13.4439     59.4742    124.5245   6.1569167012e+01   4.3978916901e+01    0.5411995    0.2601866 -72.89   0.00203752    2.334    0.572
       257 -11.9596     48.1351    126.8282   6.6069462379e+01   4.4849794842e+01    0.2402746    0.1891485  63.82 0.0006891055    1.255    0.203
       258 -11.2893     35.1902    126.8370   7.0816673520e+01   4.6296208381e+01    0.1958688    0.1661206 -44.35 0.0005885306    1.305    0.234
       259 -13.3270     73.9386    114.4974   5.4347150672e+01   4.4405014589e+01     0.378939    0.2692415 -77.14 0.0009213433    1.591    0.372
       260 -13.0018     75.2479    125.4018   5.6132635390e+01   4.1362342259e+01    0.3810877    0.2487243 -47.70 0.0009638898    1.644    0.392
       261 -14.0195     78.2999    119.7187   5.3909811310e+01   4.2323868909e+01    0.7180926    0.3927945  34.51 0.0005729841    1.771    0.435
       262 -12.1483     26.5067    125.3060   7.3844727165e+01   4.7532427595e+01    0.2808881    0.2343164 -29.83  0.001013717    1.402    0.287
       263 -11.6584    169.8736    123.2865   2.9204485834e+01   2.3107950186e+01    0.3384832    0.1810921 -39.07  0.001446645    1.834    0.455
       264 -12.5571     40.7455    124.4381   6.8450489994e+01   4.6350788309e+01    0.4107195    0.1678239  49.37  0.001495577    2.569    0.611
       265 -11.9687      6.2784    112.5522   8.0397193388e+01   5.2386218956e+01    0.4610304    0.1461084  46.01  0.001704099    3.013    0.668
       266 -12.4826     11.3571    111.9303   7.8356453547e+01   5.2260343547e+01    0.4359711    0.1941568 -72.67  0.001243371    1.993    0.498
       267 -13.8703     14.1220    119.9440   7.7963769934e+01   4.9936938062e+01    0.7923431    0.5635048 -59.04  0.003088011    1.405    0.288
       268 -13.4672     82.6114    127.9272   5.4126594891e+01   3.9490433141e+01     0.459368    0.3394592  14.23  0.002084224    1.626    0.385
       269 -11.4617     49.9534    123.0655   6.4822665397e+01   4.5632467959e+01    0.2397782    0.1761991 -30.76   0.00113135    1.668    0.401
       270 -11.4084    194.5006    122.4714   2.4264058035e+01   1.8370246322e+01    0.1375995     0.125494 -18.19 0.0004926509    1.008    0.008
       271 -10.7062    178.9942    121.7278   2.6989917702e+01   2.1542955678e+01    0.1894876    0.1809111  20.40 0.0003157316    1.067    0.063
       272 -13.1943    104.9002    121.2977   4.5473543488e+01   3.7024948353e+01    0.4629388     0.311431  54.17  0.001431713    1.580    0.367
       273 -12.4508    100.1606    119.7915   4.6608629031e+01   3.8316302083e+01    0.2765853    0.2643132 -89.74 0.0004530458    1.075    0.070
       274 -13.0767     64.0439    121.4148   5.9347861862e+01   4.4144624026e+01     0.395016     0.209354 -59.07  0.001132007    1.867    0.464
       275 -10.7293    224.4429    120.4919   1.9012162990e+01   1.3261840350e+01    0.1282595    0.1086572 -25.45 9.560507e-05    1.009    0.009
       276 -11.7227    126.0997    123.7102   3.9855525053e+01   3.2159215115e+01    0.2229829    0.1989524  33.65 0.0006204176    1.100    0.091
       277 -12.3538     94.0419    117.5334   4.8062978074e+01   4.0045132770e+01     0.314395    0.2301966 -76.68  0.001386673    1.645    0.392
       278 -13.5951     83.5802    114.6629   5.0949016900e+01   4.2697020048e+01    0.5299536    0.3492751  67.91  0.002155351    1.985    0.496
       279 -12.6902    104.5676    114.7528   4.4006494080e+01   3.8658183372e+01    0.3119945    0.2195047  38.30  0.000953605    1.386    0.278
       280 -12.6395      7.8121    117.9974   8.0193529111e+01   5.0852976230e+01    0.4338277    0.3055632 -22.36  0.001385793    1.729    0.422
       281 -12.2636     65.5817    104.6945   5.5321047847e+01   4.8317822470e+01    0.3842484    0.2239287  16.58  0.001142755    2.246    0.555
       282 -13.7268     63.3822    112.1014   5.7768096244e+01   4.6706329005e+01    0.5819113     0.368079 -67.07 0.0008003638    1.625    0.385
       283 -12.3586    166.2227    112.8030   2.7438071816e+01   2.5835635764e+01    0.3050063    0.2024945  38.21  0.001054086    1.594    0.372
       284 -11.8044     77.7033    113.0432   5.2664271475e+01   4.4144175595e+01    0.2152892     0.201782 -65.79 0.0003146486    1.087    0.080
       285 -11.7011    109.5285    112.4787   4.1900154456e+01   3.8180238270e+01    0.1589577    0.1530187  54.37 -1.850401e-05    1.009    0.009
       286 -11.0273    198.4968    111.1639   2.0975129473e+01   1.9473462466e+01    0.2036419    0.1252276 -36.15 0.0005697534    1.487    0.328
       287 -13.0075    114.9218    114.2532   4.0724411377e+01   3.6640813512e+01    0.5234379     0.357591   2.67 0.0009849656    2.492    0.599
       288 -10.6743     52.4039    110.8358   6.1775755440e+01   4.8599871954e+01     0.234103    0.1762398  20.95  0.001126633    1.421    0.297
       289 -11.8476    113.8301    109.1284   3.9736489050e+01   3.8052364469e+01    0.2473481    0.2159735  70.65 0.0005890955    1.231    0.188
       290 -11.9986    105.0912    102.6596   4.0715318546e+01   4.1414878172e+01    0.3144249    0.2697878  38.67  0.000848001    1.150    0.131
       291 -12.5242    108.7967    107.8577   4.0936291640e+01   3.9415112524e+01    0.2850432    0.2700812  54.07 0.0003521735    1.024    0.024
       292 -12.3706    109.7393    103.9512   3.9606790522e+01   4.0122334574e+01    0.3110172    0.2896207 -64.02 0.0004067391    1.109    0.098
       293 -10.6464    139.6737    107.3366   3.2151398223e+01   3.2759237096e+01    0.1606874    0.1246199 -87.17 0.0007051601    1.722    0.419
       294 -10.6188    121.8071    106.8443   3.6805197705e+01   3.6839994672e+01    0.2159668    0.1868765  87.95  0.000286216    1.321    0.243
       295 -11.9885     58.5317    113.9935   5.9995724943e+01   4.6913856469e+01    0.2936916    0.2215143  32.13  0.000538944    1.318    0.241
       296 -12.2668     11.1442    104.9620   7.7825259256e+01   5.4143034083e+01    0.4483498    0.2713817 -26.08  0.001437613    2.008    0.502
       297 -11.9386      1.9598    107.0202   8.1726413222e+01   5.4068950983e+01    0.2033341    0.1810124 -89.37 0.0004612173    1.017    0.017
       298 -12.8352     79.1677    102.4739   4.9611135507e+01   4.6586478523e+01    0.3093089    0.2653005 -53.14 0.0008886862    1.189    0.159
       299 -12.3407     55.9472    101.4061   5.8447868802e+01   5.0632399556e+01    0.2880866    0.2547456 -57.60 0.0004541499    1.129    0.114
       300 -11.5206     57.8364     97.5024   5.6794490455e+01   5.1391139972e+01    0.3568303     0.275509  56.05  0.001137348    1.362    0.266
       301 -10.8081    185.2560    101.3872   2.0909145562e+01   2.3814852496e+01    0.1820071    0.1383893  65.57 0.0003189377    1.519    0.342
       302 -11.8367    154.1319    100.6714   2.6943460094e+01   3.0824812109e+01    0.3367131    0.2564051  86.73   0.00119301    1.745    0.427
       303 -12.4154     85.4836    100.5351   4.6801899463e+01   4.5896922697e+01     0.281197    0.2681358  36.53 0.0006018315    1.052    0.049
       304 -12.6203      5.9996    100.1305   7.9556603455e+01   5.5714996252e+01    0.4945606    0.2029426  48.23  0.002028764    2.489    0.598
       305 -12.2210     10.8435     97.9238   7.7273048913e+01   5.6051614924e+01    0.5700495    0.2210004  23.64   0.00115372    2.556    0.609
       306 -13.5485     94.1155     99.0647   4.3367513429e+01   4.4551772140e+01    0.7091924     0.332669  48.21  0.002406617    2.202    0.546
       307 -10.9718    208.5034     99.5021   1.6671286939e+01   1.9373500545e+01    0.1348103    0.1200272 -34.94 -0.0001866661    1.008    0.008
       308 -11.3272    174.0000     98.9569   2.2373037503e+01   2.6676007753e+01    0.2472531   0.08049136 -37.81 0.0006680883    2.951    0.661
       309 -11.6642    162.2265     99.3901   2.4848195723e+01   2.9230155579e+01    0.2087196    0.1440183  63.35 0.0009438798    1.645    0.392
       310 -12.0645    178.4596     96.6830   2.0952338203e+01   2.6092980923e+01    0.3440883    0.2275565 -53.48  0.001121339    1.634    0.388
       311 -13.8029     78.2220     92.4090   4.7308732941e+01   4.9287440766e+01     0.482458    0.3636823  56.42  0.001848606    1.416    0.294
       312 -13.6543     74.3043     90.3496   4.8264192575e+01   5.0520648562e+01    0.4157685    0.3574874 -21.04  0.001624802    1.329    0.248
       313 -10.7305    117.5132     95.5703   3.4929419538e+01   4.0295949027e+01    0.1591155    0.1533384  53.15  6.91644e-05    1.013    0.013
       314 -10.6827     41.2777     91.9510   6.2744048837e+01   5.5057678641e+01    0.2035712    0.1823983 -70.88 0.0005727957    1.081    0.075
       315 -11.6801    125.5014     90.5599   3.1204182419e+01   3.9527593101e+01    0.3370065    0.1575291 -43.67  0.001215462    2.182    0.542
       316 -11.9306    155.1917     90.3885   2.3907170730e+01   3.2535398779e+01    0.2209995    0.1455605  65.12 0.0009550109    1.727    0.421
       317 -12.2586     88.8907     89.7841   4.2577928086e+01   4.7843145429e+01     0.244569     0.221968  -4.85 0.0007542848    1.246    0.198
       318 -12.5978     54.8489     85.8504   5.5230376312e+01   5.4875298754e+01    0.5674738    0.5191195 -53.43  0.003042715    1.084    0.077
       319 -10.6109    111.3001     89.3481   3.4966336841e+01   4.3079375540e+01    0.1623719     0.129346  -1.06 0.0007037543    1.686    0.407
       320 -12.7998     64.0335     88.6657   5.1996772434e+01   5.2720829177e+01     0.319018    0.2335536 -14.70  0.001287209    1.820    0.451
       321 -10.8893     28.1603     90.6455   6.8491638689e+01   5.6760362241e+01    0.2307639    0.1696864  45.54  0.001173334    1.403    0.287
       322 -11.2687    100.5177     86.4708   3.7541470322e+01   4.6142741013e+01    0.1593533    0.1548634  45.27 5.696583e-05    1.028    0.027
       323 -10.3722     36.4767     86.4702   6.3815654867e+01   5.7059795837e+01    0.1446405     0.138569 -63.94 8.513797e-05    1.011    0.011
       324 -11.6165    134.6316     84.1180   2.6885247867e+01   3.8661081236e+01    0.3198516    0.2767765   8.51  0.001117113    1.393    0.282
       325 -11.2205    236.9817     83.9360   9.4553348592e+00   1.6291023255e+01    0.1835269    0.1520182 -39.07  0.001204821    1.014    0.014
       326 -10.9502    170.2986     84.3489   1.9205824652e+01   3.0079372648e+01    0.1488866      0.11704   9.52  0.000703617    1.685    0.406
       327 -12.2424    164.2256     83.0889   2.0016647332e+01   3.1724964570e+01    0.2946613    0.1980888 -54.33 0.0009795394    1.582    0.368
       328 -12.5746    151.0195     82.3935   2.2539093983e+01   3.5015237778e+01    0.4606591    0.2967541   2.24  0.001626546    3.173    0.685
       329 -10.6614     11.9573     86.7250   7.5518760400e+01   5.8993321969e+01    0.1835633    0.1778734  49.74 0.0004534436    1.105    0.095
       330 -12.8531     88.6241     79.6857   3.9573073065e+01   5.0263967981e+01    0.4976029    0.3096474 -40.66  0.002068873    1.726    0.421
       331 -11.5576      4.6506     80.0915   7.8289760709e+01   6.1110684757e+01    0.2418078    0.2232518 -75.68 0.0005639819    1.028    0.027
       332 -11.1716      8.5163     77.9905   7.6113120217e+01   6.1497110053e+01    0.2931553    0.1776598 -68.64  0.001468164    1.457    0.314
       333 -10.9468    207.3820     79.8389   1.2135813899e+01   2.2599433628e+01    0.1877463    0.1205866 -23.91 0.0004309323    1.649    0.393
       334 -11.9602    112.7884     78.7814   3.1229097539e+01   4.5003613105e+01    0.4143927    0.2838811  78.98  0.001648448    2.084    0.520
       335 -11.4398    161.2014     77.7953   1.9111930286e+01   3.3373628553e+01    0.2001963    0.1779112  16.35 0.0003881695    1.322    0.244
       336 -11.9956      3.4808     88.4848   7.9666229203e+01   5.8932039193e+01     0.347473    0.2259016 -65.19  0.001830944    1.376    0.273
       337 -11.6061    102.1866     77.0196   3.3985798138e+01   4.7857468545e+01    0.2500232    0.2198839  48.15 0.0003267172    1.102    0.093
       338 -12.2265     74.9769     76.4465   4.3823413425e+01   5.3783384768e+01    0.2911982     0.222605 -70.62 0.0007837809    1.524    0.344
       339 -11.6800    116.4676     75.2225   2.8990845947e+01   4.4852427332e+01    0.3999153    0.2227462  61.06  0.001507395    2.051    0.512
       340 -12.0717    106.1228     73.3616   3.1499111297e+01   4.7714127168e+01    0.5588855    0.2653209  55.96  0.001446498    2.319    0.569
       341 -11.9801     86.7012     73.8068   3.8350360059e+01   5.2006787297e+01    0.2818473    0.2162977 -59.69  0.001301603    1.419    0.295
       342 -10.5761    214.5083     73.4626   9.6772466896e+00   2.2062202630e+01    0.1321417    0.1159202 -43.44 0.0001729893    1.018    0.017
       343 -10.1932    129.6801     73.7534   2.4927896693e+01   4.1890546723e+01    0.1536009    0.1212332  26.91 0.0002431427    1.526    0.345
       344 -12.0924     70.5627     70.3188   4.3645953278e+01   5.6067247178e+01    0.4900133    0.3243627  -3.97   0.00108446    2.601    0.616
       345 -12.6879     60.7229     68.1241   4.7301124631e+01   5.8362651188e+01    0.4236344    0.2719008 -60.29  0.001651561    1.679    0.405
       346 -11.2556      2.7748     70.9197   7.8234067650e+01   6.3591895132e+01    0.3547387    0.1718694  84.70  0.001551116    2.176    0.541
       347 -13.1605     54.8804     68.6553   5.0242868624e+01   5.9198168941e+01    0.3456029    0.3026283  29.60 0.0004557485    1.143    0.125
       348 -11.2530     47.9424     67.1856   5.3206318084e+01   6.0604752366e+01    0.4414222    0.2823762   0.54   0.00185078    2.182    0.542
       349 -11.6745    162.9132     68.9130   1.6217893632e+01   3.4462270981e+01    0.2208369    0.1979268  24.33  0.001172294    1.305    0.234
       350 -11.6939    154.2659     68.4545   1.7731375604e+01   3.6683849847e+01    0.2672753     0.239316 -63.81 0.0002318403    1.096    0.088
       351 -11.0565      8.9169     67.2082   7.4394446355e+01   6.4311211699e+01    0.2853401    0.1671305  30.11  0.001409722    1.817    0.450
       352 -10.1972    160.3027     65.2991   1.5631642848e+01   3.5702065314e+01    0.1461465    0.1174908  23.51 0.0002657421    1.585    0.369
       353 -10.6710    173.0580     62.5578   1.2637108712e+01   3.2994697349e+01    0.2072917    0.1411499  66.09 0.0004309046    1.504    0.335
       354 -10.4101    123.6803     61.6949   2.2461773217e+01   4.5643408462e+01    0.1580807      0.12285  23.11 0.0004268321    1.633    0.388
       355 -11.9022    109.8576     60.1038   2.5712625010e+01   4.9429673874e+01     0.247189    0.2151593 -80.85 0.0008925507    1.254    0.203
       356 -12.1546     41.7157     58.6571   5.3738940210e+01   6.3549754530e+01    0.3881338      0.26638 -58.49  0.001189886    1.453    0.312
       357 -10.9740     12.7984     60.0378   7.0907270565e+01   6.5963277510e+01    0.2121339    0.1783631  66.21   0.00122686    1.315    0.240
       358 -12.4039     36.6645     55.2922   5.5463040052e+01   6.5010863768e+01    0.4817878    0.2822025 -41.12   0.00169194    1.717    0.418
       359 -10.9628    154.3284     57.6652   1.4410979829e+01   3.8437835992e+01    0.1621655    0.1098957 -68.85 0.0007051909    1.723    0.420
       360 -10.5040     92.1581     57.1474   3.0317055237e+01   5.4292662681e+01    0.2016121    0.1792264 -81.68 0.0002933367    1.257    0.205
       361 -12.1838     23.1403     55.7962   6.3671214820e+01   6.6301373434e+01    0.3712742    0.2517563 -17.69  0.001358703    1.621    0.383
       362 -11.1099    193.5472     56.4457   8.0133299854e+00   2.9042169298e+01    0.1365728    0.1248189 -56.00 -4.326892e-05    1.038    0.037
       363 -12.7981    115.3739     53.5649   2.1755803505e+01   4.9211193988e+01    0.4559599    0.3042868 -66.28  0.001108101    1.935    0.483
       364 -13.1592    109.5277     51.7523   2.2703588339e+01   5.1023296707e+01    0.5120431     0.403057  64.50  0.001910537    1.248    0.199
       365 -11.2840    120.4794     51.9729   1.9833575714e+01   4.8162256606e+01    0.2225142    0.1550528 -35.98 0.0003793481    1.509    0.337
       366 -12.7306    100.3165     50.0163   2.4795165748e+01   5.3650341664e+01    0.4918929    0.3343923 -82.06  0.001980821    2.248    0.555
       367 -11.5334    174.5260     51.4746   9.2291175118e+00   3.4287505408e+01    0.2545117    0.2104943 -88.31 0.0006640803    1.195    0.163
       368 -11.0495    173.2530     48.5629   8.5677797819e+00   3.5017320135e+01    0.2819901     0.199968  27.79 0.0007890014    2.001    0.500
       369 -12.5073     30.5082     50.1282   5.7410433632e+01   6.6969247223e+01    0.3593817    0.2655537  40.96   0.00135197    1.472    0.321
       370 -10.6438    205.1540     48.2225   4.5181262800e+00   2.7536766152e+01    0.1861799    0.1326051 -58.28 0.0003127947    1.295    0.228
       371 -11.3945     19.4617     47.9748   6.3802883210e+01   6.8537818081e+01     0.216637     0.124541 -62.70  0.001039304    1.622    0.383
       372 -11.5869     31.9489     56.4796   5.8593853666e+01   6.5270526736e+01    0.2890463    0.1985093  27.63 0.0006050465    1.483    0.326
       373 -12.1209    118.4005     40.8281   1.6175698876e+01   5.0488265308e+01     0.527163    0.3718822  23.98  0.002242177    1.914    0.478
       374 -12.1595     34.8524     40.1141   5.0860263392e+01   6.8757210500e+01    0.3547484    0.2413662  13.46   0.00177646    1.573    0.364
       375 -11.7502     32.8795     36.8652   5.0752161918e+01   6.9727978899e+01    0.2076437    0.1952657 -16.46  0.001252057    1.049    0.046
       376 -11.2715     87.9763     38.6592   2.4105830788e+01   5.8644179147e+01    0.4396666    0.2022736 -23.85  0.001462844    3.306    0.698
       377 -11.4233     80.8013     36.4128   2.5683011349e+01   6.0741291501e+01    0.3261585    0.2160004 -46.08  0.001006991    1.660    0.398
       378 -11.1412      9.7409     36.7800   6.7383571815e+01   7.1897827742e+01     0.169509    0.1500009  52.86 0.0005065615    1.329    0.248
       379  -9.9304    146.0112     36.0000   8.8489835124e+00   4.3790142470e+01    0.2430472   0.08015288  66.18 0.0007933959    2.880    0.653
       380 -11.0229     95.2548     34.0270   1.9664271830e+01   5.7558684306e+01     0.197878     0.195713   4.92 0.0004291654    1.086    0.079
       381 -11.6733     52.9909     33.6217   3.6972716774e+01   6.7185623278e+01    0.2521648    0.2069061 -35.05 0.0002466089    1.245    0.197
       382 -12.1038     31.6558     32.2311   4.9470871447e+01   7.0882206629e+01    0.3693298     0.227431  37.90  0.001308387    1.698    0.411
       383 -10.8598     14.6884     33.0431   6.2372701434e+01   7.2450976966e+01    0.1819764    0.1564094 -40.80 0.0003756904    1.049    0.047
       384 -10.8739    106.5594     32.4651   1.5784808017e+01   5.4849809895e+01    0.1510057    0.1397549  75.84 0.0002077551    1.037    0.036
       385 -12.3645     46.0278     26.4152   3.7120568262e+01   6.9790951644e+01    0.4922523    0.2633116 -44.95    0.0022251    1.978    0.494
       386 -11.6457     76.2670     26.9854   2.2830654142e+01   6.3306124771e+01    0.1924796    0.1879948   2.95 0.0002950839    1.083    0.077
       387 -10.1700     19.3351     27.7148   5.6565279730e+01   7.3252436738e+01    0.1268643    0.1001489  53.46 0.0007013617    1.624    0.384
       388 -11.9899     85.2557     24.3167   1.8308291520e+01   6.1486327800e+01    0.2625094    0.2433164 -76.18 0.0005001054    1.184    0.156
       389 -11.5145     89.8856     21.7858   1.5623877259e+01   6.0643670490e+01    0.2234394     0.211916 -13.50 0.0003762705    1.156    0.135
       390 -11.7000     70.0347     21.5129   2.2413375088e+01   6.5571792494e+01    0.2097198    0.1906517 -16.95 -6.617635e-05    1.171    0.146
       391 -12.5087    116.5706     18.6349   7.7217253375e+00   5.3908741827e+01    0.2671712    0.2406889  78.00 0.0002822416    1.007    0.007
       392 -10.2539    197.5507     18.4086   3.5750905255e+02   3.2868476326e+01    0.1308118    0.1096935 -65.96 0.0001160688    1.016    0.015
       393 -11.0888     92.2673     17.9147   1.3066027315e+01   6.0502907618e+01    0.2180603     0.191719 -69.62 0.0006760803    1.244    0.196
       394 -11.7790    178.4875    247.4932   4.9457957481e+01   1.6557723092e+00    0.2234906    0.1602572   8.82   0.00127966    1.112    0.100
       395 -11.6686    180.7719    244.6139   4.8654560636e+01   1.7431889827e+00    0.2584546    0.1502634  23.99  0.001442743    1.311    0.237
       396 -11.1286    121.0706    248.6749   6.1100509499e+01   8.6200786263e+00     0.175958    0.1166695  27.40 0.0004464177    1.134    0.119
       397 -11.7685    114.6055    247.9676   6.2395513465e+01   9.5428170016e+00    0.2908083    0.1078612 -52.66  0.001415983    3.406    0.706
