#   1 NUMBER                 Running object number                                     
#   2 MAG_AUTO               Kron-like elliptical aperture magnitude                    [mag]
#   3 X_IMAGE                Object position along x                                    [pixel]
#   4 Y_IMAGE                Object position along y                                    [pixel]
#   5 X_WORLD                Barycenter position along world x axis                     [deg]
#   6 Y_WORLD                Barycenter position along world y axis                     [deg]
#   7 A_WORLD                Profile RMS along major axis (world units)                 [deg]
#   8 B_WORLD                Profile RMS along minor axis (world units)                 [deg]
#   9 THETA_WORLD            Position angle (CCW/world-x)                               [deg]
#  10 FWHM_WORLD             FWHM assuming a gaussian core                              [deg]
#  11 ELONGATION             A_IMAGE/B_IMAGE                                           
#  12 ELLIPTICITY            1 - B_IMAGE/A_IMAGE                                       
         1 -14.0719     22.9470     13.1691   3.4935951190e+01   7.5318619466e+01    0.8406172    0.3720202  38.01  0.003850264    2.165    0.538
         2 -12.5591     29.6192      8.8363   2.6991156857e+01   7.4903344179e+01    0.3237291    0.2698565 -30.12  0.001033003    1.282    0.220
         3 -15.0779     13.9779     19.8271   4.6437643108e+01   7.5267652846e+01     1.721074     1.024812 -23.49  0.007781761    1.834    0.455
         4 -13.9628    142.4833     29.5503   1.2917551374e+00   4.5536828666e+01     1.137122    0.4714921  74.18  0.004433574    2.502    0.600
         5 -13.3292    189.2159     25.9373   3.5492282708e+02   3.4800283134e+01    0.7730736    0.1849926 -48.94  0.002699113    3.621    0.724
         6 -13.4715    165.4023     29.8176   3.5838306511e+02   3.9856261025e+01     0.704483    0.4703394 -76.91  0.003347376    1.478    0.323
         7 -12.5170    245.5998     15.4237   3.4889605318e+02   2.4699712188e+01    0.4710921    0.2085579 -37.14  0.002742527    1.690    0.408
         8 -14.2719     97.8955     11.8472   2.3142359681e+00   5.8972511552e+01     1.262263    0.6403908  76.72  0.004650924    1.993    0.498
         9 -13.0403    223.8699      5.5393   3.4782189746e+02   2.9744659926e+01    0.4906144    0.4410542 -80.91  0.003196893    1.293    0.226
        10 -13.3505    209.2354      9.3306   3.4941842425e+02   3.2298847286e+01     1.205688    0.4113179 -81.82  0.004814331    3.713    0.731
        11 -11.0218    168.0000      9.9614   3.5239176857e+02   4.1424469954e+01    0.2023593   0.06960317 -26.42 0.0008048914    2.959    0.662
        12 -12.9829     41.3056      3.6243   1.6181251921e+01   7.3310327150e+01      0.52447    0.4137972  35.27  0.002870491    1.123    0.109
        13 -11.0687    250.3907      6.2409   3.4686383980e+02   2.4800379919e+01    0.2197572   0.09928349 -37.21  0.001237487    1.645    0.392
        14 -11.4320    249.8115      1.8199   3.4601738621e+02   2.5335974923e+01    0.2572441    0.1308451 -50.83  0.001691556    1.369    0.269
        15 -12.2336    244.7163      4.6311   3.4675989533e+02   2.5955718705e+01    0.3964934    0.1477227 -46.05  0.002254012    1.791    0.442
        16 -11.8487      7.8792      1.9868   4.0449581440e+01   7.9209048871e+01     0.243476    0.1434152  -2.02 0.0009832196    2.069    0.517
        17 -12.8500    227.2704     10.1335   3.4865990829e+02   2.8624219926e+01     0.533052    0.2113695 -56.45  0.002797427    2.031    0.508
        18 -12.7369    124.4913    166.8327   4.2223002892e+01   2.2896183196e+01    0.7183788    0.4645747 -65.72  0.003271822    1.986    0.496
        19 -11.5401     30.6444    167.8287   6.9456450519e+01   3.5726350954e+01    0.2626354     0.185786 -18.29   0.00130443    1.892    0.471
        20 -11.6569    111.4463    155.6462   4.3581385060e+01   2.7595278930e+01    0.3900236    0.2894022 -87.77  0.001670398    1.850    0.460
        21 -11.8775    208.5562    155.1120   2.2334002316e+01   1.1484788450e+01    0.2529608    0.1586834  17.84  0.001348365    1.960    0.490
        22 -11.9661     73.5609    153.4194   5.4313997507e+01   3.4203260838e+01    0.3104146    0.2780235  30.76  0.001666968    1.109    0.098
        23 -10.3840     38.6887    152.6761   6.5434963654e+01   3.8853376997e+01    0.1469065    0.1061243 -37.03 0.0007039254    1.656    0.396
        24 -12.1939    246.9256    135.1678   1.2919560211e+01   9.0295511323e+00    0.2812299    0.2247379 -60.12  0.001937498    1.684    0.406
        25 -12.1635    133.4866    131.0384   3.2572584499e+01   2.9127830149e+01    0.3026053    0.2977508 -30.11  0.001232955    1.016    0.016
        26 -12.0411    223.0143    127.4833   1.4592374796e+01   1.3627596134e+01    0.2524005    0.1512234 -46.37  0.001392223    1.599    0.375
        27 -13.6524    104.0345    122.0001   3.8581817634e+01   3.6930074292e+01     1.248249      1.04925  55.84  0.006196169    1.232    0.188
        28 -13.8347    107.5940    109.2139   3.4329912435e+01   3.9258063551e+01     1.722655      1.08175 -85.98   0.00588295    3.164    0.684
        29 -11.3339      6.2452    119.5517   7.3734032542e+01   5.0605319832e+01    0.3166387    0.1423568   9.00  0.001294031    2.595    0.615
        30 -11.8919     81.1763    114.7792   4.4256831725e+01   4.2949597019e+01    0.3479817    0.2399961  72.32  0.001445427    1.935    0.483
        31 -10.8186    195.0331    113.2803   1.5778505806e+01   2.0667641656e+01    0.1799205    0.1740046 -31.61 0.0009686294    1.104    0.094
        32 -13.5386     17.8419    112.6606   6.8411437607e+01   5.1717519177e+01    0.5791728    0.4197736  15.93  0.002918796    1.503    0.335
        33 -12.1876    236.3073    108.6122   9.0002950889e+00   1.4372507229e+01    0.2827255    0.1442995 -51.14  0.001445556    2.090    0.522
        34 -12.9824    248.7845    105.4461   6.9391755143e+00   1.2923769660e+01    0.3797416    0.1600234 -44.75  0.001940761    2.018    0.504
        35 -11.2834    136.7478    102.9997   2.4805512390e+01   3.4445901149e+01     0.386709    0.1882753  57.28  0.001408459    2.509    0.601
        36 -12.2728    110.3664    100.2236   3.1087368361e+01   4.0743255341e+01    0.3086598    0.2672467  56.11  0.001414946    1.171    0.146
        37 -11.7836     46.3925     99.3783   5.4105073861e+01   5.2418491806e+01    0.4770902    0.3064977  67.76  0.001942912    1.991    0.498
        38 -13.0314      2.3381     96.6155   7.3297302471e+01   5.7074691719e+01    0.6878622    0.2615664 -79.99    0.0026724    2.397    0.583
        39 -14.0158     10.4463    103.2131   7.0418434984e+01   5.4831743524e+01    0.6332331    0.4584751  21.38  0.003333519    1.480    0.324
        40 -11.3092     60.5507     97.3999   4.7743841515e+01   5.0896361058e+01    0.3306273    0.2451276  57.30  0.001532225    1.491    0.330
        41 -14.1753     21.9333     94.9960   6.4132008037e+01   5.6246426692e+01     1.501467    0.5084511  18.75  0.005246558    3.132    0.681
        42 -10.9126     78.5268    118.9820   4.6137574370e+01   4.2329971691e+01    0.2450919    0.1533543 -58.53  0.001036036    1.604    0.376
        43 -12.5026     20.5650     86.6537   6.3336199463e+01   5.8622375695e+01    0.4664911    0.2858743  24.63  0.002103105    1.693    0.409
        44 -13.5962    238.4514     80.8009   3.0069025882e+00   1.7960247252e+01    0.6842336    0.3733834 -69.17  0.003378216    2.805    0.644
        45 -13.0906    162.7933     78.7000   1.2697776175e+01   3.3245957264e+01     1.016667    0.6155712  22.10   0.00371141    3.514    0.715
        46 -13.7976    172.3585     76.2816   1.0408431800e+01   3.1517370500e+01    0.8787842     0.490162  61.41   0.00403624    1.939    0.484
        47 -11.3957     55.9286     79.9556   4.4941706327e+01   5.6069796108e+01    0.6162052    0.2212079 -39.84  0.001742977    4.123    0.757
        48 -11.5442    113.9836     79.7104   2.3981518002e+01   4.4358044230e+01    0.4695818    0.2210142 -49.81  0.001726717    2.245    0.555
        49 -10.4018     89.6468     81.2894   3.2050242998e+01   4.9417667536e+01      0.16054    0.1228112  79.41 0.0007026226    1.674    0.402
        50 -12.2650    134.3058     79.2069   1.8660676969e+01   3.9726527149e+01    0.7251716     0.349132  61.60  0.002684759    2.444    0.591
        51 -12.1918    210.4394     77.2954   5.3150040986e+00   2.3479902393e+01    0.4377012     0.237754 -61.26  0.002070599    2.232    0.552
        52 -12.5453     60.9417     75.7553   4.1440873023e+01   5.6259630330e+01    0.5808877    0.3833367 -59.95  0.001253919    1.599    0.375
        53 -12.8624     54.6933     72.6228   4.3234667103e+01   5.8062356053e+01    0.5110778    0.3317152  63.70  0.002029726    2.167    0.539
        54 -13.9687      5.9066     67.8012   6.7691611249e+01   6.4603938222e+01     1.227749    0.7402657 -87.15  0.005950513    1.744    0.427
        55 -12.2374     71.8971     74.9064   3.6578786330e+01   5.4456452359e+01    0.7713933     0.384625  23.27   0.00245612    3.453    0.710
        56 -10.5466     27.6547     76.3313   5.7615525470e+01   6.0716366706e+01    0.1534276    0.1049954  60.63 0.0007050144    1.758    0.431
        57 -12.1529    250.1938     80.9170   1.8994515999e+00   1.6040788690e+01    0.4169905    0.1270319 -35.92  0.001880184    2.441    0.590
        58 -12.3596    133.1211     65.8959   1.4837748994e+01   4.2435873666e+01    0.5405272    0.4014889  70.06  0.002309812    1.399    0.285
        59 -11.2032     82.0073     69.9345   3.0989002854e+01   5.3524375678e+01    0.3463601    0.2043943  59.22  0.001372844    2.076    0.518
        60 -12.0758    201.4767     69.0720   4.4587055891e+00   2.6456812763e+01    0.3150262    0.1868033  81.44  0.001300536    2.174    0.540
        61 -11.0087     39.1824     68.1809   4.9413331050e+01   6.1445341380e+01    0.2045272    0.1752087  63.91  0.001007069    1.334    0.250
        62 -12.0954     87.7160     65.5863   2.7403210223e+01   5.3204258674e+01     0.398789    0.2913204  33.84  0.001406532    1.485    0.327
        63 -12.4264     57.2720     66.0346   3.9834236023e+01   5.9179425970e+01    0.4738704    0.2265707  38.86  0.001867276    2.065    0.516
        64 -10.8124     99.8289     64.8172   2.3168640354e+01   5.0607206388e+01    0.2162305    0.1813533 -87.96  0.001065716    1.354    0.261
        65 -11.8831     78.5384     60.7306   2.8944955460e+01   5.6190596009e+01    0.4040782    0.3380515  37.36  0.002067558    1.195    0.163
        66 -12.7562    177.6496     57.0486   4.4637137195e+00   3.3329477593e+01    0.7028943    0.3443776 -49.43  0.003130577    1.917    0.478
        67 -12.1119     91.4657     57.5601   2.3176581523e+01   5.3935431861e+01    0.4588675    0.4048514 -42.25  0.002256058    1.170    0.146
        68 -10.4661     24.6749     60.3111   5.5031967256e+01   6.5092602444e+01    0.1424663    0.1055429  60.32 0.0007039821    1.658    0.397
        69 -12.2319    244.1544     57.1983   3.5757151165e+02   2.0109804330e+01    0.1726291    0.1054917 -52.52 0.0007642761    1.357    0.263
        70 -11.9484    230.5047     55.7093   3.5838714839e+02   2.2705923055e+01    0.3221059    0.1649578 -41.00   0.00178399    1.507    0.337
        71 -13.3577    119.7434     54.9061   1.4269849733e+01   4.7595622021e+01    0.5998973    0.3724214  47.38  0.001228127    1.664    0.399
        72 -11.5673    109.6717     53.7353   1.6381007211e+01   5.0274960573e+01    0.2654489    0.2407098  21.87  0.001414893    1.265    0.210
        73 -12.4231    103.6197     51.0296   1.7024557580e+01   5.2215910572e+01     0.582755    0.3767065 -57.72  0.001466688    1.806    0.446
        74 -12.3536     97.4358     49.7209   1.8305805503e+01   5.3938263866e+01    0.5513517    0.3543943 -49.72  0.001907248    1.669    0.401
        75 -11.0977    136.0744     49.9314   9.0836176055e+00   4.4330907069e+01    0.2310663    0.1766314  30.27  0.001131741    1.693    0.409
        76 -12.5471    227.2693     45.1120   3.5633051696e+02   2.4649973826e+01     0.367097     0.344343 -61.14  0.002714137    1.237    0.192
        77 -12.9670    205.6756     40.4154   3.5707900489e+02   2.9503791527e+01     1.181339    0.4730785 -80.10  0.003869999    5.239    0.809
        78 -13.2692    246.7379     38.4538   3.5352325617e+02   2.1945376318e+01    0.7781788    0.3423682 -62.91  0.004084841    2.380    0.580
        79 -11.0975    109.3557     41.8495   1.2042286147e+01   5.2269328797e+01    0.3319637    0.1851594  60.16 0.0009750059    1.700    0.412
        80 -11.5466    133.3537     38.9256   5.9196553928e+00   4.6618482130e+01    0.4326454    0.2787346 -76.63  0.001980698    1.820    0.451
        81 -11.7744    113.9480     37.9694   9.4919038763e+00   5.1680631913e+01    0.2967693    0.2600058 -70.99  0.001168565    1.144    0.126
        82 -13.0122    121.9224     36.5980   7.2852250903e+00   4.9844523348e+01    0.8344968    0.3398846  51.45  0.003172615    2.434    0.589
        83 -12.1065    130.1355     33.8344   4.7440928744e+00   4.8123041181e+01    0.5068846    0.2736865  58.83  0.002277469    1.749    0.428
        84 -11.3964     39.9654     40.2078   3.8436805182e+01   6.7676353321e+01    0.3771125     0.170928  43.59  0.001526761    2.348    0.574
        85 -11.1029     32.9912     40.0359   4.2561390598e+01   6.8762974894e+01    0.2246495    0.1590022 -13.20 0.0008410486    1.641    0.391
        86 -11.2136     76.1236     36.9625   1.9963560908e+01   6.1088283380e+01    0.2581909    0.1996035  49.60 0.0006752663    1.217    0.178
        87 -12.8836    221.2342     41.8213   3.5607923862e+02   2.6209065678e+01    0.4584027    0.2548085 -77.56  0.002470158    2.048    0.512
        88 -13.4181      9.4250    245.0923   7.8866435413e+01   2.0408936013e+01    0.5855424    0.2706311  56.75  0.003371356    1.746    0.427
        89 -12.1653    231.9954    246.0124   3.3547194582e+01  -3.7274418266e+00    0.2524665     0.114846 -44.16  0.001409578    3.322    0.699
        90 -13.1814      3.2582     34.0949   6.1558592525e+01   7.3063675656e+01    0.5708488    0.3688622  -9.89  0.001912921    1.560    0.359
        91 -14.0232    247.7382    237.4767   2.9938621701e+01  -4.1878653097e+00    0.6888559    0.2941909 -32.33  0.004097424    1.994    0.499
        92 -10.6816     38.5474     33.5244   3.6068995606e+01   6.9225665523e+01    0.1363197    0.1273816   6.03  2.27189e-05    1.033    0.032
        93 -10.6481    155.3700    239.7898   4.6413501348e+01   5.1608795210e+00    0.1542842   0.09846428 -28.73 0.0009420576    1.663    0.399
        94 -11.8764     56.2083     27.0172   2.3254631721e+01   6.7044759731e+01    0.4201756    0.2537209  60.32  0.001570707    1.956    0.489
        95 -11.5572    222.6890    236.5360   3.3688668111e+01  -1.7481752659e+00    0.1787823   0.08164535 -34.54  0.001082553    2.031    0.508
        96 -12.6734    228.4624    229.8303   3.1780527738e+01  -1.5078750526e+00    0.2298468    0.1238235 -27.54  0.001403749    1.576    0.365
        97 -11.4304     51.4403     19.8757   2.1549703199e+01   6.9113796752e+01    0.3023145    0.1935063  58.11 0.0007577455    1.689    0.408
        98 -11.4219    249.9921     17.9904   3.4920685042e+02   2.3662069664e+01    0.2789025    0.1380869 -49.27  0.001589935    1.441    0.306
        99 -12.4650    208.9933    239.7588   3.6429833707e+01  -7.7131811997e-01    0.2691819     0.138383 -32.12  0.001700229    1.824    0.452
       100 -12.0917     20.4443    223.1735   7.5601187260e+01   2.3787275031e+01    0.2173178    0.1938065 -14.85  0.001491715    1.472    0.321
       101 -12.6249    237.8448    215.6387   2.8166838362e+01  -7.0962152777e-01    0.2992716    0.1914985 -21.14    0.0017464    1.221    0.181
       102 -11.0662    175.5553     13.5453   3.5277175058e+02   3.9280262148e+01    0.1313664    0.1056368 -66.38 -6.386762e-06    1.035    0.034
       103 -11.2685     46.0261     12.9934   2.0066107097e+01   7.1186854833e+01    0.2009256     0.167714 -83.02 0.0008006528    1.684    0.406
       104 -11.8446    239.3657    205.5546   2.6348724366e+01   3.9421510404e-01    0.2426574    0.1594059 -28.19  0.001472837    1.298    0.230
       105 -11.0761     71.9442    206.2840   6.1552369215e+01   2.1852553699e+01    0.1996743    0.1581959  31.80 0.0009823428    1.113    0.102
       106 -11.7336    166.0869    197.1891   3.7974461491e+01   1.0624605560e+01    0.3579359    0.2558965  78.95  0.001567242    3.751    0.733
       107 -11.8355    248.2341    196.3696   2.3561310740e+01   6.2968785367e-01    0.2638875    0.1755451 -21.89  0.001508352    1.135    0.119
       108 -11.7310     97.5118    187.5143   5.2592840022e+01   2.2535774618e+01    0.1414547    0.1277442  34.89 4.222547e-05    1.019    0.018
       109 -13.5572      5.1698    183.2072   7.7791488624e+01   3.4091604123e+01    0.4045088    0.2902892 -34.28  0.002276084    1.845    0.458
       110 -10.3544     71.0000     16.9703   1.1965298171e+01   6.5112758730e+01    0.2089271   0.07990264 -28.50 0.0007015499    2.867    0.651
       111 -13.7861     15.6887    175.7437   7.4460351502e+01   3.5084653155e+01    0.5473834     0.315975  85.45   0.00274183    1.678    0.404
