#   1 NUMBER                 Running object number                                     
#   2 MAG_AUTO               Kron-like elliptical aperture magnitude                    [mag]
#   3 X_IMAGE                Object position along x                                    [pixel]
#   4 Y_IMAGE                Object position along y                                    [pixel]
#   5 X_WORLD                Barycenter position along world x axis                     [deg]
#   6 Y_WORLD                Barycenter position along world y axis                     [deg]
#   7 A_WORLD                Profile RMS along major axis (world units)                 [deg]
#   8 B_WORLD                Profile RMS along minor axis (world units)                 [deg]
#   9 THETA_WORLD            Position angle (CCW/world-x)                               [deg]
#  10 FWHM_WORLD             FWHM assuming a gaussian core                              [deg]
#  11 ELONGATION             A_IMAGE/B_IMAGE                                           
#  12 ELLIPTICITY            1 - B_IMAGE/A_IMAGE                                       
         1 -11.4575     66.8135     14.9588   2.9506954389e+01   6.5989114416e+01    0.3370645    0.1564468 -23.53  0.001336913    2.256    0.557
         2 -12.3161     74.7210     14.2411   2.6225467079e+01   6.4424217276e+01    0.2842897    0.2188094 -59.72  0.001497493    1.766    0.434
         3 -10.7516     55.5945     11.2043   3.1958414318e+01   6.8691872965e+01    0.1864622     0.116643 -14.61 0.0009379149    1.637    0.389
         4 -12.5071     82.3163      8.9980   2.0995052282e+01   6.3351310234e+01    0.4552431    0.2388262  70.68  0.001621571    2.500    0.600
         5 -11.9084     90.4280      5.6870   1.7055344078e+01   6.1807493128e+01     0.587806    0.2376586 -48.94  0.002004265    3.955    0.747
         6 -10.9207    114.4861      7.0831   1.2418031095e+01   5.5788747919e+01    0.1924004      0.13612 -21.03 0.0003938466    1.470    0.320
         7 -10.7577    103.5040      7.4711   1.4829626492e+01   5.8481656727e+01    0.1372711    0.1284631  40.02 3.276446e-05    1.009    0.008
         8 -11.7044    122.0795      5.0461   1.0201897007e+01   5.4059106323e+01    0.2003357    0.1916607  58.60 0.0002932592    1.019    0.019
         9 -12.2883    100.2342      2.4778   1.3195184760e+01   5.9743691375e+01    0.4206973    0.1887933  55.90  0.001836336    1.958    0.489
        10 -11.2195    144.2805      2.0344   5.8294577050e+00   4.8652591537e+01    0.1791902    0.1677017 -46.29 0.0002948655    1.093    0.085
        11 -11.3352     55.5761    245.5118   8.3902720757e+01   1.4531113560e+01    0.1674592   0.09005283 -59.29 0.0006631128    2.300    0.565
        12 -12.3764    245.3153    249.8455   4.9676301020e+01  -9.4384946820e+00    0.1869779    0.1274282   5.68 0.0003675056    1.039    0.038
        13 -11.9328    237.3609    248.6900   5.0775708177e+01  -8.4786946046e+00    0.2873733    0.1328083 -27.07  0.001791217    2.038    0.509
        14 -11.8288    124.7846    249.9669   7.1071377078e+01   5.1953429286e+00     0.166596    0.1370994  11.81  0.001192804    1.303    0.233
        15 -12.9957    113.3350    249.1895   7.3177352206e+01   6.8003372751e+00    0.3181183    0.1536698  34.42  0.001777445    1.674    0.403
        16 -11.5503     84.6251    250.5945   7.8771474676e+01   1.0201828872e+01    0.3351212   0.09548412  32.29  0.001412212    3.145    0.682
        17 -13.6270     45.7288    222.4990   8.4367547560e+01   1.9981108177e+01    0.7367041    0.5274232 -46.24  0.004619956    2.009    0.502
        18 -14.0373     34.9179    227.3864   8.6814114634e+01   2.0199963583e+01    0.6365566    0.5105445 -49.07  0.004283839    1.788    0.441
        19 -13.0910     26.8137    223.2264   8.8187685854e+01   2.1868164166e+01    0.4620236    0.2161922  44.00  0.002664288    1.668    0.401
        20 -13.3471      7.5638    202.1199   9.1097207805e+01   2.8106793039e+01    0.7457489    0.3247653  43.99  0.004130758    1.844    0.458
        21 -13.9208     11.1960    194.5960   8.9998303623e+01   2.9435684274e+01    0.4711981    0.3024057  64.18  0.002546651    1.226    0.184
        22 -14.5578      7.5010    185.7477   9.0384246456e+01   3.1762235637e+01     1.705006    0.5563377  55.24  0.007682961    2.522    0.604
        23 -14.7747     17.1585    211.3042   8.9539744666e+01   2.5265084353e+01     1.163308    0.3963566  47.68  0.005825461    2.172    0.540
        24 -15.3435      4.5527    213.5542   9.2141799747e+01   2.5960009340e+01     1.062417    0.3591118  79.77  0.004950206    2.769    0.639
        25 -17.2833      7.8968    232.1594   9.2149248891e+01   2.1965933304e+01     2.018658     1.213458  83.85   0.01391463    1.420    0.296
        26 -15.3755     18.0441    234.3240   9.0357718577e+01   2.0588237022e+01    0.6889632    0.4419632 -51.44  0.004417337    2.372    0.578
        27 -11.1004    167.4691    242.9641   6.2174793983e+01   6.2144194002e-01    0.1451886    0.1112833 -36.11 0.0003716465    1.512    0.339
        28 -11.5129     60.7178    242.1805   8.2712732011e+01   1.4529226321e+01    0.2159515    0.1224355  62.74   0.00118801    1.612    0.379
        29 -12.2391    199.1765    241.3119   5.6170261286e+01  -3.2053905083e+00    0.2048596    0.1470361  21.18 0.0003281315    1.141    0.123
        30 -11.4756    142.9990    242.1089   6.6709158018e+01   3.9873092893e+00    0.1745141    0.1390775  29.28 0.0003035173    1.022    0.022
        31 -10.4481    187.2487    241.2799   5.8305665553e+01  -1.7041246164e+00    0.1084075   0.07300121   1.79 0.0006826175    1.459    0.314
        32 -13.0106    117.9150    240.4916   7.1406408161e+01   7.5960663411e+00    0.1958396    0.1599777  18.57 0.0006226805    1.265    0.209
        33 -13.2119    107.0630    240.2169   7.3512187467e+01   9.0782614174e+00    0.2775217    0.2198219  -5.81  0.001429464    1.704    0.413
        34 -13.6167    102.5441    237.9714   7.4184274839e+01   1.0053699161e+01     0.411521    0.2694895  18.93  0.002420295    1.794    0.443
        35 -13.0430     70.2602    235.9976   8.0414189922e+01   1.4508676435e+01    0.4518299    0.2960639 -51.70   0.00281751    1.988    0.497
        36 -12.9885     73.2223    230.5494   7.9391650511e+01   1.5152831868e+01    0.3511398    0.2064072 -80.88  0.001258889    1.924    0.480
        37 -12.6911    139.2458    247.6458   6.8069176796e+01   3.6542687184e+00     0.282195    0.2680581 -83.83  0.001485436    1.366    0.268
        38 -11.8814    148.1483    239.0398   6.5344404278e+01   3.7612512469e+00    0.2278827    0.1439106  26.73 0.0007780156    1.372    0.271
        39 -11.7601     79.1065    237.1334   7.8756254421e+01   1.3210621904e+01    0.1867429    0.1430762  63.64 0.0007322854    1.190    0.159
        40 -12.4810     52.5830    236.9337   8.3936776884e+01   1.6425932896e+01    0.2704408    0.1657839  27.12   0.00115273    1.793    0.442
        41 -13.0438     62.5421    233.5851   8.1760409344e+01   1.5885524675e+01    0.4939193    0.2395729  72.48  0.001375757    2.464    0.594
        42 -10.9014    223.5671    236.5117   5.1235988026e+01  -5.5588700721e+00    0.1126193    0.0826515   3.35 0.0001033089    1.014    0.013
        43 -10.8092    246.6746    234.7120   4.7168860081e+01  -7.9608345949e+00    0.1121879   0.06294873   1.07 0.0002816124    1.609    0.379
        44 -11.1669    144.8291    234.1953   6.5385557925e+01   4.9607661138e+00    0.1568929    0.1220619  10.82            0    1.298    0.229
        45 -10.7021     89.4998    241.4153   7.7073756176e+01   1.1146224446e+01     0.116205   0.09318282  45.23 0.0001819043    1.029    0.028
        46 -11.0999     39.0117    233.8878   8.6374950878e+01   1.8508585403e+01    0.1807954   0.09347282  59.35 0.0004728754    1.584    0.369
        47 -10.6594    158.4626    233.4923   6.2639191311e+01   3.2021863475e+00     0.119236   0.09860443  22.01 0.0003225468    1.007    0.007
        48 -11.2777    182.0000    230.9594   5.7808820166e+01   3.9075302290e-01    0.2315778     0.147152 -22.50  0.001396323    1.700    0.412
        49 -12.3061    178.1988    228.4956   5.8166140593e+01   1.2557968150e+00    0.2097311    0.1800624  17.77 0.0002874814    1.119    0.106
        50 -11.1606     53.2198    231.3770   8.3451450229e+01   1.7395921496e+01    0.1672376     0.137989 -85.93 0.0005391864    1.290    0.225
        51 -11.3119    219.5674    230.8049   5.1041649988e+01  -4.3876363458e+00    0.1430065    0.1005402 -37.08 0.0009550083    1.728    0.421
        52 -12.7541    231.7444    227.6718   4.8489461493e+01  -5.4573896455e+00    0.2586105    0.1624236 -15.33 0.0004534578    1.371    0.270
        53 -11.4956    194.7487    228.6182   5.5106227386e+01  -9.6877071662e-01    0.2144835    0.1286673 -23.07  0.001269664    1.732    0.423
        54 -12.4900    112.1441    228.1115   7.1221447238e+01   1.0484875714e+01    0.2331752    0.1848905  13.95  0.001487676    1.423    0.297
        55 -13.4627    115.0705    223.9177   7.0143273957e+01   1.0829030173e+01    0.4027012    0.2353977  66.21  0.001974172    2.495    0.599
        56 -11.4775     82.4720    228.9948   7.7381795718e+01   1.4275010343e+01    0.3092898   0.06789836  42.61  0.001104308    3.313    0.698
        57 -12.8892    105.7350    226.7599   7.2389046644e+01   1.1603522703e+01    0.2521826    0.2244024 -62.11  0.001749304    1.305    0.234
        58 -12.7933     91.4735    226.6319   7.5314934479e+01   1.3542911554e+01    0.3147656    0.2467743 -50.92  0.002053684    1.548    0.354
        59 -11.8928    100.4171    226.7840   7.3486908660e+01   1.2320247647e+01    0.2040838    0.1201983 -70.39  0.001126289    2.053    0.513
        60 -11.8755    222.4280    225.5022   4.9718162624e+01  -4.0711515603e+00     0.193767    0.1476921   2.35  0.000114035    1.023    0.023
        61 -10.7019     52.2246    226.3458   8.3311402752e+01   1.8480621019e+01    0.1003897   0.08562175 -54.74 0.0001977497    1.544    0.353
        62 -12.2938     67.9920    223.9814   7.9921436065e+01   1.7056949097e+01    0.3769882     0.167723 -73.43  0.001295155    2.493    0.599
        63 -12.5332     65.3563    216.0644   7.9815098397e+01   1.8958886743e+01    0.3097537    0.2375637 -56.66  0.001389791    1.563    0.360
        64 -10.9917     59.9437    215.5063   8.0915371438e+01   1.9735102385e+01    0.2268648    0.1257815  42.86 0.0007407988    1.511    0.338
        65 -11.0980    212.5065    222.8385   5.1018514965e+01  -2.4861398828e+00     0.230018     0.117895  12.12  0.001161511    2.296    0.564
        66 -12.2007    160.1815    222.3235   6.0763086329e+01   4.6992343753e+00    0.3387872    0.1940095  36.74  0.001108871    1.546    0.353
        67 -11.1034    188.8522    222.0677   5.5198931715e+01   7.4237102228e-01    0.1680155    0.1465207 -79.05  0.001079979    2.032    0.508
        68 -12.9883    124.6286    221.4680   6.7868178313e+01   9.9211097546e+00    0.2618281      0.20116  44.96 0.0009108605    1.187    0.158
        69 -12.4269     77.3557    219.7730   7.7606500468e+01   1.6701034896e+01    0.2917349    0.2090313 -71.58  0.001426968    1.509    0.337
        70 -11.7841     43.7333    234.6300   8.5507212355e+01   1.7851663907e+01    0.2596484    0.1169134  88.47 0.0007875054    2.468    0.595
        71 -11.9081    246.3267    220.4462   4.4934396156e+01  -6.2795923323e+00    0.1579524    0.1183639 -32.48 0.0002431731    1.651    0.394
        72 -12.4426    237.8604    220.0143   4.6237131442e+01  -5.2438774237e+00    0.2654403    0.1442701 -29.96  0.001632356    1.677    0.404
        73 -11.7043    223.0470    220.3443   4.8781411640e+01  -3.4878974997e+00    0.1923739    0.1312238  -7.07  0.001264505    1.249    0.199
        74 -12.9042    173.1127    219.6917   5.7839831755e+01   3.2816850366e+00    0.3013232    0.2268841 -19.81 0.0007906886    1.364    0.267
        75 -11.2254     87.6044    220.7705   7.5544734954e+01   1.5166834967e+01    0.1599262    0.1348751  41.38 0.0003287987    1.109    0.098
        76 -12.7859    100.1788    220.0427   7.2820178518e+01   1.3608346461e+01    0.2634079    0.1849793  49.58  0.001420955    1.265    0.209
        77 -10.7079     32.5063    220.4449   8.6911097305e+01   2.1835495998e+01    0.1145376   0.09364447  65.14 -2.848786e-05    1.094    0.086
        78 -11.9048    231.5723    218.7760   4.7077158815e+01  -4.3359119040e+00    0.1478218   0.09814813 -35.32 0.0009508344    1.670    0.401
        79 -10.7791     83.3620    219.2551   7.6291022715e+01   1.6021647938e+01    0.1135861   0.09416594   2.82 0.0002197631    1.622    0.384
        80 -12.8021    145.0544    215.9300   6.2909510617e+01   7.9439286291e+00     0.353707    0.3108775  34.82  0.001740852    1.087    0.080
        81 -13.5451    139.8251    210.4683   6.3223453435e+01   9.6813617513e+00    0.4781096    0.3887561 -72.52  0.002906698    1.574    0.365
        82 -12.3328    130.0780    217.0336   6.6167493518e+01   9.9317552956e+00    0.2056506     0.175813 -66.94 0.0007291382    1.387    0.279
        83 -13.3890    108.2380    215.9070   7.0642725327e+01   1.3271986459e+01    0.3080372    0.2616172  62.45  0.001296093    1.173    0.147
        84 -11.3000     52.8967    216.7804   8.2495567632e+01   2.0313184714e+01    0.1699589    0.1495106  51.12 0.0006232051    1.185    0.156
        85 -13.3108     85.5909    211.2950   7.5014003168e+01   1.7312685386e+01    0.5626283    0.4508547  75.17  0.002334397    1.232    0.188
        86 -12.3758     79.1372    212.6084   7.6547382108e+01   1.7904071395e+01     0.371981    0.2096844  52.47 0.0006835037    1.609    0.378
        87 -12.2207     75.6097    212.1806   7.7269260640e+01   1.8451927288e+01    0.7290011    0.3898892   9.22  0.002622913    4.895    0.796
        88 -11.8372    192.8950    215.1102   5.3346991174e+01   1.2062547549e+00    0.1725431    0.1534694  19.91 0.0003642514    1.248    0.199
        89 -11.0008     36.2092    214.7413   8.5826367094e+01   2.2608355367e+01     0.307205    0.1339329  62.88  0.001530869    2.123    0.529
        90 -11.3352     30.9785    212.4272   8.6769465275e+01   2.3645102595e+01     0.222258    0.1459039  48.27 0.0004698507    1.274    0.215
        91 -12.5007    120.6695    214.2999   6.7797322462e+01   1.1795905206e+01    0.1971612    0.1637588  54.32 0.0004944297    1.196    0.164
        92 -11.9208    117.5298    212.5195   6.8240990794e+01   1.2585816809e+01    0.2005377    0.1424855  58.54 0.0006470516    1.518    0.341
        93 -12.0376    247.5839    212.8848   4.3467675604e+01  -5.5093084876e+00    0.1886776    0.1418665  17.23 0.0005089334    1.316    0.240
        94 -12.4686    125.0934    212.8898   6.6673754515e+01   1.1414521777e+01    0.2045695    0.1814803  39.29 0.0003103881    1.024    0.023
        95 -11.0142     40.8435    213.0316   8.4755392633e+01   2.2458990096e+01    0.1615409    0.1283011  73.80 0.0003488724    1.074    0.069
        96 -11.0404    215.5634    212.5293   4.8794115961e+01  -1.4867307102e+00    0.1204787   0.09487574  -0.34 4.815159e-05    1.014    0.014
        97 -11.7304    180.8452    211.8476   5.5121016905e+01   3.4032314760e+00    0.1546228      0.13962  33.47            0    1.296    0.228
        98 -10.9983     47.6586    211.1446   8.3187971432e+01   2.2088019432e+01    0.2212235    0.1612485  38.68  0.001398516    1.331    0.249
        99 -13.2378    229.0314    206.9659   4.5510700873e+01  -2.4763859988e+00    0.3607211     0.257228 -35.09  0.001464977    1.545    0.353
       100 -11.8627    225.1494    204.1469   4.5685142488e+01  -1.5877392289e+00    0.2014665    0.1617352 -26.82 0.0003757138    1.336    0.251
       101 -12.3330    113.3116    210.0806   6.8841385197e+01   1.3665417098e+01    0.2472269    0.1685354  42.08 0.0007256343    1.301    0.231
       102 -11.2967     38.0486    209.3430   8.5102201740e+01   2.3541900505e+01    0.1652999    0.1268202  46.45  0.000693214    1.214    0.177
       103 -11.6796    242.4720    207.9946   4.3453713211e+01  -4.2879765492e+00    0.1669708   0.09430232 -27.70  0.000351597    1.524    0.344
       104 -12.0148    180.4929    207.5263   5.4491180706e+01   4.1394081122e+00    0.2462242    0.1880776  14.22  0.001511745    1.181    0.153
       105 -12.7111    108.7209    207.1569   6.9474696366e+01   1.4905245996e+01    0.3485302    0.2091936  16.43  0.001641746    2.294    0.564
       106 -12.1033    103.1005    206.4820   7.0628364314e+01   1.5851073768e+01    0.3000402    0.2202317  11.01 0.0009891209    1.753    0.430
       107 -11.5996     63.8528    208.1118   7.9452161609e+01   2.0793379051e+01    0.1890082    0.1399645  58.47 0.0005047537    1.151    0.131
       108 -12.7017     33.8355    206.3080   8.5801925577e+01   2.4643194134e+01    0.2865802    0.1889878 -86.39   0.00112008    1.392    0.282
       109 -11.7349     36.3119    203.2701   8.5073691953e+01   2.5036438630e+01    0.1723378    0.1598814  71.70 0.0002269806    1.245    0.197
       110 -13.2673    135.3991    199.4612   6.2558351018e+01   1.2407648756e+01    0.4030935    0.2670454  63.18  0.001987746    2.075    0.518
       111 -13.0870    145.2905    203.3374   6.1015882571e+01   1.0155312253e+01     0.550445    0.2372552 -45.34  0.002430466    2.497    0.600
       112 -12.7406    141.8400    198.0929   6.0948660386e+01   1.1669660210e+01    0.4127997    0.2737029 -72.90  0.002009151    2.293    0.564
       113 -11.2467     70.6991    207.3078   7.7877357743e+01   2.0098278071e+01    0.2008041    0.1557657  66.57   0.00061564    1.153    0.133
       114 -10.9194     67.7047    207.7141   7.8573127923e+01   2.0394162972e+01    0.1941481    0.1152065  25.07 0.0004739571    1.943    0.485
       115 -11.7126    205.0163    206.1112   4.9606559911e+01   8.5470512767e-01    0.1813167    0.1464723   1.97 0.0002832311    1.009    0.009
       116 -12.3939    123.9434    205.0588   6.5865853193e+01   1.3070384117e+01    0.2603436    0.1526884 -46.34  0.001273005    1.897    0.473
       117 -11.9242    117.1243    205.7562   6.7450710731e+01   1.3950300992e+01    0.2582446    0.1894838  49.38  0.001479826    1.298    0.230
       118 -12.9539     93.9374    183.5632   6.9786525454e+01   2.2103250013e+01    0.4298696    0.3029495 -55.27  0.001719065    1.486    0.327
       119 -12.9222     89.5714    182.9514   7.0757643278e+01   2.2884297028e+01    0.6548129    0.2546547 -65.78  0.002523497    2.793    0.642
       120 -13.1182     90.0572    201.4332   7.2939554006e+01   1.8743263904e+01    0.5637239    0.3020071 -45.29  0.001445125    2.376    0.579
       121 -12.5049     99.9147    195.1130   6.9916354840e+01   1.8675375916e+01    0.3447794    0.3117119 -29.96  0.001229213    1.316    0.240
       122 -13.1957     93.8203    193.3036   7.1093275030e+01   1.9953411107e+01    0.5945963    0.3389691  52.10  0.001982017    1.731    0.422
       123 -12.5576     48.6904    204.5647   8.2473630938e+01   2.3373052845e+01     0.235774    0.1952562 -79.20 0.0006561693    1.256    0.204
       124 -11.3860     41.7629    205.2097   8.4027654406e+01   2.4018982270e+01    0.2200924    0.1308183  48.66  0.001107835    1.410    0.291
       125 -11.4982    167.1695    202.8071   5.6378328079e+01   6.9081715159e+00    0.2662483    0.1647608  -4.04  0.001146465    2.318    0.569
       126 -12.9077    159.8387    206.4491   5.8458416451e+01   7.3889388489e+00    0.3181116    0.2249847  29.69 0.0006386083    1.279    0.218
       127 -11.3780    212.4297    200.1948   4.7231821007e+01   6.9722173044e-01    0.1620106    0.1102731 -42.19 0.0009408362    1.707    0.414
       128 -12.1930     84.1551    198.5086   7.3944122328e+01   2.0187621953e+01    0.6601664      0.25166 -61.01  0.002797227    2.662    0.624
       129 -11.8881     80.9855    194.1599   7.4178586187e+01   2.1574154518e+01     0.431351    0.2291567  52.31  0.001654411    1.818    0.450
       130 -11.4708     62.9096    177.0241   7.6573686724e+01   2.7947210926e+01    0.8091841    0.2361222  28.63  0.002690825    3.963    0.748
       131 -12.5813     64.5956    182.6050   7.6777544017e+01   2.6401155386e+01    0.4971845    0.2981789 -60.69  0.002192667    1.687    0.407
       132 -13.2044     70.0055    186.6034   7.5914174340e+01   2.4762758490e+01    0.6507495     0.420695  57.56  0.001563162    1.462    0.316
       133 -12.7775     75.4946    186.0478   7.4536761489e+01   2.4155604331e+01     1.218797    0.2547384 -60.49  0.003936481    4.148    0.759
       134 -11.6263     39.7192    197.5595   8.3926956183e+01   2.5926025055e+01    0.2920785    0.1346414  57.88 0.0008485378    1.968    0.492
       135 -12.9251    122.4900    196.2658   6.4941349395e+01   1.5032807452e+01    0.4336901     0.226229  48.10  0.001987088    1.956    0.489
       136 -12.8479    120.6149    191.3970   6.4648201274e+01   1.6322428544e+01    0.2655146    0.2415584 -77.39 0.0003890251    1.188    0.158
       137 -13.4713    120.3638    186.5401   6.3969341671e+01   1.7382421062e+01    0.4656271    0.2778939  36.31 0.0006046771    1.586    0.370
       138 -14.3507    118.4249    179.9664   6.3390879501e+01   1.9110407978e+01     1.223059    0.5002772  56.44  0.003515983    5.021    0.801
       139 -10.8547     30.4985    196.9966   8.5930955144e+01   2.7035251061e+01     0.159978   0.08506921 -54.20 0.0008070755    2.337    0.572
       140 -12.5856     26.8698    193.8856   8.6535202247e+01   2.8104732994e+01    0.4191419    0.1524929 -71.17  0.001822922    2.482    0.597
       141 -11.3435    245.6340    195.7917   4.0785151412e+01  -3.0847243428e+00    0.1649704   0.09386584 -36.78 0.0009521393    1.750    0.429
       142 -12.5923    194.0057    193.3052   4.9429948522e+01   4.4329893741e+00     0.415608    0.2469884 -14.50   0.00150009    2.022    0.505
       143 -12.6206    189.8075    193.1759   5.0217686945e+01   5.0886638652e+00    0.3678786    0.2991432  -5.82   0.00140372    1.107    0.096
       144 -12.7763    151.9937    195.3851   5.8331292804e+01   1.0587721186e+01    0.3088185    0.2273503  31.98  0.000975679    1.262    0.208
       145 -11.1931    202.3067    195.3125   4.8218948426e+01   2.8823661483e+00    0.1319765   0.08688293  -2.92 0.0005323599    1.621    0.383
       146 -10.9181      1.5680    195.4997   9.2079058359e+01   3.0067620741e+01     0.117594   0.09017776  76.43 0.0001346529    1.069    0.064
       147 -11.5011    217.9668    193.9791   4.5128118251e+01   8.4410723378e-01    0.1639258    0.1582746 -57.25 0.0005751484    1.643    0.391
       148 -11.2553    239.4713    193.4913   4.1367858597e+01  -1.9878804774e+00    0.1236467   0.09284689  -8.30 4.453394e-06    1.025    0.025
       149 -11.9666     69.5723    193.8977   7.6799807095e+01   2.3160008685e+01     0.181954    0.1666542  56.81 0.0004415975    1.122    0.109
       150 -12.5910    162.4865    192.4493   5.5617011209e+01   9.4699176891e+00    0.2867215    0.2705986  67.36  0.001189949    1.318    0.241
       151 -11.5771    234.4971    190.0279   4.1555291765e+01  -8.4876141679e-01    0.1863296    0.1026003 -31.75  0.001030786    1.585    0.369
       152 -12.9226    134.6326    189.3026   6.1149071857e+01   1.4534013459e+01    0.3871174    0.2524166 -28.26  0.001200485    1.958    0.489
       153 -11.2310     53.0209    177.4825   7.9070505438e+01   2.9065846860e+01    0.1879822    0.1604037  62.84 -6.625683e-05    1.081    0.075
       154 -12.3563     50.4723    190.0113   8.0868154710e+01   2.6415218160e+01    0.2768188    0.1965804  36.20 0.0005351088    1.426    0.298
       155 -14.1917     50.4513    183.5658   8.0286807059e+01   2.7919960346e+01    0.4279892     0.332124  77.47  0.001172956    1.123    0.109
       156 -10.9801    174.3274    188.6988   5.2505183943e+01   8.2650747589e+00    0.1242876    0.1076451  69.84 0.0007031041    1.641    0.391
       157 -12.1915    156.0252    188.4914   5.6309583711e+01   1.1242185718e+01    0.2102053    0.1261994  35.41  0.001030187    1.582    0.368
       158 -12.4897    109.3674    187.4629   6.6670040595e+01   1.8902985451e+01    0.3911813    0.1850066  51.43  0.001605652    2.361    0.576
       159 -11.0394    226.7987    187.3846   4.2368350992e+01   5.8553190981e-01    0.1687935    0.1037543  19.81 0.0005735498    1.638    0.389
       160 -12.4581    194.6950    186.7855   4.8108246509e+01   5.4014233092e+00     0.241116    0.2057633  25.67 0.0008022803    1.214    0.176
       161 -11.8946     43.5907    186.8799   8.2206187590e+01   2.7933155324e+01    0.2238232    0.1618858  50.78 0.0004873016    1.241    0.194
       162 -12.2827     26.7111    185.1580   8.6003780558e+01   3.0126173810e+01    0.3432301     0.296599 -75.50  0.002293518    1.280    0.219
       163 -12.0296    247.5354    185.9002   3.8663610565e+01  -1.9881822136e+00    0.2246694    0.1596973  18.51 0.0009523595    1.381    0.276
       164 -12.4407    164.5470    185.2431   5.3921380388e+01   1.0470516116e+01    0.2440154      0.23339  -8.94 0.0004198855    1.106    0.096
       165 -11.7155    167.6207    181.7700   5.2642151148e+01   1.0617055787e+01    0.2097509    0.1318557 -41.23 0.0007078089    1.594    0.373
       166 -12.2718     99.3434    185.2613   6.8725754148e+01   2.0914064699e+01    0.3331852    0.1989983 -63.79  0.001616508    1.753    0.430
       167 -12.3261    199.9170    182.0041   4.6211286442e+01   5.3903448334e+00    0.3589722    0.2009176  42.18  0.001287182    1.976    0.494
       168 -12.3406    143.8141    181.4567   5.7773382983e+01   1.4626437631e+01    0.3875009    0.1308672  37.19  0.001387676    2.846    0.649
       169 -11.5858     37.5374    181.2354   8.3171582567e+01   2.9930021639e+01    0.2294382    0.1625211  42.30 0.0006921903    1.372    0.271
       170 -13.8745      4.0567    149.9671   8.9287451728e+01   4.0702509017e+01    0.9406721    0.2683176 -80.07  0.003626071    2.811    0.644
       171 -12.0784      1.4360    137.3090   8.9192942456e+01   4.4124677847e+01    0.2892154      0.13906 -71.71  0.000671619    1.684    0.406
       172 -12.8915     22.8110    175.8237   8.6285031894e+01   3.2720030880e+01    0.4693741    0.2850279 -55.33  0.002544736    1.894    0.472
       173 -14.0915     33.8994    148.4383   8.1081094503e+01   3.8535148837e+01    0.5972821    0.2910233  27.98   0.00190959    2.284    0.562
       174 -14.7852     27.2543    151.6703   8.3226446888e+01   3.8342362174e+01     1.295762    0.5073551  86.04  0.004785622    2.979    0.664
       175 -12.1597      3.0200    142.4681   8.9092894267e+01   4.2689288639e+01    0.2392031    0.2002349  57.03  0.000866393    1.251    0.200
       176 -13.7997     25.8123    169.9331   8.5129614470e+01   3.3865927318e+01      0.80118    0.3622485  57.85  0.002976977    2.071    0.517
       177 -15.4256     12.3865    138.6774   8.6217342818e+01   4.3001637885e+01     1.200089    0.7567801  89.78  0.004718577    1.304    0.233
       178 -12.5642      5.4905    138.4803   8.8142562457e+01   4.3551378722e+01    0.2709298    0.1910003  59.05 0.0005590761    1.346    0.257
       179 -12.4483     21.0719    153.4179   8.5040958605e+01   3.8458536459e+01    0.4105811    0.2540303 -50.69  0.002142496    1.860    0.462
       180 -12.9762     21.4612    148.9825   8.4562168629e+01   3.9568197260e+01    0.4107207    0.2469461  16.52   0.00163427    2.198    0.545
       181 -12.0207    166.3824    177.4082   5.2094101244e+01   1.1649121813e+01     0.257912    0.2034691  77.44  0.001193688    1.992    0.498
       182 -11.7565     57.4104    176.9389   7.7928867773e+01   2.8661199992e+01    0.2837717    0.1805739  70.97  0.001009985    1.562    0.360
       183 -13.1918     23.4213    162.3061   8.5141882273e+01   3.5988247049e+01    0.5033905    0.3035504  84.83  0.002518438    1.439    0.305
       184 -13.5458    148.3831    176.2185   5.5813605291e+01   1.4926451845e+01    0.3943034    0.3185199  58.72  0.001043648    1.456    0.313
       185 -12.0680    137.3143    177.0341   5.8478412644e+01   1.6626641989e+01    0.1951627    0.1869128 -48.74 0.0007569238    1.088    0.080
       186 -10.9206     84.2367    176.9797   7.1266048219e+01   2.5047443630e+01    0.1733836    0.1128192 -67.62 0.0003576964    1.534    0.348
       187 -11.0586      6.9854    177.4448   9.0094596386e+01   3.3738527509e+01     0.164859    0.1118638  37.01  0.000501981    1.541    0.351
       188 -12.1237      3.2388    174.5680   9.0816757879e+01   3.4721929826e+01    0.3144404    0.1846174 -87.38  0.001539327    1.383    0.277
       189 -11.9898    106.2637    175.9732   6.5687802878e+01   2.1946900349e+01     0.195128    0.1843742 -75.44 0.0005698811    1.072    0.067
       190 -11.9992     48.4819    174.9926   7.9945398230e+01   3.0207125719e+01    0.3564521     0.172571  64.62  0.001300588    2.241    0.554
       191 -11.4035    224.7044    175.3833   4.0430801502e+01   2.7011799557e+00    0.1731297    0.1580971 -61.11  0.001096081    1.699    0.411
       192 -12.8137    127.0518    174.1801   6.0380654921e+01   1.8960977632e+01    0.3440852     0.211702 -67.55  0.001530312    2.040    0.510
       193 -13.4546    130.5410    169.6776   5.8755513259e+01   1.9359975945e+01    0.4972894    0.2722142  32.05  0.002144668    1.911    0.477
       194 -13.2644    125.5154    167.1490   5.9507504215e+01   2.0782625803e+01    0.5341492    0.2872944  36.40  0.002301617    1.850    0.459
       195 -11.4937     98.1562    174.6292   6.7477609613e+01   2.3522288129e+01    0.1934802    0.1335063  21.37 0.0004661309    1.739    0.425
       196 -12.6404     91.3850    169.8199   6.8455551682e+01   2.5695030004e+01    0.3216451    0.2419257 -44.98  0.001663396    1.486    0.327
       197 -11.2249     13.0985    173.8565   8.8472085916e+01   3.4075496620e+01    0.2755531   0.08614734 -59.45  0.001093028    3.305    0.697
       198 -11.7928    235.0955    171.3852   3.7886724073e+01   1.8011348625e+00    0.2368713    0.1082903  29.09  0.001094264    2.528    0.604
       199 -12.6601    197.2221    170.0936   4.4398586876e+01   7.8544103299e+00    0.2971709    0.1674579 -27.64  0.001396217    1.784    0.439
       200 -13.1122    152.7715    168.7365   5.3423766984e+01   1.5707652936e+01     0.362731    0.2104518 -52.47  0.001127662    1.849    0.459
       201 -13.5487    151.3564    164.9087   5.2998651256e+01   1.6753794942e+01     0.431381    0.2993476  25.39 0.0007454954    1.554    0.357
       202 -12.6745    106.3990    167.3080   6.4262232325e+01   2.3935821448e+01    0.2551163    0.2488659  25.73 0.0002880306    1.100    0.091
       203 -11.7825     51.1436    198.9847   8.1483826241e+01   2.4309296961e+01    0.2023618    0.1664572  48.58 0.0005502595    1.168    0.144
       204 -13.1869     55.5993    165.0148   7.7063656925e+01   3.1825116914e+01    0.5164846    0.4022052 -50.22   0.00155496    1.466    0.318
       205 -11.7976     41.3067    168.1048   8.1081078153e+01   3.2718246762e+01    0.2615329    0.1848994  44.57   0.00146318    1.378    0.274
       206 -11.3019     14.7587    160.6577   8.7226223866e+01   3.7171082897e+01    0.4452083    0.1628376 -53.35  0.001783603    3.224    0.690
       207 -12.5949     11.1584    167.7724   8.8576197918e+01   3.5714580355e+01     0.381991    0.3085395  40.77  0.002176059    1.369    0.270
       208 -12.0034     15.5010    167.4831   8.7497565897e+01   3.5415104238e+01    0.2251592    0.1581901 -82.29  0.001030851    1.219    0.180
       209 -12.5366    172.2224    166.4588   4.8722049051e+01   1.2763144368e+01    0.2820079     0.197341 -39.21  0.001431727    1.381    0.276
       210 -12.1652     62.0236    170.5545   7.6052235402e+01   2.9637124671e+01    0.3061408    0.2450228  70.77  0.001456075    1.139    0.122
       211 -13.1506     87.7477    165.1963   6.8692514155e+01   2.7365073840e+01    0.3328664    0.2868068  37.21  0.001107619    1.211    0.174
       212 -12.7628     83.8596    163.2758   6.9416115058e+01   2.8418714165e+01    0.3257879    0.2188949 -65.78 0.0005439174    1.443    0.307
       213 -11.5308    206.0038    163.9870   4.1492125450e+01   7.4763875048e+00    0.1688524    0.1444683 -10.89 0.0005011875    1.019    0.019
       214 -10.7939    235.7250    163.7309   3.6249598042e+01   2.8782431632e+00    0.1260695   0.08488185  -6.57 0.0006877356    1.481    0.325
       215 -13.0010     37.7520    162.1411   8.1422948607e+01   3.4601710893e+01    0.3942305    0.3074273  13.07   0.00223846    1.707    0.414
       216 -12.6568     47.0507    161.4568   7.8909133639e+01   3.3745002368e+01    0.4126689    0.2354206  55.74  0.001806149    1.707    0.414
       217 -12.4146     29.8895    161.4837   8.3408448352e+01   3.5575117465e+01    0.2367315    0.1996438  84.06  0.000604853    1.049    0.047
       218 -13.2729    169.9205    159.4702   4.7782396254e+01   1.4548834531e+01    0.3609956    0.2999756 -51.28  0.001941939    1.304    0.233
       219 -11.5170     77.4766    159.9222   7.0604805911e+01   3.0188287192e+01    0.2179469    0.1350413 -66.98  0.000590836    1.546    0.353
       220 -13.0888    187.9969    158.2631   4.3772909128e+01   1.1566229790e+01    0.3701959    0.2709335  27.21  0.001026735    1.419    0.295
       221 -10.4327    231.2878    158.3206   3.5870263200e+01   4.3942173108e+00    0.1349309   0.08863102  -8.20 0.0003419916    1.599    0.374
       222 -11.6009    105.7063    158.0382   6.2846236872e+01   2.6264929180e+01    0.2499124    0.2122137  40.50 0.0005543689    1.191    0.160
       223 -13.7114     78.1980    155.5370   6.9749950347e+01   3.1194609856e+01    0.6283498    0.2569103  51.71 0.0006044802    2.872    0.652
       224 -12.8811     71.5549    156.8165   7.1743791268e+01   3.1814026674e+01     0.366308    0.1764453 -68.83  0.001429786    2.022    0.505
       225 -13.1150      4.7055    160.2123   8.9722572119e+01   3.8087789509e+01    0.3709788    0.3556058 -87.84   0.00188313    1.320    0.242
       226 -12.2415    121.7030    156.0712   5.8384701687e+01   2.3993422166e+01    0.2054846    0.1894398 -51.47 0.0003608812    1.076    0.071
       227 -13.8561     63.4506    154.8300   7.3673135662e+01   3.3422007310e+01     0.497454    0.3229595  70.77  0.002371191    1.649    0.394
       228 -12.2586     12.6083    154.8860   8.7379376032e+01   3.8802775663e+01    0.4094189   0.09504976 -75.46  0.001137448    3.345    0.701
       229 -10.8116    222.5930    155.7492   3.6800468408e+01   6.1761269077e+00    0.1376217   0.09259199   3.51 0.0006942087    1.713    0.416
       230 -12.3794    212.4866    153.6395   3.8129286334e+01   8.1893105027e+00    0.2528607    0.2364801 -60.19 0.0009176148    1.427    0.299
       231 -13.2038     39.9180    153.7295   7.9985262643e+01   3.6526949830e+01    0.2872005     0.258398  -4.82  0.001624284    1.483    0.326
       232 -12.0118     88.4956    153.0248   6.6547563605e+01   3.0282198560e+01    0.2283038    0.1399383 -61.96 0.0007188813    1.565    0.361
       233 -12.0357    249.1683    151.8728   3.1703512493e+01   2.7140154077e+00    0.2050583    0.1597945 -21.56 0.0003344277    1.032    0.031
       234 -12.7850    167.8221    150.2050   4.6259345317e+01   1.6814105478e+01     0.278964    0.1867724 -29.22 0.0009532856    1.550    0.355
       235 -12.8164    108.2783    149.3482   6.0562878878e+01   2.7953576909e+01    0.4218098    0.3533528 -21.23  0.002128465    1.437    0.304
       236 -10.9185    155.3146    150.3176   4.9083166142e+01   1.9135349556e+01    0.1538812    0.1154803  -8.68 0.0007037476    1.649    0.394
       237 -12.1600    147.1029    149.1562   5.0745678670e+01   2.0932653136e+01     0.291834    0.2581388 -68.92 0.0004996104    1.261    0.207
       238 -12.7740     84.3034    149.5454   6.7108459640e+01   3.1815544120e+01     0.285894    0.2584472 -74.27 0.0008103507    1.047    0.045
       239 -12.0375     95.9299    148.7664   6.3777150336e+01   3.0173627315e+01    0.2971479    0.1921681   6.41  0.001162632    2.652    0.623
       240 -11.5445     54.7695    150.5966   7.5506526578e+01   3.5629518491e+01     0.203964      0.12062  45.34 0.0009574795    1.675    0.403
       241 -11.1340     54.8840    156.8486   7.6273690274e+01   3.3992073822e+01    0.3589967    0.0817307  32.31  0.001131879    4.008    0.751
       242 -11.6747    138.2554    146.0201   5.2201860346e+01   2.3306565211e+01    0.2073727     0.191972 -44.90 0.0002280356    1.048    0.046
       243 -12.9582    119.1461    144.0382   5.6629621485e+01   2.7325137698e+01       0.4477    0.3159511  65.66  0.001206561    1.778    0.438
       244 -12.6128     43.9642    145.2341   7.7876709770e+01   3.8310993261e+01    0.2538431    0.1539884 -59.83 0.0002823622    1.546    0.353
       245 -10.6331    229.3158    145.7152   3.3524822184e+01   6.7476780890e+00    0.1230207    0.1020689 -55.17 0.0002642951    1.583    0.368
       246 -13.2866    102.3149    142.9666   6.0929039834e+01   3.0569800778e+01    0.7640266    0.4018875  61.68  0.002653083    2.950    0.661
       247 -12.0117     82.7529    144.8149   6.6728868045e+01   3.3273947630e+01    0.2151166    0.1680427  75.67 0.0009944543    1.353    0.261
       248 -11.9753    170.0780    144.5180   4.4505605335e+01   1.7560500785e+01    0.2203569     0.148075  39.44 0.0005413929    1.567    0.362
       249 -11.2903     58.1938    143.5986   7.3565571655e+01   3.7045396760e+01    0.1827856    0.1448023  12.14 0.0004796431    1.637    0.389
       250 -11.5945    178.2598    142.3555   4.2272053995e+01   1.6441340133e+01     0.249472    0.1947211  52.33  0.001076979    1.507    0.336
       251 -12.1359     94.8655    140.4211   6.2500675406e+01   3.2475550318e+01    0.3208297    0.1828992 -43.45  0.001137855    1.920    0.479
       252 -11.0673    131.9884    140.2497   5.2502535521e+01   2.5835825394e+01    0.1996512    0.1332323  40.14 0.0007144723    1.553    0.356
       253 -12.5361     29.6261    139.8078   8.1377754526e+01   4.1232987573e+01    0.2880221    0.1766571  36.65 0.0009229459    1.729    0.422
       254 -10.6667    195.2651    139.6770   3.8241780118e+01   1.3760325986e+01    0.1385602    0.1111876 -60.45 0.0002867746    1.561    0.360
       255 -11.5005    188.5153    138.9012   3.9385444214e+01   1.5175641025e+01    0.2249531    0.1340116 -39.42 0.0007556849    1.525    0.344
       256 -11.8746     77.1338    139.1475   6.7343859920e+01   3.5607189281e+01    0.2225361     0.197207 -49.50 0.0002958376    1.193    0.162
       257 -12.3091     35.0949    138.7476   7.9663413424e+01   4.0980419210e+01    0.2395161    0.1987749 -19.90  0.001343805    1.617    0.382
       258 -13.4216     37.8649    135.4160   7.8436892802e+01   4.1590645518e+01     0.628592    0.2605649  64.19   0.00215415    3.428    0.708
       259 -13.9536     20.8621    130.4580   8.2979115132e+01   4.4510096123e+01    0.5325303    0.3911875 -56.16   0.00147799    1.383    0.277
       260 -14.4377     35.7900    129.7260   7.8337531762e+01   4.3339692433e+01    0.6309187    0.5155627  54.41  0.002151739    1.272    0.214
       261 -13.3702     28.4303    124.6216   7.9980260231e+01   4.5429047247e+01    0.4054663    0.3201118 -52.27  0.000881512    1.329    0.247
       262 -13.4817     45.4159    137.6151   7.6471639841e+01   4.0181046287e+01    0.3986443    0.2909921 -51.47 0.0004210275    1.436    0.304
       263 -12.4868     43.2207    133.1901   7.6527803557e+01   4.1618629193e+01    0.2907699     0.229003  48.30 0.0006939709    1.330    0.248
       264 -12.4107    212.4530    137.3183   3.4532532630e+01   1.1059508970e+01    0.2481969    0.2118587 -34.64 0.0003158415    1.127    0.113
       265 -10.9198    160.3317    138.6617   4.5328494153e+01   2.0682327509e+01    0.1540557    0.1231784 -84.26 0.0007051908    1.741    0.426
       266 -11.2617    239.8504    136.6433   2.9880499288e+01   6.5194821932e+00    0.1721135    0.1501459 -19.84 0.0005139916    1.125    0.111
       267 -10.7998    223.5043    137.3981   3.2656232990e+01   9.1122249917e+00    0.1386766    0.1159595 -21.45 0.0001037686    1.023    0.022
       268 -11.4306    126.8016    137.1896   5.3151635052e+01   2.7551633431e+01    0.2112305    0.1824141 -16.95 0.0003225836    1.313    0.238
       269 -12.9209    119.6646    135.9701   5.4757882232e+01   2.9196070739e+01    0.4531155    0.3220041 -83.95  0.001113617    1.919    0.479
       270 -12.4868     77.1850    134.4451   6.6478671131e+01   3.6844912091e+01    0.2891858    0.2171102 -31.19 0.0008651983    1.669    0.401
       271 -12.4728    102.2253    133.9827   5.9116209428e+01   3.2867482449e+01    0.2799464    0.2352772  42.28   0.00124273    1.245    0.197
       272 -11.4866     86.3155    134.6856   6.3834611687e+01   3.5362160393e+01     0.159284     0.114592  75.45 0.0002582424    1.644    0.392
       273 -12.5062     60.9513    134.0153   7.1271768657e+01   3.9252042148e+01        0.243    0.1703367 -36.76  0.001140717    1.756    0.431
       274 -12.0684    128.4946    133.0659   5.1774470900e+01   2.8215114994e+01    0.2777454    0.2153941  60.28 0.0006767179    1.475    0.322
       275 -12.2421    174.1904    135.8061   4.1613149689e+01   1.8559571920e+01    0.2175705    0.1750341  -9.13  0.001078181    1.364    0.267
       276 -10.8941    138.9873    132.5150   4.8971590142e+01   2.6284820694e+01    0.2244536     0.156676  41.59  0.000560992    1.503    0.335
       277 -12.6984      2.4315    131.2122   8.8492757218e+01   4.5648270454e+01     0.338809     0.185565 -77.23   0.00114364    1.440    0.306
       278 -10.8028    230.4108    130.5220   2.9988917883e+01   9.0910151287e+00    0.1400088    0.1124075 -28.59 0.0001167163    1.030    0.029
       279 -10.9619    199.6681    130.6926   3.5315875218e+01   1.4626512185e+01     0.149914    0.1087393  -3.06 0.0007040143    1.665    0.400
       280 -13.1641     83.3506    128.1294   6.3408104952e+01   3.7566503168e+01    0.5168633    0.2553121 -45.17  0.001958033    2.166    0.538
       281 -12.7952     80.1961    127.3879   6.4212962928e+01   3.8261636205e+01    0.3027577    0.2438067  69.43  0.000609354    1.330    0.248
       282 -11.3407    206.1824    129.1861   3.3768070142e+01   1.3675817000e+01     0.192773    0.1609275 -50.21 0.0004022993    1.300    0.231
       283 -11.6703    121.8268    128.2598   5.2416560886e+01   3.0672557960e+01    0.2756464    0.2107716 -62.79 0.0006933068    1.346    0.257
       284 -12.2625    187.9498    127.7461   3.6860643147e+01   1.7465943032e+01    0.2613807    0.1979486 -39.44 0.0003210727    1.197    0.165
       285 -10.6543    130.4906    128.4779   5.0177194318e+01   2.8921801846e+01    0.1583738    0.1507206 -51.17 8.295426e-05    1.008    0.008
       286 -12.3978     55.0237    127.9991   7.2104753331e+01   4.1641166558e+01    0.1878577     0.155502 -74.83 0.0004301386    1.059    0.056
       287 -13.1716     44.8195    127.6548   7.5242310464e+01   4.2943357607e+01    0.4348078    0.2168536  57.33  0.001364461    2.356    0.576
       288 -12.7340      5.6967    126.0947   8.7139677502e+01   4.6787758375e+01    0.2591169    0.1713321  73.98 0.0008257811    1.357    0.263
       289 -13.9018      6.2536    119.6931   8.6423850990e+01   4.8453200557e+01    0.6930292    0.3413728 -42.10   0.00315129    2.461    0.594
       290 -12.5583     74.7342    125.0685   6.5426365716e+01   3.9719655997e+01    0.2801986    0.2273202  31.33 0.0003308762    1.385    0.278
       291 -13.7065     19.8801    122.6148   8.2438379159e+01   4.6700816262e+01    0.5086923    0.2968564 -63.33  0.001478676    1.470    0.320
       292 -11.8589     23.8442    114.8177   8.0216391200e+01   4.8495067791e+01    0.3079928    0.2129827  69.13  0.001074634    1.472    0.321
       293 -12.7047     22.0004    117.7545   8.1192480824e+01   4.7847244062e+01    0.2700599    0.2152383  43.06 0.0003751214    1.402    0.287
       294 -13.3042     19.7559    115.2380   8.1621677808e+01   4.8709019820e+01    0.4117648    0.2961804 -74.26  0.001387956    1.132    0.117
       295 -11.7518    109.3508    122.8751   5.4595736473e+01   3.4397503673e+01    0.2742833     0.214472  56.09 0.0006621777    1.397    0.284
       296 -11.9034    189.0213    121.5532   3.5134706907e+01   1.8466823191e+01    0.2292266    0.1865457 -35.04 0.0002834646    1.093    0.085
       297 -12.4692    103.9437    121.3586   5.5793984673e+01   3.5789840144e+01    0.3492074     0.299994  78.44  0.001465553    1.282    0.220
       298 -12.8538    105.3734    113.9490   5.3564963518e+01   3.7412650513e+01    0.3831824    0.2366967  39.67  0.001034615    1.734    0.423
       299 -13.2562     98.6462    117.3598   5.6407240589e+01   3.7786316873e+01    0.6631855    0.3168768  42.99  0.001877692    2.217    0.549
       300 -13.1721    113.0220    110.5197   5.0449115334e+01   3.6787722316e+01    0.4735493    0.3340814  67.19  0.001426343    1.847    0.459
       301 -12.9274     63.4478    122.2148   6.8425020109e+01   4.2112453827e+01    0.3052925    0.2319328  82.21 0.0009822192    1.397    0.284
       302 -12.3074     64.2130    118.5712   6.7478881074e+01   4.2997476625e+01    0.2415116    0.1914621 -65.65 0.0005533692    1.123    0.109
       303 -12.1930     55.3448    121.6393   7.0919008253e+01   4.3333886722e+01    0.3291353    0.1546024  21.46   0.00123834    2.858    0.650
       304 -11.6037    200.5084    120.4686   3.2703461545e+01   1.6384596258e+01    0.1504066    0.1305945 -29.10 5.249767e-05    1.006    0.006
       305 -11.1338    179.3326    120.0341   3.6690742212e+01   2.0748674929e+01    0.2136689    0.1771858 -36.99 0.0003815785    1.090    0.082
       306 -12.7374     79.1297    119.8977   6.2987633958e+01   4.0429215504e+01    0.2448846    0.2058712  83.40 0.0007011819    1.250    0.200
       307 -13.1037     59.7447    125.2637   7.0156047725e+01   4.1779960334e+01    0.3099665    0.2569205  43.02  0.001640951    1.305    0.234
       308 -13.0236     72.3278    118.9486   6.4942280480e+01   4.1727718080e+01    0.4191458    0.2288922  60.83  0.001565327    2.528    0.604
       309 -13.3683     58.9286    115.8019   6.8669524549e+01   4.4466020787e+01    0.4322955     0.288766 -45.32  0.001403611    1.545    0.353
       310 -13.6121     62.5775    111.1229   6.6509311106e+01   4.5248831445e+01    0.6754473    0.3944267 -76.68   0.00279883    1.866    0.464
       311 -11.4612    196.9524    115.4865   3.2122880283e+01   1.8034606360e+01    0.2019469    0.1513902  45.45 0.0004614541    1.512    0.339
       312 -12.1103    120.3645    114.1478   4.9323899967e+01   3.4420752018e+01    0.2892209    0.2690456  33.53 0.0005286723    1.158    0.137
       313 -13.5866     82.8165    112.2683   6.0105422725e+01   4.1867708328e+01    0.6952392    0.2948395 -55.17  0.002498102    2.117    0.528
       314 -12.4832     90.2026    111.2304   5.7512440337e+01   4.0884952433e+01    0.3568989    0.2878586  84.30 0.0008997523    1.430    0.301
       315 -11.2527     92.2894    107.7140   5.5976591153e+01   4.1431880805e+01    0.2201938    0.1829337 -29.63 0.0001860075    1.339    0.253
       316 -13.1146     73.8814    109.5965   6.2395812177e+01   4.4008986284e+01    0.4104663    0.2607566 -76.79 0.0008122216    1.795    0.443
       317 -11.9906     52.6903    110.6299   6.9765167303e+01   4.6676295567e+01    0.2797913    0.2424241  51.83 0.0007644182    1.257    0.205
       318 -11.9930    220.0504    109.6758   2.6747571143e+01   1.4539672204e+01    0.1897536    0.1769029 -21.52  0.000355079    1.127    0.113
       319 -11.6712    161.8266    110.3580   3.7924994502e+01   2.6483862419e+01    0.2176263    0.1484277  35.28  0.000431074    1.682    0.405
       320 -11.5703    209.7656    108.8214   2.8208771908e+01   1.6697790151e+01    0.2766043    0.1601331 -34.17  0.001251993    1.497    0.332
       321 -11.8570    170.2817    109.0032   3.5720671261e+01   2.4931572225e+01    0.2079785    0.1303291 -40.09 0.0005696614    1.453    0.312
       322 -10.5796    155.6677    108.3139   3.8773661758e+01   2.8269101779e+01    0.1622174    0.1259738 -77.72 0.0007045462    1.681    0.405
       323 -10.7782    139.6732    107.3168   4.2368089557e+01   3.1983966971e+01    0.1645376    0.1280657 -81.95 0.0007045152    1.675    0.403
       324 -13.8590     10.1268    105.3568   8.3703004400e+01   5.2059655848e+01    0.4592243    0.3344172 -74.32  0.001679398    1.094    0.086
       325 -12.2638    229.4752    103.1969   2.3753795102e+01   1.3859654993e+01    0.2381785     0.204915 -34.33 0.0003031789    1.060    0.057
       326 -10.4990    116.2540    104.3273   4.7847649778e+01   3.7658278269e+01    0.1608478    0.1239864 -22.84 0.0002170022    1.551    0.355
       327 -12.2154      3.4788    103.4838   8.5792215376e+01   5.2947554512e+01     0.137178    0.1071322 -80.95 0.0001909275    1.010    0.010
       328 -12.5512     78.8945    101.5599   5.8773083955e+01   4.5347375256e+01    0.2965026    0.2768575 -87.50 0.0006439135    1.104    0.094
       329 -12.2321    192.9898    100.6338   2.9030207003e+01   2.1678677052e+01    0.3778026    0.1911851  47.52  0.001534962    2.230    0.552
       330 -13.0461     33.1755     98.1136   7.4358417530e+01   5.2234189512e+01    0.4996469    0.2751074 -41.52   0.00100576    1.960    0.490
       331 -12.9324    162.8078     99.4073   3.4706994592e+01   2.8582517585e+01    0.3202817    0.2560747 -54.00 0.0003139983    1.251    0.200
       332 -13.0553     92.9975     99.1693   5.3487262162e+01   4.3502513639e+01    0.4848813    0.2636619  43.51  0.001569243    1.990    0.497
       333 -11.2814    208.4816     99.5633   2.6087677119e+01   1.8623200401e+01    0.1491364    0.1283419 -33.69 0.0001245709    1.019    0.019
       334 -11.5737    219.4735    105.9829   2.5937581302e+01   1.5294002184e+01    0.2249608    0.1224802 -35.44 0.0003509544    1.537    0.349
       335 -12.8423    155.2791     96.8906   3.5674379563e+01   3.0815076824e+01    0.2990786     0.253109   4.18 0.0003966721    1.416    0.294
       336 -12.3106     76.3858     97.1092   5.8475387877e+01   4.6927878933e+01    0.2544421    0.2206817  13.29 0.0005488747    1.358    0.263
       337 -11.0477     57.6209     97.4284   6.5212872255e+01   4.9630834407e+01     0.251905    0.1453801  36.43 0.0009150052    1.911    0.477
       338 -11.3857     45.8313     97.4760   6.9544818123e+01   5.1083506849e+01    0.1930047    0.1521577  21.64 0.0009996718    1.510    0.338
       339 -12.7620     82.7461     95.7959   5.5946261588e+01   4.6201895117e+01    0.3455074    0.2387217 -21.29  0.001436217    2.005    0.501
       340 -12.2628     25.3244     97.4024   7.7148363458e+01   5.3122597765e+01    0.3841687    0.2503527 -45.39  0.001248855    1.536    0.349
       341 -12.6612     63.3078     92.6816   6.1975641732e+01   5.0107703802e+01    0.3036786    0.2221316  87.11  0.001164215    1.696    0.410
       342 -11.5756    105.7730     93.0180   4.7705616614e+01   4.2556877771e+01    0.2245444    0.1271382 -48.62  0.000575201    1.641    0.391
       343 -12.5695     78.5852     92.7130   5.6524284297e+01   4.7707902162e+01    0.2578722    0.1887764  62.53 0.0007329622    1.683    0.406
       344 -11.3752    249.7731     91.8290   1.8367599841e+01   1.1979506092e+01    0.1930239    0.1512054 -27.60  0.000467887    1.131    0.116
       345 -11.2276     41.3607     91.7238   7.0000820265e+01   5.3139809969e+01    0.2474653    0.1670865  44.02  0.000618179    1.686    0.407
       346 -11.0318    224.0342     90.7122   2.1478948564e+01   1.7009050637e+01     0.185788    0.1672276 -34.01 0.0002486804    1.092    0.084
       347 -11.7889    230.0190     89.9395   2.0455508867e+01   1.5959108158e+01    0.2088947    0.1734241 -33.98            0    1.040    0.038
       348 -10.7305    121.6349     90.2666   4.2223670973e+01   3.9854062516e+01     0.162782    0.1282448  89.06 0.0004602512    1.652    0.394
       349 -10.9292     22.8268     90.4146   7.6916253478e+01   5.5217128241e+01    0.1709399    0.1294901 -20.27 0.0003556866    1.612    0.380
       350 -11.8188    187.3734     89.1390   2.6941845897e+01   2.5074711815e+01    0.2251635    0.1258099 -45.59 0.0003690376    1.648    0.393
       351 -11.2287    125.6531     88.7283   4.0641094104e+01   3.9317357125e+01     0.370857    0.2493624  87.30  0.001348366    2.602    0.616
       352 -12.7632     71.4976     89.7207   5.8205937648e+01   4.9642213265e+01    0.3900011    0.1205102  40.13  0.001213075    3.462    0.711
       353 -12.6444    178.2239     87.0169   2.8043130985e+01   2.7551132659e+01    0.3032604    0.2646285 -54.83 0.0003899184    1.125    0.111
       354 -11.6901     97.5187     86.9578   4.8466049016e+01   4.5683073709e+01    0.2598824    0.1497552 -48.77 0.0006939218    1.604    0.377
       355 -12.4846     54.4086     85.7693   6.3539553437e+01   5.3164531888e+01    0.4481044    0.3804763 -26.94  0.002384398    1.285    0.222
       356 -12.1943     10.0144     86.8358   8.1349158855e+01   5.7046518350e+01     0.313235    0.2622159   6.12  0.001240812    1.508    0.337
       357 -12.1015    201.9924     85.9564   2.3583893053e+01   2.2423732724e+01    0.3100528    0.2253172  74.23  0.001300558    1.750    0.428
       358 -11.7870    159.6326     85.0520   3.1238863930e+01   3.2258665306e+01    0.2315076    0.1934407 -40.81  0.000450762    1.099    0.090
       359 -11.3718    125.7676     84.5157   3.9295879207e+01   4.0236120188e+01    0.3512742    0.2589508 -89.50  0.001453601    1.948    0.487
       360 -13.3662     62.5668     83.0130   5.9644481043e+01   5.2745142345e+01    0.6260404    0.4342991  -9.78  0.002753066    2.051    0.512
       361 -12.6216    112.4495     83.6019   4.2786177876e+01   4.3386493523e+01    0.4268152     0.278114  56.38  0.001771547    1.790    0.441
       362 -12.4161    113.0230     79.3152   4.1227402533e+01   4.4236074052e+01    0.4043574    0.2790958 -63.25  0.001358263    1.720    0.419
       363 -11.2667    133.1533     84.1440   3.7220718345e+01   3.8633964687e+01     0.223976    0.2122044 -19.51 0.0002573435    1.097    0.089
       364 -12.5767    182.4543     81.0233   2.5549401098e+01   2.7703530532e+01    0.3298661    0.2510706 -49.10 0.0003714162    1.228    0.186
       365 -11.8964    206.3450     80.9696   2.1570164084e+01   2.2348768083e+01    0.2154602    0.1632653 -36.92 0.0003214007    1.136    0.120
       366 -12.3523    187.4577     79.2101   2.4150465468e+01   2.6882253066e+01    0.3941945    0.2193403 -17.10  0.001412501    2.738    0.635
       367 -12.9729     78.4955     82.2669   5.3504324173e+01   5.0377081059e+01    0.3167046    0.2791086 -48.88 0.0004289569    1.029    0.028
       368 -11.7727     88.3126     78.8976   4.8983061527e+01   4.9414821968e+01    0.2690037    0.2239619  53.89  0.001315094    1.348    0.258
       369 -11.1890     51.7945     79.3556   6.2852152600e+01   5.5182603840e+01    0.2607807    0.2135454  84.19   0.00087286    1.436    0.304
       370 -10.7480     55.2959     77.7155   6.0980168587e+01   5.5139420342e+01    0.1933022    0.1287804  27.90 0.0004029128    1.723    0.420
       371 -11.2337     48.6683     76.5175   6.3339036970e+01   5.6314403727e+01    0.2262248    0.1867914 -64.42  0.001203871    1.129    0.115
       372 -11.4773      7.7173     78.3915   8.0997626331e+01   5.9416113225e+01    0.2612493    0.1146596 -55.94 0.0008350502    1.786    0.440
       373 -11.7830    161.5171     76.9683   2.8395182126e+01   3.3403069720e+01    0.2498105    0.1465861 -38.64 0.0006816486    1.562    0.360
       374 -11.9278     75.1554     75.4968   5.2587695449e+01   5.2624202470e+01    0.2891101    0.2031239 -50.86 0.0004939738    1.294    0.227
       375 -11.1608    215.0000     74.9948   1.8732927957e+01   2.1490298080e+01    0.2436268   0.07174131 -34.42 0.0007700039    2.871    0.652
       376 -11.9914     85.9607     75.0607   4.8535345028e+01   5.0775303538e+01    0.3293468    0.2145315 -40.19  0.000539892    1.466    0.318
       377 -12.2720    150.0268     83.0400   3.2764751528e+01   3.4928255663e+01    0.2504169    0.1976777   1.63 0.0003577389    1.657    0.397
       378 -11.8706      7.4796     73.5120   8.0303632335e+01   6.0711067202e+01    0.2415423     0.109407 -72.33  0.001089117    1.763    0.433
       379 -10.9601     11.0300     71.5549   7.8405475254e+01   6.1029521089e+01    0.2233549    0.1349774   2.60  0.001139608    2.116    0.527
       380 -11.6039    155.8093     73.6065   2.8550877233e+01   3.5422356597e+01    0.2154238    0.1548737  71.40   0.00062531    1.661    0.398
       381 -11.4996    105.6355     72.5321   4.1173098885e+01   4.7355284707e+01    0.2982505    0.2423747 -36.07  0.001232036    1.181    0.153
       382 -11.1507     51.1938     73.1908   6.1335437546e+01   5.6842255713e+01    0.2014652    0.1649117 -77.14 0.0004987502    1.325    0.245
       383 -12.3491      1.8393     72.6599   8.2602345602e+01   6.1198153392e+01     0.335705    0.1633104 -45.68  0.001635372    1.868    0.465
       384 -11.5978      1.8671     68.7953   8.1988131233e+01   6.2200356517e+01    0.2090616    0.1620654 -66.69  0.000808578    1.005    0.005
       385 -10.7334    236.2638     69.3583   1.4613667929e+01   1.7999217542e+01    0.1320004   0.09971929  -9.58 0.0002609133    1.631    0.387
       386 -13.5131     97.8590     66.9948   4.1690318311e+01   5.0229392541e+01    0.4271237     0.357429  24.67   0.00166553    1.333    0.250
       387 -12.2668     52.9876     68.4556   5.9129276333e+01   5.7789445271e+01    0.2712409    0.1992816 -70.21 0.0006211645    1.482    0.325
       388 -10.9021     64.4869     68.4724   5.4389362658e+01   5.6090524554e+01    0.1533675    0.1361746 -41.87 9.653244e-05    1.014    0.014
       389 -12.1020    241.9742     66.9640   1.3392382329e+01   1.7239129020e+01    0.2035841    0.1635289 -39.91 0.0003560385    1.032    0.031
       390 -11.1148     86.4303     67.5009   4.5754206825e+01   5.2435388812e+01    0.1567751    0.1437779 -51.08  8.04926e-05    1.078    0.072
       391 -11.8571     60.0605     67.0035   5.5697461009e+01   5.7128678917e+01    0.2312474    0.1998671 -40.76 0.0003852416    1.042    0.040
       392 -10.7378    203.4345     66.4998   1.8083014397e+01   2.5426588190e+01    0.1487417    0.1282377 -41.48  2.62729e-05    1.029    0.028
       393 -11.7993    198.9755     65.5915   1.8477111658e+01   2.6589002556e+01    0.2428872    0.1880434 -28.91 0.0004277026    1.248    0.199
       394 -11.8432    178.7043     64.2892   2.1305023610e+01   3.1574618575e+01    0.2611505    0.2375879 -29.41   0.00026578    1.115    0.103
       395 -12.1042     10.0650     63.1607   7.7191381860e+01   6.3253683376e+01     0.221664    0.1678584 -30.89  0.000671712    1.384    0.277
       396 -13.2644     41.3834     60.1461   6.1579511187e+01   6.1310186157e+01    0.7019196     0.313509  48.78  0.002542029    3.511    0.715
       397 -11.9574    109.1930     60.0660   3.5618639914e+01   4.9190752927e+01    0.2654372    0.2358627  50.51 0.0007846884    1.191    0.161
       398 -12.9618    193.2278     57.0894   1.6905794028e+01   2.9301939120e+01    0.3514092    0.2847376  -7.72 0.0008843205    1.495    0.331
       399 -10.7340     58.1437     58.3958   5.3481024446e+01   5.9456433050e+01    0.1826718    0.1392998  47.31 0.0003582592    1.558    0.358
       400 -11.7403    159.8974     57.1958   2.2472377388e+01   3.7400814288e+01    0.2422562    0.1983975 -62.30 0.0005826953    1.247    0.198
       401 -11.1728    120.7428     56.9696   3.1227180041e+01   4.7094617329e+01    0.2054961      0.13123 -36.15 0.0003072591    1.502    0.334
       402 -11.6708     18.0087     56.9157   7.1866905637e+01   6.4328683920e+01    0.2062209    0.1792984 -70.39  0.001263308    1.157    0.136
       403 -12.3495    110.3021     54.8437   3.3323064310e+01   4.9954764459e+01    0.2566705     0.193264 -51.68  0.001194626    1.382    0.276
       404 -10.5369     65.7664     55.2364   4.9067235148e+01   5.8945303780e+01    0.1276731    0.1129358 -76.39  0.000661769    1.374    0.272
       405 -11.4821    126.5233     53.7091   2.8537726503e+01   4.6298079075e+01     0.225324    0.1394038 -46.54 0.0009423832    1.614    0.381
       406 -13.7444     31.0929     50.0173   6.3161025723e+01   6.4873955734e+01    0.3826653    0.3164892  55.90  0.001131756    1.568    0.362
       407 -10.8565    222.9773     49.7843   1.1175125796e+01   2.3679812382e+01    0.1583339    0.1123509  71.49 0.0003425235    1.613    0.380
       408 -11.2999    132.6232     49.1901   2.5416187289e+01   4.5583311345e+01    0.2242735    0.1460813 -21.66 0.0009475602    1.730    0.422
       409 -11.5399    102.9497     49.7394   3.3504276372e+01   5.2601397183e+01    0.1881643     0.133452  47.75 0.0003025662    1.464    0.317
       410 -12.2922     19.3436     47.2009   6.8367445725e+01   6.6602612799e+01    0.5677568    0.1283948 -54.48  0.002018298    2.885    0.653
       411 -12.1330     40.8579     47.1526   5.7197702897e+01   6.4426599010e+01    0.2061589    0.1890202 -62.86 0.0007394466    1.236    0.191
       412 -11.1419     95.3264     45.3111   3.4074117167e+01   5.5124674981e+01    0.1556838    0.1166799   8.70  0.000704054    1.661    0.398
       413 -11.0540    158.7775     42.1915   1.7720287549e+01   4.0095615837e+01    0.2771682    0.1390143 -61.55 0.0009595402    2.856    0.650
       414 -11.2301    103.4968     40.9616   2.9745012376e+01   5.4027432478e+01    0.2365419    0.1455981 -30.69  0.001031143    1.607    0.378
       415 -13.6094     36.8113     40.1623   5.6436413837e+01   6.6473117479e+01     0.362317    0.2981152  10.77  0.001226368    1.307    0.235
       416 -13.3629     24.5702     37.9243   6.2199386348e+01   6.8295991082e+01    0.5518658    0.3521183 -18.53  0.002883942    1.724    0.420
       417 -11.7855    241.9062     40.0948   6.9300303533e+00   2.1075762471e+01    0.1984198    0.1529351 -47.07 0.0003570213    1.012    0.012
       418 -11.8638    138.9692     38.6817   2.0187440947e+01   4.5663504799e+01    0.2075412     0.194006  71.74 0.0003983226    1.088    0.081
       419 -10.4417     78.2893     37.3005   3.6448911629e+01   6.0185159147e+01    0.1464512    0.1097397   2.69 0.0005272913    1.562    0.360
       420 -13.2680     31.3860     32.5777   5.6074848025e+01   6.8730816465e+01    0.3758746    0.2982185   1.91  0.002168773    1.310    0.237
       421 -11.4242     67.8441     33.7778   3.8869056045e+01   6.2862754916e+01    0.2026228    0.1768596   0.58 0.0002765263    1.105    0.095
       422 -11.7045    106.5063     32.4628   2.5292886203e+01   5.4664679364e+01    0.3049902    0.1422305 -31.23  0.001192973    2.104    0.525
       423 -12.4326     44.6249     32.1596   4.8755258392e+01   6.7078867918e+01     0.390236    0.1990035 -24.60  0.001572755    2.575    0.612
       424 -12.8868     78.2447     31.1737   3.3590349084e+01   6.1234565695e+01    0.2929284    0.2431275  76.69  0.001536219    1.617    0.382
       425 -12.6965     58.7841     26.1363   3.8912946155e+01   6.5854795763e+01     0.278385    0.2191641 -31.81 0.0004599683    1.196    0.164
       426 -12.6022     87.7603     25.3790   2.7560584712e+01   6.0060567202e+01    0.3180508    0.2387831  16.39  0.001310433    1.469    0.319
       427 -11.8866     84.0075     23.5066   2.7863060939e+01   6.1163279088e+01    0.2348172    0.1948839 -50.86 0.0009379359    1.393    0.282
       428 -11.5092    209.0931     30.5306   7.5276466279e+00   2.9434709924e+01    0.1918746    0.1319102  77.39 0.0004878142    1.553    0.356
       429 -12.2037     45.5876     25.9164   4.5109999651e+01   6.8105481503e+01    0.2398211    0.1978224  37.55 0.0006901755    1.393    0.282
       430 -12.0630      4.6267     24.9790   6.9441759304e+01   7.2682299986e+01    0.2710097    0.1593119 -51.31 0.0006551876    1.307    0.235
       431 -12.0993     67.5187     24.9983   3.4621112073e+01   6.4392734277e+01    0.2141409    0.1300355 -31.22 0.0007843043    1.565    0.361
       432 -11.6741    166.5673     22.9806   1.0159852503e+01   4.0732642066e+01    0.3015033    0.1911947 -53.24  0.001438806    1.545    0.353
       433 -12.0577     81.1430     19.3188   2.6712299343e+01   6.2370291107e+01    0.2585963    0.1931845 -33.54 0.0005731136    1.350    0.259
       434 -10.6856     46.3059     19.6935   4.1349012352e+01   6.9065158840e+01    0.1206498    0.1078381 -66.22 0.0002905703    1.606    0.377
       435 -11.0329    131.4711     17.9557   1.3760705464e+01   5.0329370582e+01    0.2070344    0.1412649 -22.77 0.0006518795    1.522    0.343
       436 -12.6549     99.0293    248.6719   7.5867339861e+01   8.7170123960e+00    0.2989171    0.2130743 -26.55  0.001141522    2.172    0.540
       437 -10.3469     31.2849     16.3085   4.7721686716e+01   7.1866828529e+01    0.1326015   0.08704741 -14.18 0.0002822817    1.569    0.363
       438 -13.5149     69.7914    247.2692   8.1333690820e+01   1.2562612938e+01    0.3878443    0.2271986  52.87  0.001825233    1.391    0.281
       439 -11.1611     61.9174    248.5829   8.2906503563e+01   1.3262860452e+01    0.2682737    0.1481033 -33.86  0.001173571    5.050    0.802
       440  99.0000     31.7687    238.9304   8.8006112837e+01   1.8335105782e+01    0.3636194    0.1374101  52.02  0.001973778    1.972    0.493
       441 -12.1431     45.5175    240.8389   8.5522800332e+01   1.6503287658e+01    0.7836143    0.3189109  31.32  0.004086442    2.328    0.570
       442 -13.5344     38.0146    247.2930   8.7259470661e+01   1.6158444439e+01    0.3719587    0.1749524  44.38  0.002281665    1.563    0.360
       443 -13.0959     34.4050    245.1639   8.7816559093e+01   1.6921554776e+01    0.3729682    0.1636036  31.79  0.001862178    2.143    0.533
       444 -11.6385    153.0970    246.3731   6.5298818861e+01   2.0217572339e+00    0.1638049    0.1398249  -2.04 0.0004094154    1.219    0.180
       445 -10.5050     80.3033    246.2882   7.9256942434e+01   1.1457927901e+01   0.09962933    0.0854423   5.28 0.0002714632    1.565    0.361
