#   1 NUMBER                 Running object number                                     
#   2 MAG_AUTO               Kron-like elliptical aperture magnitude                    [mag]
#   3 X_IMAGE                Object position along x                                    [pixel]
#   4 Y_IMAGE                Object position along y                                    [pixel]
#   5 X_WORLD                Barycenter position along world x axis                     [deg]
#   6 Y_WORLD                Barycenter position along world y axis                     [deg]
#   7 A_WORLD                Profile RMS along major axis (world units)                 [deg]
#   8 B_WORLD                Profile RMS along minor axis (world units)                 [deg]
#   9 THETA_WORLD            Position angle (CCW/world-x)                               [deg]
#  10 FWHM_WORLD             FWHM assuming a gaussian core                              [deg]
#  11 ELONGATION             A_IMAGE/B_IMAGE                                           
#  12 ELLIPTICITY            1 - B_IMAGE/A_IMAGE                                       
         1 -14.8781    230.1467      7.8082   2.1269423896e+01   2.8886523681e+01     4.607594     2.076253  57.98   0.02066128    2.769    0.639
         2 -16.6794    198.0929     70.2451   3.8284975152e+01   2.7399670541e+01     7.684896     5.059652  41.55   0.03968204    1.976    0.494
         3 -17.9294    245.1272     87.0673   3.6306493955e+01   1.5968445644e+01     7.050891     4.880556 -18.97   0.02707381    1.822    0.451
         4 -16.9434    246.4579     63.8743   3.1446329494e+01   1.9065266681e+01     4.013682     1.572065 -52.38   0.01407096    2.353    0.575
         5 -10.4087    151.1904     19.4683   3.1081672356e+01   4.4707274331e+01    0.3259521    0.2162231  -1.41  0.001222134    2.237    0.553
         6  -9.9677    115.7714     12.4430   3.4216814399e+01   5.3816444802e+01    0.3018929    0.1956789  61.42  0.001654758    1.353    0.261
         7 -11.3344    120.2830      8.8486   3.2189852962e+01   5.3072775773e+01    0.3860298    0.3457503  77.97  0.001308017    1.032    0.031
         8 -11.1417    208.9876      8.9404   2.2838603163e+01   3.2954950004e+01    0.2033335    0.1918922 -72.30 0.0004895835    1.272    0.214
         9  -8.3009    172.2972      2.6846   2.4166114559e+01   4.1468016459e+01    0.1280433   0.07515996 -63.28 0.0003889117    1.607    0.378
        10  -8.5633     74.8027    224.1776   9.7381099065e+01   1.7018401321e+01    0.1619817     0.144931  -1.04 0.0002708702    1.289    0.224
        11 -10.0580    187.1526    250.6273   7.6612275473e+01  -2.1983363361e+00    0.1899206   0.09468628  25.88  0.001044818    1.744    0.427
        12  -9.1431    153.5006    249.9515   8.3164664567e+01   1.9933387041e+00    0.1851244    0.1361499  21.85 0.0003624584    1.138    0.121
        13  -9.1931    238.3995    223.1846   6.3170345938e+01  -4.1037335406e+00    0.1856016    0.1252035   2.61 0.0004790686    1.294    0.227
        14  -8.8194    146.7284    220.0712   8.0336719704e+01   8.0550025347e+00    0.1733306    0.1530885 -13.10 0.0001716043    1.101    0.092
        15  -8.4830    237.6070    218.2968   6.2492160547e+01  -3.3348573672e+00   0.09494559    0.0940157  -0.81 0.0007008082    1.794    0.443
        16  -8.3823    213.2277    215.3586   6.6205944757e+01  -5.3300443731e-02    0.1543679    0.1049192  34.03  0.000407808    1.662    0.398
        17  -9.7356    239.9145    212.8539   6.1200012852e+01  -2.8196081029e+00    0.2220465    0.1755651  17.27   0.00091026    1.376    0.273
        18  -9.6208    234.1096    211.6423   6.1950405090e+01  -1.9865645286e+00    0.2012464    0.1416946 -32.76   0.00132204    1.325    0.245
        19  -9.7898      7.0643    204.5713   1.1173529922e+02   2.8590501778e+01     0.207852    0.1580069 -80.56 0.0004887796    1.246    0.197
        20 -11.4778    192.5526    194.2054   6.6371155865e+01   6.1915094394e+00    0.9960768     0.526625 -61.33  0.003384384    5.053    0.802
        21 -10.8877    241.4731    195.8684   5.8009620365e+01  -5.2056615498e-01    0.6503954    0.3734255  10.52  0.003636666    2.067    0.516
        22  -8.2809    249.6407    195.7489   5.6710132483e+01  -1.4559173977e+00    0.1170594   0.07322716  -6.56 0.0003412646    1.610    0.379
        23 -10.5123    247.2523    247.4418   6.5568114985e+01  -8.1611809902e+00    0.2000786    0.1182171 -25.99  0.001018455    1.379    0.275
        24  -9.7348    155.1470    245.5173   8.2228863095e+01   2.4990233335e+00    0.1939937    0.1616622 -25.97 0.0002603246    1.259    0.206
        25 -11.2037    215.0822    168.7418   5.7358387540e+01   7.3498138626e+00    0.5165529    0.4298614 -72.96   0.00135255    1.886    0.470
        26 -11.5836    185.7538    166.7563   6.2438214239e+01   1.2285035652e+01     0.589887     0.372794 -47.06  0.002925465    1.581    0.367
        27  -9.5697    157.1707    167.8272   6.8751952044e+01   1.6872060288e+01    0.2288521    0.2128626 -26.73 0.0003147927    1.053    0.050
        28  -8.9581     10.5955    188.9604   1.0995512291e+02   3.1981933772e+01    0.1793985    0.1524618  53.53 0.0001496501    1.139    0.122
        29  -9.4772    207.4071    161.9281   5.7360251908e+01   9.7102672246e+00    0.2096938    0.1782566  10.52 0.0004672872    1.222    0.181
        30  -8.7912    182.2813    159.6140   6.1671105911e+01   1.4240760209e+01    0.2001163    0.1690809 -87.84 0.0006044585    1.733    0.423
        31  -8.5910    100.7411    160.2238   8.1530006585e+01   2.8238704560e+01    0.1977235    0.1703442 -17.37 0.0003609251    1.282    0.220
        32  -9.7190    160.3163    158.8981   6.6203213579e+01   1.8196747870e+01    0.2769094    0.2146572  22.88 0.0007289935    1.366    0.268
        33 -13.8869     17.5259    135.3783   1.0323174976e+02   4.5158226750e+01     1.636739     1.170044 -54.83  0.005440006    1.308    0.235
        34 -12.8690      3.6333    132.4779   1.0745092533e+02   4.6868128059e+01     2.592463    0.5402279 -79.26  0.007219119    4.976    0.799
        35  -9.0247    156.7375    154.6353   6.6108045110e+01   1.9734811970e+01    0.1926656    0.1383187  47.04 0.0003877939    1.545    0.353
        36  -9.4423    160.2600    151.3965   6.4613575613e+01   1.9782781980e+01    0.1948738    0.1408097  48.54 0.0005810029    1.560    0.359
        37 -11.2944    133.5845    144.3697   6.9437345241e+01   2.6257795134e+01     1.289305    0.3627616 -54.79  0.003186914    5.177    0.807
        38  -9.2981    131.6641    135.3225   6.7864427882e+01   2.8689714515e+01    0.2484444     0.193369  68.34  0.001112042    1.643    0.391
        39 -10.6659    150.3264    148.4556   6.6250410891e+01   2.2233684828e+01    0.4423254    0.2459928 -37.39  0.001847065    1.822    0.451
        40 -10.7117    146.3794    148.5786   6.7213391090e+01   2.2936479985e+01    0.5788075    0.2729844 -59.95  0.001920883    3.210    0.688
        41 -10.9449    142.9655    143.6506   6.6942153750e+01   2.4663027376e+01    0.7051144    0.3020949 -58.96  0.002153469    3.667    0.727
        42 -14.4618     57.1662    127.4536   8.8625634837e+01   4.3185880908e+01     2.957708     1.479786  23.73  0.007110443    2.263    0.558
        43 -12.1883     67.3133    143.4508   8.8312207455e+01   3.7607910682e+01     1.261886      0.88963  70.69  0.004197407    1.745    0.427
        44 -12.0026    159.3840    142.4429   6.2829973971e+01   2.1832935785e+01    0.5601155    0.4464986 -82.76  0.002722095    1.754    0.430
        45 -14.8410    234.3070    102.5475   4.0795425126e+01   1.5421695468e+01     1.220902    0.3667158 -49.84  0.004122527    4.031    0.752
        46 -10.6812    112.1874    121.1245   6.9722938080e+01   3.5741270122e+01    0.4977199    0.2539218 -56.10  0.001866034    2.128    0.530
        47  -9.1188     95.0378    119.4823   7.4428488207e+01   3.9324766789e+01    0.2372277    0.2095738 -50.68 0.0005064774    1.096    0.088
        48 -12.1952     45.3011    129.6471   9.3068860302e+01   4.4051666538e+01    0.5635197    0.4649414  17.32 0.0008845576    1.345    0.256
        49 -10.0945     72.1341    107.9427   7.9111368459e+01   4.6054553495e+01     0.227101    0.2174058  20.34 0.0002887094    1.088    0.081
        50 -10.6222    226.5676    247.4748   6.9004106148e+01  -6.1167889123e+00    0.2368707    0.1322424 -40.74  0.001456439    2.019    0.505
        51  -9.3432    181.3441    183.8775   6.6689146072e+01   9.7404918058e+00    0.4017356    0.1224061 -46.99  0.001379908    3.373    0.704
        52  -9.8968    127.3442     84.5739   5.5557577091e+01   4.0542409061e+01    0.2921817    0.1849758 -37.83 0.0007449149    1.585    0.369
        53 -10.9736    200.0304    174.6774   6.1244579856e+01   8.5638997668e+00    0.5899191    0.3969374   0.00  0.002385461    1.778    0.438
        54 -10.6874    195.1127    171.6337   6.1580943672e+01   9.8748398968e+00    0.3865522     0.286982 -48.51  0.001540538    1.450    0.310
        55 -10.0268    207.9077    172.0543   5.9279232043e+01   7.8408921115e+00     0.330037    0.2422991 -69.80   0.00165556    2.434    0.589
        56  -8.8076     72.9165     58.6777   6.3694465063e+01   5.6870031496e+01    0.1928379    0.1789023  23.04  0.000467512    1.064    0.060
        57  -8.7116    110.3255     58.3097   5.1664999869e+01   4.9130755403e+01    0.1481704    0.1117547  17.67 0.0007038791    1.656    0.396
        58  -8.9574    156.4460    241.0547   8.1342309589e+01   3.0630902103e+00    0.1646925    0.1174552 -39.44 0.0003602125    1.509    0.338
        59  -9.3079    110.1210     54.8401   5.0532822894e+01   4.9747572749e+01    0.2087758    0.1892778 -73.47 0.0006799753    1.217    0.178
        60 -10.6856    159.0890     38.7082   3.5557879043e+01   4.0597025993e+01    0.3901847    0.2010253 -21.72  0.001687318    2.536    0.606
        61  -9.9849    106.3150     38.9252   4.5868356496e+01   5.2997312894e+01    0.1895451    0.1787052  -8.25 0.0005799086    1.122    0.109
        62  -8.5485    173.0219    188.0207   6.9196790237e+01   1.0240933406e+01    0.1911112    0.1693048  73.97 0.0005153045    1.626    0.385
        63 -10.3212    175.3672    172.7570   6.5769321259e+01   1.2823787900e+01    0.2550547    0.1647499 -50.97 0.0008621549    1.673    0.402
        64 -10.4990    144.1299     32.9634   3.6179445222e+01   4.4844921396e+01     0.272723    0.1859381  -5.33  0.001350145    2.086    0.521
        65 -10.4673    177.5981    169.8039   6.4714457232e+01   1.3035359371e+01    0.2473227    0.1699568 -47.54 0.0007254471    1.476    0.322
        66  -9.1866    107.5822     23.2726   3.9788568954e+01   5.4643388917e+01    0.1789077    0.1299928  -6.33  0.000957699    1.676    0.403
        67 -10.1098    234.0042    239.5782   6.6527736202e+01  -5.8519583647e+00    0.2090723    0.1146586 -15.59  0.001265721    1.652    0.395
        68  -9.8370    184.0130    239.0524   7.5513894058e+01  -9.9059577873e-02    0.1737243    0.1448788  46.01   0.00113127    1.709    0.415
        69 -10.1975    123.2485    232.7090   8.7318340377e+01   8.9338617488e+00    0.2236432    0.2149708  -5.88  0.000485101    1.130    0.115
        70  -9.1273    217.4797    225.0502   6.7057042563e+01  -2.0185657348e+00    0.1744347    0.1006369 -34.12 0.0006805563    1.566    0.361
