#   1 NUMBER                 Running object number                                     
#   2 MAG_AUTO               Kron-like elliptical aperture magnitude                    [mag]
#   3 X_IMAGE                Object position along x                                    [pixel]
#   4 Y_IMAGE                Object position along y                                    [pixel]
#   5 X_WORLD                Barycenter position along world x axis                     [deg]
#   6 Y_WORLD                Barycenter position along world y axis                     [deg]
#   7 A_WORLD                Profile RMS along major axis (world units)                 [deg]
#   8 B_WORLD                Profile RMS along minor axis (world units)                 [deg]
#   9 THETA_WORLD            Position angle (CCW/world-x)                               [deg]
#  10 FWHM_WORLD             FWHM assuming a gaussian core                              [deg]
#  11 ELONGATION             A_IMAGE/B_IMAGE                                           
#  12 ELLIPTICITY            1 - B_IMAGE/A_IMAGE                                       
         1 -12.6351    200.0961     46.9246   1.2335177674e+01   3.0940894116e+01    0.8557585    0.6181482 -58.48  0.003144289    1.121    0.108
         2 -12.9752    208.6670     38.8116   9.9536636100e+00   3.0376674138e+01    0.6418902    0.6062049  85.58  0.001953561    1.366    0.268
         3 -12.6001    234.7471     13.5601   3.5951777839e+00   2.8709775879e+01    0.7153828    0.5005482 -57.12  0.004215212    1.028    0.028
         4  -7.8053    108.2578     14.6652   1.4781745475e+01   5.4368182256e+01    0.1277814   0.08530059 -66.66 0.0002627691    1.572    0.364
         5 -12.2891    244.4396    246.7918   4.1754047807e+01  -3.3896844696e+00    0.8673242    0.4186239   0.96  0.005672022    2.110    0.526
         6 -12.1359    215.0049    245.2884   4.6107403990e+01  -9.5434749033e-01    0.6869925    0.3744114 -14.92  0.004500018    1.566    0.361
         7 -12.6807    226.4662    240.5415   4.3599528157e+01  -1.2456124151e+00    0.6319141    0.4760004 -19.85  0.005085743    1.211    0.174
         8 -11.2949    153.8060    213.4028   5.2895181453e+01   1.0118863955e+01    0.4416055     0.267779  22.19  0.002093345    1.550    0.355
         9  -9.2138    158.3144    212.3229   5.1772887432e+01   9.7826813090e+00    0.1940264    0.1511186 -27.03 0.0009043103    1.162    0.139
        10  -8.5226    189.3215    207.3121   4.4895312327e+01   7.1129142487e+00    0.1263122   0.07660587 -14.30  0.000346497    1.652    0.395
        11 -16.9839      5.7872    242.8369   9.2545070795e+01   1.9705215610e+01     3.032815     1.521712  -0.78    0.0087148    2.599    0.615
        12  -9.9239    191.6104    192.9055   4.2130419709e+01   9.2241840502e+00    0.4560346    0.2421555 -62.06  0.001635347    5.480    0.818
        13 -14.8165     12.7987    246.8175   9.1012547185e+01   1.8335996765e+01    0.5810782     0.290689  62.40  0.002550716    2.054    0.513
        14 -10.0663    206.4844    196.0179   4.0077925310e+01   7.0477101673e+00    0.1798372   0.09448568 -38.35 0.0008247143    1.579    0.367
        15 -11.4948    127.5151    192.0298   5.5475024538e+01   1.7617396847e+01    0.5214846    0.3116608 -68.20   0.00225587    2.617    0.618
        16  -9.0622    177.6058    190.8049   4.4373559028e+01   1.1268159616e+01    0.2059283    0.1535287   2.37 0.0007740483    1.307    0.235
        17 -10.5741    218.1264    186.0038   3.6570741682e+01   7.3388004084e+00    0.2371454    0.1588727 -33.32  0.001587101    1.180    0.153
        18  -7.8526     84.6917    186.7773   6.6000440473e+01   2.4609774020e+01    0.1416617    0.1056994  -8.05            0    1.475    0.322
        19  -9.3689    122.3912    181.7916   5.5014448156e+01   2.0505564034e+01    0.2080534    0.1220705 -39.96 0.0009535705    1.702    0.412
        20 -10.6655    239.6334    178.2203   3.2194294383e+01   6.2334060316e+00    0.2109355     0.107802 -32.94  0.001311375    1.507    0.336
        21 -11.2760    104.3434    173.0697   5.8250554283e+01   2.5089686038e+01     2.180333    0.2416426  35.09  0.005056195    6.153    0.837
        22 -10.6739    244.4198    171.1449   3.0419266960e+01   6.7556537870e+00     0.465316    0.1990845  18.82  0.001865963    6.178    0.838
        23 -10.7297     69.3611    168.7535   6.7871457976e+01   3.1087261431e+01    0.4412004    0.2928801 -18.61  0.001922256    1.875    0.467
        24 -10.9103     73.6576    164.3594   6.5821979075e+01   3.1625152810e+01    0.4104399    0.3064641  -9.73  0.001362844    1.538    0.350
        25  -9.1547    110.7216    168.3460   5.5669603668e+01   2.5221707879e+01    0.2094815     0.206165  63.42 0.0005010958    1.153    0.133
        26 -10.1927    110.4921    171.9999   5.6389614445e+01   2.4422698654e+01    0.3977478    0.3173161 -16.54  0.001314153    1.312    0.238
        27  -8.4385    101.7066    164.3297   5.7425288566e+01   2.7529554048e+01    0.2198149    0.1648711  64.15 0.0005899302    1.753    0.429
        28 -10.1700     81.9045    157.0613   6.1985805845e+01   3.2288618543e+01    0.4586514    0.2564373 -47.02  0.001052653    1.814    0.449
        29  -8.6629     33.9127    156.5589   7.7983030804e+01   3.8483501962e+01    0.2251555    0.2005302 -74.47 0.0006758886    1.142    0.125
        30 -12.4048     70.2840    151.3077   6.4687565997e+01   3.5442318136e+01    0.4443158    0.4259081 -33.85 0.0007343818    1.055    0.052
        31 -13.3189     69.7060    144.5816   6.3658958302e+01   3.7264080887e+01     1.970294     1.108215  72.82  0.001573225    3.562    0.719
        32 -10.4486     88.8524    150.5528   5.8624210063e+01   3.2847784316e+01    0.6240277    0.4049801 -15.17   0.00203061    2.146    0.534
        33 -10.2967     54.2813    147.0305   6.9417027783e+01   3.8734101283e+01    0.3256172    0.2776027 -88.41  0.001106797    1.293    0.226
        34  -9.4742    134.2979    148.0001   4.5664061703e+01   2.5934116561e+01    0.5998749    0.1354241 -52.69  0.001468347    5.943    0.832
        35 -15.6421     40.2166    192.1833   7.9871328632e+01   2.8492226661e+01     14.41651     2.815027  38.02   0.02161002    3.890    0.743
        36  -9.3722    103.1938    136.8482   5.1521097977e+01   3.3773609806e+01    0.5046582    0.2868702 -21.14  0.001733726    3.164    0.684
        37 -11.0008     90.2927    136.4180   5.5314568364e+01   3.6081260921e+01    0.2878071    0.2684247 -26.78 0.0003874312    1.077    0.072
        38 -10.0485     44.3554    130.7454   7.0293977193e+01   4.4348872665e+01    0.3640134    0.2450398 -63.82  0.001199003    1.499    0.333
        39  -9.7236     67.4276    126.9258   6.0944632347e+01   4.2158896740e+01    0.6369808    0.3596084  60.35  0.002299522    2.677    0.626
        40  -9.0162    111.7630    128.9630   4.7342826004e+01   3.4058195810e+01    0.2579272    0.2138759  27.19 0.0008683715    1.240    0.194
        41  -9.9517     98.8926    124.5301   5.0028965150e+01   3.7413563384e+01    0.3044303    0.2584071   2.10 0.0007481682    1.319    0.242
        42 -11.0208      4.1296    119.5290   8.5098658002e+01   5.1066675507e+01    0.8464871    0.3658665 -51.03   0.00338971    2.132    0.531
        43  -8.0932    169.7947    122.6154   3.2799957507e+01   2.4830426894e+01    0.1589418    0.1270996  60.72 0.0002622062    1.472    0.321
        44  -7.9629    183.0057    121.0361   3.0192145139e+01   2.2871148688e+01     0.154054    0.1296196 -42.02            0    1.036    0.035
        45 -10.0897     33.2971    119.5964   7.2754994219e+01   4.8637194329e+01     0.438087     0.250975 -10.79  0.001230374    2.306    0.566
        46  -8.7657    107.9732    118.2654   4.5897850417e+01   3.7154715897e+01    0.2020182    0.1866999  35.98 0.0002807934    1.081    0.075
        47 -10.7094     53.6958    112.6901   6.3028930755e+01   4.7877928226e+01    0.4571061    0.2737456 -59.08  0.001936622    1.701    0.412
        48  -8.1796     97.3734    110.2190   4.7020390397e+01   4.0972953044e+01     0.149522    0.1156954  11.16 0.0003241961    1.589    0.371
        49 -11.3774    248.9342    233.7110   3.9290422275e+01  -2.0915871704e+00    0.3452818    0.1447299 -39.12  0.002191076    1.945    0.486
        50  -9.2101    114.0207    109.4957   4.2075432365e+01   3.7889661185e+01    0.2343447    0.1447629  43.61  0.001044165    1.624    0.384
        51  -8.6115     18.3629    108.1461   7.7286746779e+01   5.3176633220e+01    0.3153962    0.1640451  35.56  0.001319626    1.933    0.483
        52  -9.8535     41.7802    104.6930   6.6187772269e+01   5.1582255460e+01    0.4482302     0.202473  43.11  0.001646001    2.390    0.582
        53  -8.1926    117.3253    124.3159   4.4769341913e+01   3.4062866292e+01    0.1516816    0.1165224  -8.33 0.0004191142    1.670    0.401
        54  -9.0652     21.0150    105.4762   7.5624653917e+01   5.3663934141e+01    0.2108125    0.1943946   0.22 0.0005184093    1.073    0.068
        55 -10.0059     34.2557    100.8371   6.8667961230e+01   5.3514362797e+01    0.2945002    0.1850242 -42.12  0.001094972    1.610    0.379
        56  -7.7364    105.7135     94.7243   4.0497413537e+01   4.2646941427e+01    0.1410608    0.1171646   3.50 0.0001927784    1.511    0.338
        57  -9.0467     71.9141     91.9746   5.0694731536e+01   4.9909520011e+01    0.2256214    0.2155756  23.55 0.0003606802    1.016    0.015
        58 -15.4346      6.9682    229.6283   9.1716923272e+01   2.2462381906e+01    0.9954119    0.7600085 -36.66  0.003709648    1.592    0.372
        59  -8.1734    159.2897     84.7040   2.6064469461e+01   3.3402309129e+01    0.1325826   0.09564398 -71.47 0.0002217278    1.554    0.356
        60  -8.2736    123.4656     78.4510   3.1486059797e+01   4.1983058936e+01    0.1387953    0.1331455  84.57 9.878857e-05    1.025    0.024
        61  -9.1697    163.6357     63.9154   2.0357425935e+01   3.5753587023e+01    0.2514531    0.1722593  72.31 0.0003733559    1.501    0.334
        62 -12.4870    188.1386     55.6090   1.5379933173e+01   3.2056587501e+01    0.6233954    0.5672713  48.71 0.0008554785    1.435    0.303
        63 -14.8234     55.5258    183.0208   7.4173392142e+01   2.9162373915e+01     10.84344     5.446239  85.11   0.01956146    3.477    0.712
        64 -15.2788      8.9934    207.6916   9.0129877937e+01   2.7378001177e+01     1.834621     1.576683 -82.68  0.007531902    1.223    0.183
        65 -14.7226     53.3259    229.7428   7.9661932593e+01   1.8341380282e+01     1.728574     1.471647  69.85  0.005375063    1.318    0.241
        66  -8.0376     92.0187     14.9976   1.7843396552e+01   5.8199139167e+01    0.1476396      0.13225  77.00            0    1.063    0.059
