#   1 NUMBER                 Running object number                                     
#   2 MAG_AUTO               Kron-like elliptical aperture magnitude                    [mag]
#   3 X_IMAGE                Object position along x                                    [pixel]
#   4 Y_IMAGE                Object position along y                                    [pixel]
#   5 X_WORLD                Barycenter position along world x axis                     [deg]
#   6 Y_WORLD                Barycenter position along world y axis                     [deg]
#   7 A_WORLD                Profile RMS along major axis (world units)                 [deg]
#   8 B_WORLD                Profile RMS along minor axis (world units)                 [deg]
#   9 THETA_WORLD            Position angle (CCW/world-x)                               [deg]
#  10 FWHM_WORLD             FWHM assuming a gaussian core                              [deg]
#  11 ELONGATION             A_IMAGE/B_IMAGE                                           
#  12 ELLIPTICITY            1 - B_IMAGE/A_IMAGE                                       
         1 -12.2896     73.6031     40.6586   6.9931937808e+01   5.8763351594e+01    0.6183271    0.4105386 -58.18  0.002889156    2.613    0.617
         2 -12.5770    245.6604     24.5399   3.3750283574e+01   2.2797571584e+01    0.6540117    0.2328045 -40.97  0.003161755    2.266    0.559
         3 -12.4750     42.2560     20.8306   7.3993083301e+01   6.6600890687e+01    0.4195393    0.2279857  19.37 0.0003575447    1.912    0.477
         4 -11.0855     37.5488     18.3010   7.4954572136e+01   6.7592848027e+01    0.3525985    0.1813233 -27.39  0.001394665    1.805    0.446
         5 -11.6709    202.1735     21.0762   3.6987051978e+01   3.2414426829e+01    0.4569711    0.2503811 -61.15  0.001744235    1.928    0.481
         6 -11.5568     90.2475     18.2179   5.5665009898e+01   5.8450466648e+01    0.3197004    0.2816682  84.51 0.0009631923    1.527    0.345
         7 -11.9722    215.7959     13.7731   3.3979941151e+01   3.0205674189e+01    0.3987757    0.3293656 -43.13  0.002074361    1.248    0.199
         8 -11.2923    130.6114     14.8786   4.5232905402e+01   4.9805122854e+01    0.3022793    0.1923876  48.65 0.0007633815    1.406    0.289
         9 -11.4629    191.0119      9.5126   3.5349460649e+01   3.6158452220e+01    0.4096428    0.2914734  60.83  0.001480105    1.370    0.270
        10 -12.1990    186.3667      4.7136   3.4639260595e+01   3.7679081248e+01    0.9635374    0.2971266 -47.95  0.003807572    3.412    0.707
        11 -12.2805    206.8830      9.0661   3.3715139177e+01   3.2642785724e+01    0.4979387    0.3268123 -38.62   0.00300885    1.517    0.341
        12 -11.5961    115.2627     11.7746   4.7167461167e+01   5.3630252237e+01    0.2776637    0.2195119  41.55 0.0006524941    1.128    0.113
        13 -11.7791     64.9450     10.8049   6.0406077366e+01   6.4144871039e+01    0.4340899    0.2432672  38.68  0.001691406    1.541    0.351
        14 -12.9027     54.4787      6.2708   6.2094883568e+01   6.6446946654e+01    0.7631333    0.4075507  59.00    0.0035785    3.071    0.674
        15 -10.5453     46.4750     11.2168   6.7674172166e+01   6.7205499244e+01    0.2148235    0.1438036  31.67 0.0008026589    1.350    0.259
        16 -11.6471     36.9440      9.5439   7.1041225738e+01   6.8807861103e+01    0.3276637    0.2330701  -0.83  0.001532349    1.168    0.144
        17 -10.8295    108.5718      8.9694   4.7572492351e+01   5.5386081907e+01     0.276031    0.1426772  46.02  0.001378765    1.662    0.398
        18 -10.0020    128.1127      6.1099   4.2782678220e+01   5.1170999490e+01    0.1980427    0.1494188  43.32 0.0004196808    1.232    0.188
        19  -9.5170     29.0049      1.2362   7.0539973063e+01   7.0864919234e+01    0.1418968   0.08218321  30.91 0.0005285254    1.562    0.360
        20  -9.8756    134.4828    224.5023   9.7016304124e+01   8.8071746886e+00    0.1320327    0.1178792  35.23 -4.555866e-05    1.025    0.024
        21 -12.3368    219.8994    247.3115   8.3407549307e+01  -7.4345415859e+00    0.5025751    0.4449922  56.28  0.003409847    1.997    0.499
        22 -10.4682    173.8855    221.1374   8.8121204283e+01   3.2048296783e+00    0.3024665    0.1758366 -46.17  0.001525404    1.918    0.479
        23 -10.4605     82.8979    219.5791   1.0759347022e+02   1.7449211010e+01    0.2599467    0.1643198  86.87  0.001333441    1.949    0.487
        24  -9.5822     45.3012    218.6563   1.1549736102e+02   2.2390127334e+01    0.1306638    0.0760771  66.62 0.0007038051    1.678    0.404
        25 -10.4965     28.5207    217.8263   1.1885386997e+02   2.4388016526e+01    0.1924328    0.1281006  63.79 0.0003640465    1.297    0.229
        26  -9.9092    179.6483    216.4806   8.6138379144e+01   3.0998919842e+00    0.2191873    0.1227903 -41.87  0.001074348    1.880    0.468
        27 -10.5583    125.0176    214.5872   9.7633187343e+01   1.2217464040e+01    0.3449639    0.1925056 -67.39  0.001536163    2.463    0.594
        28  -9.9682    111.6548    215.5276   1.0074287478e+02   1.4102272232e+01    0.2255652     0.125861 -57.87  0.001088356    1.946    0.486
        29 -10.7400     24.6059    215.2208   1.1945232401e+02   2.5335797370e+01    0.1592166   0.09380771 -67.76 0.0004919795    1.629    0.386
        30  -9.7330    192.5149    209.9936   8.2356648349e+01   2.1761380461e+00     0.170563    0.1212608 -66.26 0.0008098814    2.541    0.607
        31 -10.3745    176.4288    209.7484   8.5638164381e+01   4.8025690744e+00    0.2482539    0.1320971 -49.08  0.001132968    2.163    0.538
        32 -10.6574    206.0957    206.9895   7.9096657985e+01   5.5356037715e-01    0.3105449    0.1793293 -36.38  0.001583426    1.690    0.408
        33 -10.1343     70.7951    207.1382   1.0884100802e+02   2.1744027082e+01      0.19544    0.1576046  71.92 0.0004833065    1.173    0.148
        34  -9.7138    225.5492    206.4926   7.5291169963e+01  -2.2954047420e+00    0.1296986    0.1070403  -5.73 0.0008083293    1.035    0.034
        35  -9.9713    250.2942    200.5689   6.9783335884e+01  -4.8775462238e+00    0.2243811    0.0950528 -34.59  0.001070498    2.057    0.514
        36 -11.0462    237.2250    197.7195   7.1518225257e+01  -2.6237059858e+00    0.4411093    0.1472667 -44.61  0.001638443    3.619    0.724
        37 -11.0959    149.4735    194.0023   8.8726589267e+01   1.2350207039e+01     0.333104    0.2202314 -32.95  0.001489453    1.667    0.400
        38  -9.5686      1.6772    198.7023   1.2299065244e+02   3.0968072481e+01    0.1069073   0.07879731 -53.87 0.0004807431    1.624    0.384
        39 -10.3427    133.2121    195.0884   9.2658626319e+01   1.4895945621e+01    0.2569356    0.2046888 -77.19  0.001341269    1.569    0.363
        40 -10.7821      5.2303    195.6803   1.2207408713e+02   3.1339625200e+01    0.3113442    0.1036148  48.13  0.001379475    2.685    0.628
        41 -11.0941    158.6845    190.3650   8.5974922071e+01   1.1489775104e+01     0.397467    0.2687852 -61.16  0.001870302    1.913    0.477
        42 -11.2552    156.1517    187.1864   8.5948814318e+01   1.2578770828e+01    0.3311949    0.3009244  24.91  0.001183398    1.059    0.056
        43 -10.7007    173.1702    191.2929   8.2949217349e+01   8.7856171197e+00    0.3418095    0.2607142 -68.88  0.001699683    1.922    0.480
        44  -9.8720    138.3178    189.6534   9.0516877745e+01   1.5176751186e+01    0.1456097    0.1134572  74.58 0.0007048621    1.726    0.421
        45 -11.0378    223.8532    182.4779   7.0971952986e+01   1.8702883425e+00    0.4080684     0.156214 -39.33  0.001667275    2.407    0.585
        46  -9.9830    182.6868    183.5013   7.9381671913e+01   8.6223879355e+00    0.2587965    0.1263027 -42.66  0.001085352    2.034    0.508
        47 -11.3723    119.5719    182.8165   9.3777944557e+01   1.9867163971e+01    0.3628965    0.1448742 -56.78  0.001313931    2.731    0.634
        48  -9.9753    210.4462    181.7894   7.3378281385e+01   4.1729660661e+00    0.2011041    0.1183031 -26.49 0.0009455809    1.704    0.413
        49 -10.9008    243.8290    180.6802   6.7057508706e+01  -9.0825470145e-01    0.2403751    0.1499481 -25.83  0.001309345    1.395    0.283
        50 -10.9368    147.8024    178.0353   8.6118432097e+01   1.5980570317e+01    0.5104705    0.1774137 -42.26  0.001703062    3.067    0.674
        51 -10.5234    191.8643    176.5395   7.6042672899e+01   8.3283667606e+00    0.4186988    0.1729616 -33.61  0.001540424    2.666    0.625
        52  -9.6867    175.6606    178.6966   7.9932529502e+01   1.0806926101e+01    0.1514398    0.1087536  -1.68 0.0007039158    1.673    0.402
        53 -10.5199     58.5283    176.2367   1.0797163017e+02   3.0438088950e+01    0.2887688    0.1838235  76.57 0.0009979028    1.822    0.451
        54 -10.6151     89.3167    174.8628   9.9981749365e+01   2.6553234514e+01    0.3840739   0.08566301 -51.02  0.001109428    4.219    0.763
        55 -10.4539    159.0140    174.5530   8.2821753608e+01   1.4677851013e+01    0.3403269     0.188056 -51.88  0.001428354    1.982    0.495
        56 -10.2537    134.5677    170.3171   8.7776881741e+01   2.0057215967e+01    0.2974688    0.1472185 -54.70  0.001157024    2.187    0.543
        57 -10.5966    121.1754    169.3479   9.0912863149e+01   2.2655419318e+01    0.3143385    0.1784525 -75.92   0.00107905    3.306    0.698
        58  -9.8148    198.3989    168.3769   7.3002155685e+01   8.7047924135e+00    0.2873542    0.1177208 -29.66 0.0009593398    3.198    0.687
        59  -9.9419    185.0000    165.9904   7.5276428323e+01   1.1610330595e+01     0.247767   0.08004746 -42.75 0.0008095037    2.992    0.666
        60 -10.7064     99.0410    164.1816   9.5635597456e+01   2.7593747040e+01    0.2903343    0.1801567 -43.21  0.001302524    1.696    0.410
        61  -9.7265    213.6647    164.3127   6.9144978289e+01   6.7494798999e+00    0.1318735    0.1137711 -75.04 0.0007045596    1.686    0.407
        62 -11.6697     52.5363    162.3436   1.0764019585e+02   3.4534703610e+01    0.3370832    0.2224097 -81.74  0.001006315    1.526    0.345
        63 -10.2019    204.8272    161.3911   7.0229677582e+01   8.8566968579e+00    0.2822852    0.0991066 -42.55 0.0009988802    2.706    0.630
        64 -11.0086     93.3311    160.8326   9.6535431898e+01   2.9308605300e+01    0.2377547    0.1870689 -84.23  0.001193395    1.434    0.303
        65 -10.6619    138.9994    159.6918   8.4516021585e+01   2.1625628565e+01     0.324304    0.1827074 -25.80  0.001173367    2.675    0.626
        66 -10.8953     23.1303    159.8462   1.1495001475e+02   3.8141197482e+01    0.2011164    0.1539958  75.37  0.001020375    1.256    0.204
        67 -11.3458    107.4736    158.3957   9.2324129408e+01   2.7585482290e+01    0.5781999    0.2793512  45.71  0.002155662    2.205    0.547
        68 -10.8446     45.0497    159.3553   1.0920759941e+02   3.6114499444e+01    0.1781294    0.1653367  78.93 0.0005412836    1.092    0.084
        69 -10.3990    218.5161    156.4372   6.6555046544e+01   7.3179307170e+00     0.303756    0.1259374 -38.96   0.00121445    2.179    0.541
        70  -9.9977    196.3981    156.2620   7.0797971738e+01   1.1380160697e+01    0.2991054    0.1316555 -37.18  0.001153176    2.184    0.542
        71 -11.7510    118.1697    157.7836   8.9400575318e+01   2.5873900747e+01    0.3783902    0.3175243 -44.31 0.0008551541    1.178    0.151
        72 -10.0703    111.6517    154.6950   9.0482033077e+01   2.7749770643e+01    0.1557583    0.1179761 -13.56 0.0007041681    1.699    0.411
        73 -10.5175     81.2439    154.2419   9.8613190575e+01   3.2756935338e+01    0.2344881    0.1203678 -71.98  0.000888754    2.448    0.591
        74 -10.4309     23.7753    153.7997   1.1411774420e+02   3.9554867703e+01    0.1808094    0.1332898  73.63 0.0006284042    1.359    0.264
        75 -11.6726    232.2061    152.3037   6.3230520308e+01   5.6725738278e+00    0.2916054    0.1655498 -42.97  0.001261303    1.656    0.396
        76 -11.6799    114.1784    150.5626   8.8958124877e+01   2.8287664243e+01    0.3698687    0.2647094  72.53  0.001614118    1.964    0.491
        77 -11.9101    234.6996    148.2402   6.1939637647e+01   5.9489711034e+00    0.4442222    0.2671202 -61.89  0.001831375    3.063    0.673
        78 -10.2593     19.3171    150.3089   1.1489476938e+02   4.0779916712e+01    0.1299475   0.08387887 -46.18 0.0003550719    1.635    0.388
        79 -10.8145    189.3353    149.1928   7.0674262402e+01   1.4105397767e+01    0.3927402    0.1210646 -49.10  0.001102111    4.200    0.762
        80 -11.1778    166.9000    155.5816   7.6993667287e+01   1.7171165840e+01    0.4202482    0.2828879 -47.79  0.001838576    1.510    0.338
        81 -11.1159    106.0031    144.0410   8.9787403336e+01   3.1282307473e+01    0.3483197    0.2181875 -79.18  0.001324541    2.563    0.610
        82 -11.1585     87.8322    144.3167   9.4907703740e+01   3.4207757986e+01     0.389129    0.2083645 -78.25  0.001310006    3.325    0.699
        83 -10.4406    124.4043    142.6275   8.4517826351e+01   2.8284535484e+01    0.3019358      0.14365 -62.91 0.0009523266    3.266    0.694
        84 -10.1772    181.4661    141.0323   7.0462445880e+01   1.7289979039e+01    0.2396612     0.142302 -41.94  0.001006047    1.605    0.377
        85 -10.5862     22.0020    139.9597   1.1294423367e+02   4.3097314162e+01    0.1991497    0.1652658 -69.28 0.0004640644    1.033    0.032
        86 -11.5769    249.0000    134.9902   5.6831576693e+01   5.7699356379e+00    0.3634645    0.1331501 -35.94  0.001468523    2.344    0.573
        87 -10.6219    107.0008    138.1595   8.8230890550e+01   3.2520847431e+01    0.2614823    0.1829696  -3.87  0.001094181    2.095    0.523
        88 -10.7180      1.8681    137.5956   1.1818660571e+02   4.5098148014e+01    0.2540455    0.1502215 -85.42  0.001418994    1.481    0.325
        89  -9.8859    232.0000    134.0055   5.9308212934e+01   8.8899087238e+00     0.238581   0.06978557 -38.47 0.0008069107    2.974    0.664
        90  -9.9652     69.5393    134.4672   9.8258362441e+01   3.9324992218e+01    0.1448143    0.1332714 -60.49 0.0001035955    1.013    0.013
        91 -10.5471     98.9881    143.4767   9.1608288655e+01   3.2613002132e+01    0.2740014    0.1610624 -62.46 0.0006740348    1.837    0.455
        92 -11.0198    131.3538    129.6532   7.9640396832e+01   2.9927617979e+01    0.6351352    0.1452533 -47.50  0.001637539    4.299    0.767
        93 -10.4276    143.3322    127.3328   7.5996192433e+01   2.8021178608e+01    0.2980816    0.1503922 -35.64  0.001093604    2.163    0.538
        94 -11.0157     98.1364    127.6068   8.8354513974e+01   3.6598393639e+01    0.4049749    0.2525344 -73.05  0.001599537    2.306    0.566
        95 -10.6361    188.9001    123.0916   6.4645208017e+01   1.9328623444e+01    0.3625374    0.2052935 -50.11  0.001508281    1.882    0.469
        96  -9.9297    180.3169    121.3368   6.5978406638e+01   2.1479274409e+01     0.157256    0.1184193  -0.97 0.0005989032    1.699    0.411
        97 -11.8417     95.5959    119.8813   8.7270595244e+01   3.8881252855e+01    0.4926246    0.3698467  21.55  0.001529443    1.493    0.330
        98 -11.5080     88.7174    120.2264   8.9417947272e+01   3.9948708193e+01    0.4711695    0.3196119  36.08  0.002209595    1.556    0.357
        99 -11.1472    223.7351    117.2461   5.6916977068e+01   1.3367672336e+01    0.2658832    0.1596818 -39.95  0.001277734    1.471    0.320
       100 -11.7591    154.8859    115.8618   7.0262664184e+01   2.8048524255e+01    0.6271362    0.4404526  82.89  0.002200578    2.412    0.585
       101 -11.4791    149.3407    110.6711   7.0231316142e+01   3.0328066489e+01    0.3207927    0.2890876 -80.87  0.001206399    1.293    0.227
       102 -12.1653    146.6062    108.2203   7.0244496042e+01   3.1430194594e+01    0.4243526    0.3022011  30.68  0.001915136    1.557    0.358
       103 -10.6169    185.5453    114.7397   6.3268061019e+01   2.1655659368e+01    0.3881208     0.138202 -41.78  0.001310541    2.634    0.620
       104 -10.7228    163.3468    113.0319   6.7572019073e+01   2.6798998223e+01    0.3174044    0.2215077  39.36 0.0007458274    1.503    0.335
       105 -11.3644    140.5003    110.7588   7.2444024147e+01   3.2207939048e+01    0.3366699    0.2540509 -58.67 0.0008763542    1.500    0.333
       106 -11.8654    122.3064    109.4617   7.6902685694e+01   3.6271277907e+01    0.5401379    0.2579924 -32.88   0.00186481    2.604    0.616
       107 -10.3063     20.7793    111.6739   1.0927529097e+02   5.0136386830e+01    0.2329537    0.1424842 -57.85 0.0007549155    1.321    0.243
       108  -9.9067    133.2918    109.6616   7.4006399034e+01   3.3965802251e+01    0.1555427    0.1256309 -80.86  0.000355712    1.645    0.392
       109 -10.7996     14.1737    106.6393   1.1060924216e+02   5.1817392402e+01    0.4926933   0.08823954 -51.07  0.001675681    3.625    0.724
       110 -10.4329     93.8544    103.8148   8.3700765015e+01   4.2929839038e+01    0.3167889    0.1967721   5.40  0.001194597    2.681    0.627
       111 -11.9037    159.5842    111.7960   6.8108658012e+01   2.7870124129e+01    0.7096285    0.2353138 -43.86  0.002236403    2.940    0.660
       112 -12.7935    244.8561    100.8463   5.0085635638e+01   1.2124919668e+01    0.7221769    0.2214789 -47.12  0.002521103    3.340    0.701
       113 -10.6104     58.6760    105.1234   9.5427664809e+01   4.7947615690e+01    0.3174007    0.1798316 -44.33 0.0008331838    1.610    0.379
       114 -13.2517    142.4527    101.1078   6.9335038450e+01   3.3799879327e+01    0.6674936      0.54573  47.35  0.003306895    1.261    0.207
       115 -11.0449    117.7221    103.4551   7.6542734478e+01   3.8509308115e+01    0.3654963    0.2404245 -80.36  0.001295137    3.115    0.679
       116 -11.7515     64.6610    102.8108   9.2871781764e+01   4.7713152269e+01    0.3909973    0.3096503  78.52 0.0004784218    1.722    0.419
       117 -11.2891    110.4663    102.5950   7.8380158890e+01   4.0130833545e+01    0.3650092    0.1902718  44.75  0.001444957    2.025    0.506
       118 -12.4630    123.8492     90.9767   7.1294213590e+01   3.9869566044e+01    0.7085003    0.3180405 -51.05  0.002475698    2.646    0.622
       119 -12.1053    120.5067     92.5037   7.2657507075e+01   4.0258805867e+01    0.4740271    0.3183306 -57.11  0.002070568    1.779    0.438
       120 -11.7345    128.5062     97.4513   7.1902939567e+01   3.7556846418e+01    0.7839099    0.2623576 -37.16  0.002351324    3.355    0.702
       121 -11.1011    128.8298     92.0319   7.0263949258e+01   3.8595419538e+01     0.386617    0.2564546 -46.35 0.0008245413    1.529    0.346
       122  -9.8578    175.5122    100.4991   6.1675671377e+01   2.6573630448e+01    0.1507991    0.1438759 -22.11 0.0008102867    1.037    0.036
       123 -11.6544     43.0611     97.6338   9.9049974201e+01   5.1537385678e+01    0.5823172    0.1870315 -59.03  0.002124437    2.735    0.634
       124 -11.3107    107.0000     98.0503   7.8126238280e+01   4.1794516775e+01    0.3989182    0.2225897 -43.20  0.001653034    1.727    0.421
       125 -10.2714    105.6516     94.3090   7.7458796897e+01   4.2860836740e+01    0.2793494    0.2175402 -55.86 0.0009321014    1.407    0.290
       126 -10.8986     49.1875     98.6691   9.7153911440e+01   5.0622916292e+01    0.3922806    0.1800877 -39.86  0.001211467    2.187    0.543
       127 -10.4734     49.6980     94.3295   9.5941008453e+01   5.1583867488e+01    0.2150892    0.1858291 -62.09 0.0008169959    1.191    0.160
       128 -11.4858     19.9342     96.3104   1.0688100407e+02   5.3890918796e+01    0.3400489    0.1493728 -60.89  0.001406293    1.805    0.446
       129 -11.1141    160.5052     95.8750   6.3647372108e+01   3.0822288913e+01    0.2955653    0.2630903  11.22 0.0003550059    1.221    0.181
       130 -10.3961     94.9132     92.7300   8.0286812019e+01   4.5207886386e+01    0.4048711    0.1785867 -32.44   0.00133972    3.041    0.671
       131 -10.6303    188.4017     92.3297   5.7036357574e+01   2.5197563831e+01    0.2891033    0.1396179 -32.89  0.001127547    2.134    0.531
       132 -12.0098    140.4343     82.8963   6.4640893464e+01   3.7815800166e+01     1.003263    0.3280049 -32.86  0.002891976    3.885    0.743
       133 -12.0551    151.5843     87.5298   6.3341417837e+01   3.4425729251e+01    0.4874936    0.2717564 -33.73  0.002003391    1.850    0.459
       134  -9.9708    177.3598     89.1978   5.8321810003e+01   2.8242461026e+01    0.2108318    0.1307963 -46.33 0.0002327473    1.600    0.375
       135 -10.3048     44.0530     86.6591   9.6071122284e+01   5.3984827199e+01    0.2478414    0.1551338 -34.62 0.0005801758    1.527    0.345
       136 -11.7547    103.4202     82.8894   7.4735349106e+01   4.5670538517e+01     0.861158    0.3019818 -37.74  0.002804935    3.044    0.671
       137 -10.6597     36.2625     82.3039   9.7875677125e+01   5.5773975709e+01     0.348385    0.1381816 -29.40  0.001158353    4.042    0.753
       138 -11.3217     44.4491     81.5945   9.4612625699e+01   5.5085354828e+01    0.4263524    0.2309132  42.24  0.001409742    2.330    0.571
       139 -10.2632     60.1257     77.6017   8.7660169990e+01   5.4025580333e+01    0.1964105    0.1280002  10.77 0.0009420969    1.809    0.447
       140 -11.3973     15.7044     76.4133   1.0437275803e+02   5.8782024910e+01    0.2966203    0.2343789  22.17  0.000584537    1.506    0.336
       141 -10.9446    230.2245     88.4134   4.9332853101e+01   1.6957162377e+01    0.3564124    0.1838149 -73.13  0.001030047    5.977    0.833
       142 -11.5309    249.4445     73.4491   4.3594097027e+01   1.5516226904e+01    0.3630542    0.1755459 -44.20   0.00153984    1.727    0.421
       143 -11.1984    224.8034     74.0924   4.6784478692e+01   2.0328035823e+01    0.2537885      0.19047 -17.26  0.001369872    1.622    0.383
       144 -10.3674     81.5081     72.5025   7.8493776527e+01   5.1777564186e+01    0.2572236    0.1340809 -53.80  0.001030247    2.370    0.578
       145  -9.9007    230.6702     71.3043   4.5380486489e+01   1.9542749619e+01    0.1380198   0.09161619 -65.30 0.0005408185    1.653    0.395
       146 -10.1638     52.4937     71.5219   8.8695688047e+01   5.6318718311e+01    0.1384015    0.1189313 -26.60 -3.371505e-05    1.006    0.006
       147  -9.8042    170.8449     70.5921   5.4526500661e+01   3.2944682860e+01    0.2005281    0.1394557  72.11 0.0007625006    1.662    0.398
       148 -12.1103      9.2854     65.9573   1.0455182651e+02   6.1491427977e+01    0.3763552    0.2350419 -10.69  0.001459499    1.745    0.427
       149 -11.4125    145.2307     64.0197   5.7878173614e+01   4.0013428751e+01    0.2753387    0.2052828  54.15 0.0003598897    1.326    0.246
       150 -10.3431     62.6575     63.2974   8.2205346296e+01   5.6591725518e+01    0.1264283    0.1123295  77.09 0.0007033846    1.667    0.400
       151 -12.4296     30.5687     46.6291   8.9670352122e+01   6.3766633225e+01    0.5009873    0.2842417 -30.69  0.001787414    1.566    0.362
       152 -14.2204     29.2266     59.1587   9.4327862510e+01   6.1433790820e+01      1.12387    0.9271899  37.46  0.003836673    1.554    0.357
       153 -13.5628      9.9898     49.6445   9.9986908017e+01   6.4866795585e+01    0.3428377    0.2832167  -6.19  0.000938706    1.257    0.204
       154 -10.7791     40.7173     61.8490   9.0365811374e+01   5.9715386112e+01    0.2134477    0.1617668  -5.85 0.0004961765    1.304    0.233
       155 -10.2026    129.0280     59.4623   6.0236464068e+01   4.4477298194e+01    0.2282908     0.138337  49.84  0.001031029    1.597    0.374
       156  -9.6824     46.6631     58.2851   8.6784722054e+01   5.9730000979e+01    0.1179411    0.1069815  69.05 0.0004904756    1.628    0.386
       157 -11.8210    249.8964     56.2864   3.9916563697e+01   1.7890947535e+01    0.4153457    0.1221163 -34.82  0.001617635    3.082    0.676
       158 -11.3558    216.1936     55.9234   4.3654965721e+01   2.4861720690e+01    0.3892654    0.2795377 -47.54  0.002189465    1.267    0.211
       159 -10.8621    230.6186     52.8096   4.1219077085e+01   2.2234169729e+01    0.1936006   0.09949198 -45.32 0.0009542901    1.704    0.413
       160 -10.0260    161.2838     53.2300   5.1401244265e+01   3.7887447182e+01    0.2217991    0.1171947  71.12 0.0007049291    2.358    0.576
       161 -10.9759    112.1195     48.6510   6.0973212243e+01   4.9912911266e+01    0.5600357    0.2796881 -47.48  0.002267454    2.539    0.606
       162 -10.8173     15.3051     54.1855   9.8904790248e+01   6.3588303978e+01     0.380364    0.1938064 -26.41  0.001244002    1.949    0.487
       163 -12.2268    248.7324     38.2772   3.6291820759e+01   2.0509879673e+01    0.5717989    0.1997049 -47.49   0.00260059    2.395    0.582
       164 -10.4749    248.2106    248.6052   7.8575667927e+01  -1.1106287406e+01    0.2430291    0.1136615 -14.07  0.001221644    2.503    0.600
       165 -13.7221     42.7518     37.6531   8.0922085634e+01   6.3965770864e+01    0.4871768     0.325511 -39.04  0.001083543    1.444    0.307
       166 -12.0440     33.7614     37.3291   8.4803217887e+01   6.5103574339e+01    0.4156893    0.2345002 -13.71  0.002112616    2.000    0.500
       167 -10.3617    143.6633     34.6881   4.9144015862e+01   4.4567620109e+01    0.1449038   0.09823384  31.51  0.000688995    1.687    0.407
       168 -10.9103    109.3699     31.8390   5.5743987853e+01   5.2805959539e+01    0.2520587    0.2043639  51.21 0.0004166016    1.183    0.155
       169  -9.6914      8.8656     31.8421   9.4785919865e+01   6.8349219465e+01    0.1432199    0.1308551 -11.59  0.001059478    1.330    0.248
       170 -11.1484    100.5293     65.7977   7.0148575504e+01   4.9510304692e+01    0.2549642    0.2297055  19.29 0.0002348564    1.063    0.059
       171 -12.0506      1.8547     29.2786   9.7492881420e+01   6.9266321828e+01    0.3878176    0.1236949 -50.74  0.001220567    2.348    0.574
       172 -11.1902     96.0542    222.5664   1.0509104360e+02   1.4982269564e+01    0.3732421    0.2273589 -52.79  0.001981553    1.802    0.445
       173 -11.6953     37.7821     25.8120   7.8220203005e+01   6.6481745168e+01    0.3739796    0.2294582  -0.32  0.001087726    1.718    0.418
       174 -10.9998    197.8002    247.2941   8.7554022307e+01  -4.4531147113e+00    0.2655719    0.2230188 -82.13  0.001608463    2.396    0.583
       175 -11.1318     39.5577    244.8548   1.1862805593e+02   1.7773675843e+01    0.4926748    0.1981677 -89.47  0.002267206    3.179    0.685
       176  -9.9998    177.0250     26.4533   4.1363731525e+01   3.7608922356e+01     0.197061    0.1204307  69.22 0.0005719944    1.534    0.348
       177 -11.7662     36.3416    237.6010   1.1873339218e+02   1.9531652137e+01    0.7533869    0.1534289  49.48  0.002835957    4.053    0.753
       178 -10.9866    122.7821     22.7006   4.9409229593e+01   5.0830407700e+01    0.2963172    0.2202056  78.50 0.0009815816    1.550    0.355
       179 -11.0764     27.5951    235.6412   1.2025040883e+02   2.0852022046e+01    0.2625023     0.156178  50.26  0.001111075    1.408    0.290
       180 -10.8065     23.1734    248.1905   1.2180874013e+02   1.8897644871e+01    0.1577968    0.0962192  62.65 0.0004795069    1.313    0.238
       181  -9.7099     54.5439    241.9437   1.1557325085e+02   1.6600510361e+01    0.1518599   0.08580925 -47.03 0.0008086188    2.529    0.605
       182 -10.5947    222.6249     15.1375   3.3684762350e+01   2.8594678383e+01    0.2341826    0.1526294 -89.80  0.001403235    1.445    0.308
       183  -9.5521     32.6765    242.3020   1.1973366790e+02   1.9016206040e+01    0.1208472   0.06457525  62.22 0.0003475701    1.634    0.388
       184 -12.2340     17.2479    237.0719   1.2224572761e+02   2.1620078503e+01    0.5437846    0.2238753  55.80  0.002989123    2.045    0.511
       185 -11.8310     15.6315    232.2727   1.2226908846e+02   2.2721806612e+01    0.4124921    0.1671013  57.27  0.001195125    2.142    0.533
       186  -9.7386     61.3304    248.3101   1.1478162950e+02   1.4570549729e+01    0.1027232   0.09073632 -16.76 0.0007041818    1.668    0.400
       187  -9.7713    110.4925     13.5239   4.8818518661e+01   5.4543647156e+01    0.2012156    0.1019839  48.73 0.0008094345    1.679    0.404
       188 -10.2935    109.1740    232.8199   1.0354186046e+02   1.1059176537e+01    0.1703746    0.1429339  17.78  0.001055096    1.308    0.236
       189 -11.5479     72.9513    228.7132   1.1069015215e+02   1.6910089947e+01    0.3296579    0.2111063  35.96  0.001302864    1.484    0.326
       190 -12.4563    238.5939    221.6412   7.5672078859e+01  -6.3616468523e+00    0.5511346    0.2638144 -41.73  0.002781935    2.329    0.571
       191 -11.9859    239.0104    214.8759   7.4385924909e+01  -5.4481744473e+00    0.5212516    0.2055364 -43.41  0.002278293    2.973    0.664
       192 -10.7598     49.4352     25.5037   7.2983563990e+01   6.4913950127e+01    0.2611786    0.2454197  31.72  0.001019276    1.480    0.324
       193 -11.5399     35.8898    223.3347   1.1778837798e+02   2.2458302123e+01    0.3191603    0.1871085  80.63 0.0009338283    1.647    0.393
       194 -11.5469    149.5005    221.5044   9.3333801969e+01   7.0018089426e+00    0.5203478    0.2420896 -45.84  0.002345431    2.335    0.572
