#   1 NUMBER                 Running object number                                     
#   2 MAG_AUTO               Kron-like elliptical aperture magnitude                    [mag]
#   3 X_IMAGE                Object position along x                                    [pixel]
#   4 Y_IMAGE                Object position along y                                    [pixel]
#   5 X_WORLD                Barycenter position along world x axis                     [deg]
#   6 Y_WORLD                Barycenter position along world y axis                     [deg]
#   7 A_WORLD                Profile RMS along major axis (world units)                 [deg]
#   8 B_WORLD                Profile RMS along minor axis (world units)                 [deg]
#   9 THETA_WORLD            Position angle (CCW/world-x)                               [deg]
#  10 FWHM_WORLD             FWHM assuming a gaussian core                              [deg]
#  11 ELONGATION             A_IMAGE/B_IMAGE                                           
#  12 ELLIPTICITY            1 - B_IMAGE/A_IMAGE                                       
         1 -13.5205    169.1633     55.9272   6.2850051757e+01   3.5590323132e+01     2.308335     1.459407  16.44  0.006798424    2.418    0.586
         2 -13.2005    183.6962     40.4112   5.5407310968e+01   3.4089108762e+01    0.9845758    0.8267894 -40.35  0.002851556    1.194    0.163
         3 -12.7766    188.7063     34.2176   5.2750788502e+01   3.3603028984e+01    0.6866287    0.5315872 -36.19  0.001397351    1.295    0.228
         4 -13.9693    205.5678      9.7561   4.3583748470e+01   3.2087463170e+01     1.365276     1.103838  13.24  0.006057852    1.561    0.359
         5 -11.8169    190.7856     14.8787   4.6726211902e+01   3.5331909783e+01    0.6059716     0.324827  63.57  0.002185242    1.712    0.416
         6 -11.8635    240.0321      2.4348   3.8644740287e+01   2.4477736875e+01    0.6958417    0.2728304  74.60  0.003060938    2.456    0.593
         7  -8.5104     50.6912    212.6748   1.2310439068e+02   2.4751261286e+01    0.2334297    0.1310273  44.24  0.001250652    1.633    0.388
         8 -13.0923    246.6087    245.1384   9.1559863144e+01  -1.0168594691e+01      1.03686    0.7615603  -4.49  0.007610932    1.277    0.217
         9 -12.6322     12.0280    206.3439   1.2955195111e+02   3.0136800223e+01    0.2756273     0.140969  58.81  0.001817286    1.559    0.358
        10  99.0000      8.0175    205.7634   1.3020984996e+02   3.0622538150e+01    0.3214729    0.2074075  50.23  0.001886969    1.448    0.309
        11  -9.5757     87.6677    203.3756   1.1515394498e+02   2.1617788632e+01    0.2642978    0.2013793 -74.75  0.001225819    1.321    0.243
        12 -10.7744    247.8233    200.4816   8.3663515649e+01  -5.2957177212e+00    0.2113113    0.1443241 -48.23  0.001157194    2.312    0.567
        13 -10.8516    193.1570    195.2454   9.2670179737e+01   4.8980267841e+00     0.846534    0.4461015 -62.02  0.002751406    5.542    0.820
        14 -11.9321    151.1407    196.0676   1.0121311082e+02   1.2480202321e+01     0.374203    0.3522632  36.01  0.001864242    1.083    0.077
        15 -11.4556     66.9693    194.9735   1.1838317086e+02   2.6198462365e+01     0.322801     0.234117 -45.17  0.001332526    1.950    0.487
        16 -19.1510     27.9523    102.2379   1.1585045501e+02   5.1500064475e+01     16.80219    0.9777658 -66.37   0.02980669   13.701    0.927
        17  -9.6453     81.6012    195.3720   1.1546541326e+02   2.4096447898e+01    0.2761846    0.1969577 -55.32   0.00165592    1.617    0.382
        18  -8.3269    164.6376    187.2735   9.6940821073e+01   1.1569178535e+01    0.1383652    0.1037155  67.88 0.0004405174    1.660    0.397
        19  -8.9878     59.4196    187.2061   1.1911505923e+02   2.8788225847e+01    0.1030608   0.09378952   6.89 0.0003774336    1.661    0.398
        20 -17.8380     43.3357    240.7439   1.2631817425e+02   2.0532208591e+01     6.360451     5.426383  52.74   0.04767248    1.448    0.309
        21 -10.0535    189.0419    178.2416   9.0269686427e+01   8.4787572900e+00    0.3846666    0.2928852  72.86  0.001183228    1.926    0.481
        22  -9.9709    187.9793    173.6871   8.9579686975e+01   9.4750164126e+00    0.3898424    0.2570851 -59.77  0.001788893    2.181    0.542
        23 -11.9700    143.6150    173.7911   9.8979944512e+01   1.8112138226e+01    0.8949674    0.5251874  59.88  0.003926981    2.052    0.513
        24  -9.4306    240.3096    169.3185   7.8778695155e+01   2.2185709686e-01    0.1403644   0.09365357   6.44 0.0003273608    1.640    0.390
        25  -9.6468    186.8938    165.7253   8.8172838517e+01   1.1103284539e+01    0.3136962    0.1998072 -43.97  0.001034472    1.680    0.405
        26 -13.2265     75.2450    248.9550   1.2164972711e+02   1.5177713629e+01    0.2891819    0.1714161 -63.76  0.001885514    1.987    0.497
        27  -8.6372    117.2617    161.6489   1.0273637864e+02   2.5518698452e+01    0.1434145    0.1058711  84.85 0.0002856325    1.612    0.380
        28 -11.1498     94.6984    157.4096   1.0731892880e+02   3.0284417307e+01    0.2567521    0.2272732 -77.01 0.0002220453    1.070    0.065
        29  -9.7204    184.5120    213.0105   9.7389067182e+01   3.7013860714e+00    0.2434971    0.1652599  52.89  0.001349479    1.576    0.365
        30  -9.1155      1.4414    155.9558   1.2843314979e+02   4.1353992035e+01    0.1552723   0.08354621 -78.91 0.0001512084    1.408    0.290
        31 -12.0306    100.0141    150.8746   1.0491534911e+02   3.0897484416e+01    0.6054333    0.4684336 -30.58   0.00314279    1.696    0.410
        32 -10.9407    133.7989    145.5132   9.5683274089e+01   2.5933767692e+01     1.176421     0.302663 -55.03  0.002806529    6.026    0.834
        33  -9.9782    174.5251    148.8438   8.7132194667e+01   1.6829505191e+01    0.2792118    0.2396617  83.94  0.000676008    1.451    0.311
        34 -11.4117     71.7837    244.3263   1.2187448079e+02   1.6395876588e+01    0.2323761    0.1529297 -82.50  0.001091599    1.542    0.351
        35  -9.1587    115.9049    144.8675   9.9885941617e+01   2.9481839450e+01    0.2309389    0.1697544  78.77 0.0007374964    1.667    0.400
        36 -11.1777    109.8093    137.7903   9.9968338450e+01   3.2192715618e+01    0.5765374     0.313739 -38.15  0.002328411    2.312    0.567
        37  -9.7456    113.1199    151.5858   1.0186924309e+02   2.8477641316e+01    0.2587905    0.1903554 -75.74 0.0005822235    1.497    0.332
        38 -11.8721     98.6774    136.8425   1.0261257806e+02   3.4346070267e+01    0.2998029    0.2896698 -25.57 0.0005196643    1.189    0.159
        39 -10.9092    105.8633    130.8095   9.9516906590e+01   3.4501478890e+01    0.3914774    0.3053737 -66.63  0.001137293    1.280    0.218
        40  -9.8433    136.4477    127.9030   9.1087284120e+01   2.9254226450e+01     0.475763    0.2315722 -36.02  0.001715224    2.493    0.599
        41 -10.0903    116.3877    128.6816   9.6328020205e+01   3.3061083416e+01    0.3088551    0.2546135 -31.96 0.0005569006    1.356    0.263
        42 -10.0288    160.4894    127.3196   8.5209782560e+01   2.4209943283e+01    0.3030594    0.2297329 -42.62  0.001055854    1.319    0.242
        43 -10.5422    104.4281    124.3804   9.8492387656e+01   3.6242700995e+01    0.2897585    0.2355962 -32.45 0.0006578981    1.388    0.280
        44  -9.4620    120.5853    123.2068   9.3981495231e+01   3.3496547920e+01    0.2171896    0.1385019 -39.26   0.00094311    1.664    0.399
        45  -9.2489    111.1567    118.1037   9.5249208863e+01   3.6460432563e+01    0.2109028    0.1970485 -26.58 0.0003463146    1.148    0.129
        46  -9.8483    231.2487    113.6737   6.7639389185e+01   1.0830676170e+01    0.2647687    0.2359598  -0.43 0.0007294368    1.115    0.103
        47  -9.8029    167.9532    112.8329   7.9806288658e+01   2.5472710018e+01    0.3819453    0.2714043 -80.75  0.001319587    2.223    0.550
        48 -10.3653    134.6383    105.4671   8.5833347281e+01   3.4528522580e+01    0.6406517    0.1425746 -46.37  0.001604155    4.568    0.781
        49 -10.8948    118.8280    110.2188   9.1239102987e+01   3.6766635245e+01       0.5692    0.3498613  68.06  0.002173978    2.569    0.611
        50  -9.8522    205.4156    110.0000   7.1315150712e+01   1.7256634542e+01    0.3311248     0.254074  37.39  0.001117622    1.363    0.266
        51  -9.9579     74.3274    103.8326   1.0228891860e+02   4.5900502796e+01    0.2201162    0.1647564 -71.66 0.0006427126    1.376    0.273
        52  -9.3247    128.2841     95.6107   8.4741847496e+01   3.8005374287e+01    0.2991401    0.1501935  50.62  0.001127623    2.159    0.537
        53  -8.8408     74.5086     73.9915   9.4342472081e+01   5.2602655553e+01    0.2064742    0.1255898 -47.71 0.0003328486    1.466    0.318
        54 -11.2361     70.0483    209.3362   1.1920414270e+02   2.2927646462e+01    0.2031673     0.148568  72.28 0.0002522181    1.141    0.123
        55  -9.3072     74.3699    208.0685   1.1825354334e+02   2.2587622635e+01    0.3498873    0.2075908 -46.26  0.001510552    2.524    0.604
        56 -11.1434     63.0329    206.3220   1.2025924824e+02   2.4439762350e+01    0.2839245    0.1868681  77.68 0.0009628524    1.356    0.263
        57 -12.3755     60.2841    217.0146   1.2170806560e+02   2.2735923230e+01    0.4706547    0.2444484  83.47  0.002605289    2.052    0.513
        58 -11.5708     55.4209    211.4753   1.2213916590e+02   2.4402312342e+01    0.1910545    0.1517866  74.02 0.0002067108    1.056    0.053
