#   1 NUMBER                 Running object number                                     
#   2 MAG_AUTO               Kron-like elliptical aperture magnitude                    [mag]
#   3 X_IMAGE                Object position along x                                    [pixel]
#   4 Y_IMAGE                Object position along y                                    [pixel]
#   5 X_WORLD                Barycenter position along world x axis                     [deg]
#   6 Y_WORLD                Barycenter position along world y axis                     [deg]
#   7 A_WORLD                Profile RMS along major axis (world units)                 [deg]
#   8 B_WORLD                Profile RMS along minor axis (world units)                 [deg]
#   9 THETA_WORLD            Position angle (CCW/world-x)                               [deg]
#  10 FWHM_WORLD             FWHM assuming a gaussian core                              [deg]
#  11 ELONGATION             A_IMAGE/B_IMAGE                                           
#  12 ELLIPTICITY            1 - B_IMAGE/A_IMAGE                                       
         1 -18.8354    216.7940     95.4460   8.4690944697e+01   1.9139480516e+01     8.750493     6.649227  -9.68   0.04731514    1.255    0.203
         2 -12.1411    225.5526     23.5185   6.4879599228e+01   2.6253743961e+01    0.4387315    0.3562497 -58.29  0.001206536    1.205    0.170
         3  -9.4830    247.8128     16.1989   6.1339363744e+01   2.2297674911e+01     0.321111    0.1329479 -30.17  0.001566144    1.930    0.482
         4 -11.1738    202.9441     14.4545   6.4458303633e+01   3.2324380225e+01    0.3585908    0.2676637 -32.49    0.0012282    1.247    0.198
         5 -11.2883    237.9861     10.1765   6.0543945943e+01   2.4880733152e+01    0.2897334    0.2306439  59.65 0.0008424094    1.428    0.300
         6 -10.1719    223.0245      7.9802   6.1030730730e+01   2.8312146238e+01    0.1829797    0.1623636 -49.45            0    1.013    0.013
         7  -9.8605    184.8384      8.4689   6.4451965009e+01   3.7295598413e+01      0.20034    0.1295652  71.64  0.001010194    1.534    0.348
         8  -9.6556    143.0380      8.1241   6.9568603255e+01   4.8092713564e+01    0.2228949    0.1772248  36.79 0.0004371161    1.267    0.211
         9  -9.3985    117.0346      7.3138   7.3871696085e+01   5.4930632285e+01    0.1938504    0.1769938  52.10  0.000443145    1.056    0.053
        10  -9.9589    209.8127      6.2338   6.1563643284e+01   3.1472755331e+01    0.1820997    0.1552346 -54.14 0.0004481527    1.085    0.078
        11 -10.0161    187.2945      4.4409   6.2979184375e+01   3.7042437257e+01    0.2085846    0.1971476  -9.25 0.0002362365    1.121    0.108
        12 -13.3010    166.8177      2.3218   6.4380898297e+01   4.2401696470e+01    0.3438696    0.2531375  68.76 0.0008302185    1.305    0.233
        13  -9.1667    126.8132      8.1366   7.2314721046e+01   5.2329351547e+01    0.1950532    0.1540086  29.18  0.000310657    1.276    0.216
        14  -9.6621     69.1731    230.1794   1.3903224289e+02   2.0194594055e+01     0.149916    0.1269872  35.90 0.0003336399    1.176    0.149
        15 -10.6819    228.6713    250.1671   1.1209696274e+02  -1.9623204143e+00    0.1788837    0.1060753  28.54 0.0009598703    1.372    0.271
        16  -8.9102    192.2856    250.7222   1.1818625503e+02   2.2801070233e+00   0.09334981   0.06970291  36.67  0.000187228    1.513    0.339
        17  -9.7790    149.9563    226.8225   1.2288707782e+02   1.0612106955e+01     0.180228    0.1291852  13.39 0.0009809153    1.344    0.256
        18 -10.4407    204.4724    225.8450   1.1273080094e+02   3.4605319631e+00    0.2751144    0.1274351  35.86   0.00115949    1.831    0.454
        19  -9.7899    238.3183    223.9525   1.0678232642e+02  -5.8869693507e-01    0.1490572    0.1043952   2.62 0.0003974666    1.091    0.084
        20 -10.8636    180.3723    222.9222   1.1663875120e+02   7.0100834082e+00    0.4418603    0.1340186  33.43    0.0016251    2.702    0.630
        21 -10.3659     63.4366    220.0918   1.3945340364e+02   2.2502628129e+01    0.2486176    0.1163459  54.58  0.001035515    1.987    0.497
        22 -10.1560     88.7875    219.7191   1.3428810242e+02   1.9634471842e+01     0.211747    0.1614423  10.02  0.001166162    1.596    0.373
        23 -10.5377    124.4632    215.7990   1.2659865509e+02   1.5673927138e+01    0.2242933    0.1375847  34.43 0.0007816115    1.313    0.238
        24 -10.8153    202.6500    211.9951   1.1097572091e+02   5.3210143748e+00    0.3673141    0.1923399 -38.83  0.001423917    2.308    0.567
        25 -10.6964     59.3450    214.7638   1.3990511737e+02   2.3869918940e+01     0.424395    0.1236006  39.33  0.001393117    2.441    0.590
        26 -10.7711      3.2747    214.2571   1.5096671475e+02   2.9148782791e+01    0.2203441    0.1594829  17.90   0.00102085    1.722    0.419
        27  -9.8356     90.0072    211.2694   1.3324621245e+02   2.0910058855e+01    0.1636963    0.1281868  39.27 0.0003052285    1.056    0.053
        28 -10.4173    157.9137    209.8377   1.1909475978e+02   1.1905563840e+01    0.1834361    0.1361445  16.58 0.0003032117    1.200    0.167
        29  -9.2289     96.7913    208.9307   1.3158314760e+02   2.0455673075e+01     0.132494   0.09499086 -61.51 0.0004525732    1.656    0.396
        30 -10.0164     89.8374    206.1344   1.3277605269e+02   2.1824470002e+01     0.148295    0.1295394  14.75 0.0003162972    1.277    0.217
        31 -10.6124    210.0865    203.9797   1.0837991989e+02   5.2666597752e+00     0.209473    0.1446514 -21.62 0.0003343126    1.443    0.307
        32 -10.1301    250.4664    202.2152   1.0137032744e+02   1.2600745500e-01    0.1598016    0.1071412 -17.94 0.0002809451    1.363    0.266
        33 -12.5276    190.4399    200.9259   1.1146309146e+02   8.4446389943e+00    0.9155117    0.2858227  45.35  0.003218646    4.617    0.783
        34 -10.6457    180.4725    202.4357   1.1359214753e+02   9.6899853556e+00    0.2161636    0.1550051  30.27 0.0005007139    1.198    0.166
        35 -11.0842    183.3343    201.6933   1.1292844446e+02   9.3745021002e+00    0.2026469    0.1949225  59.13 0.0007793844    1.591    0.371
        36  -9.8576     47.0310    201.5016   1.4155838327e+02   2.7573013738e+01    0.1726333   0.09581378  33.15  0.001034505    1.594    0.373
        37 -10.0243    128.2469    200.1482   1.2385601967e+02   1.7668441407e+01    0.1978773    0.1434685  25.27 0.0003097096    1.241    0.194
        38  -9.3599     36.9526    199.3328   1.4356579821e+02   2.8979808375e+01    0.1521126    0.1174678  49.62 0.0004137403    1.079    0.073
        39 -11.0488    214.2494    196.8110   1.0645628686e+02   5.5578916976e+00    0.3101453    0.2825811  47.16  0.001712932    1.793    0.442
        40 -11.9379    149.4648    195.6601   1.1875431631e+02   1.5288138115e+01    0.3466444    0.2633329  -1.51  0.001300117    1.434    0.303
        41 -12.9985    156.0086    194.1884   1.1717610864e+02   1.4536102919e+01    0.6146078    0.3205785  45.77  0.002881887    2.019    0.505
        42 -12.2902    200.7220    193.3899   1.0830870709e+02   7.9397620396e+00    0.5593814    0.3345463  -0.83  0.001847686    1.886    0.470
        43 -11.4342    208.0484    191.0674   1.0657782559e+02   7.1686540459e+00    0.3382689     0.230992 -17.35  0.000741342    1.392    0.282
        44 -11.9904    165.8622    194.9593   1.1528897325e+02   1.2931109704e+01     0.325715    0.2436304  46.53  0.001988244    1.521    0.343
        45 -12.1555    142.2106    193.4041   1.1994332577e+02   1.6736683229e+01    0.4639961    0.3221721  69.43  0.002405102    2.473    0.596
        46 -12.1390    143.8039    189.0797   1.1895510751e+02   1.7208775004e+01    0.3030701    0.2523434 -82.20  0.001850163    1.772    0.436
        47 -11.2695     47.2148    194.4935   1.4103122088e+02   2.8885902566e+01    0.2999378    0.2833602   4.36 0.0007497239    1.348    0.258
        48  -9.2530     31.2242    194.0227   1.4448144609e+02   3.0533914383e+01    0.1358389   0.08338558 -82.65 0.0005609837    1.615    0.381
        49 -10.3820    129.9684    192.1667   1.2239204410e+02   1.8762597578e+01    0.1953761    0.1830818 -75.19 0.0003303683    1.319    0.242
        50 -11.0502    128.4777    188.4722   1.2219052296e+02   1.9620666547e+01    0.2361422    0.1885515   3.38 0.0007100748    1.382    0.276
        51 -11.5858    117.9871    190.4511   1.2478440543e+02   2.0808597339e+01    0.3953585    0.2569398 -67.06   0.00121026    2.031    0.508
        52 -10.2728    227.1521    190.5070   1.0314453035e+02   4.5066778195e+00     0.289242    0.1881049 -26.87  0.001832324    1.538    0.350
        53 -11.7262    231.1638    187.4485   1.0193098783e+02   4.3089422606e+00     0.307068    0.2306282 -19.26 0.0004603278    1.321    0.243
        54  -9.8925     10.5984    192.3946   1.4879023177e+02   3.2605262994e+01    0.1678694   0.09005223  57.75  0.001068189    1.501    0.334
        55 -10.1681    106.9502    190.3176   1.2722947691e+02   2.2397549973e+01    0.1858124    0.1422239  35.23  0.001148757    1.133    0.117
        56  -9.3927     75.4675    189.9305   1.3431331140e+02   2.6595717038e+01    0.1689208   0.09282275  76.11 0.0008084957    2.564    0.610
        57 -15.5113    183.5120     80.1961   8.6318643735e+01   2.8522542966e+01     2.077461     1.240741  71.27  0.005890734    2.546    0.607
        58 -15.3963    192.5768     75.6895   8.3444866691e+01   2.7166498074e+01     2.247606     1.344055 -82.66  0.007467907    4.324    0.769
        59 -14.2621    240.7128     95.5255   8.1218278344e+01   1.4547215704e+01    0.4623644    0.3970295  47.63  0.001110133    1.388    0.279
        60 -15.3638    210.8885     64.2529   7.7457340637e+01   2.4699144290e+01     1.221708    0.8172056  -1.35  0.005921409    1.781    0.438
        61 -10.4486    243.5961    247.7727   1.0942495917e+02  -3.4200201371e+00    0.1169199   0.08324637 -18.42 0.0003384445    1.597    0.374
        62 -10.1758     99.0083    139.2845   1.2144322060e+02   3.3893966712e+01    0.1898146      0.17545  39.56 0.0002688995    1.046    0.044
        63 -12.2765    140.8557    172.2001   1.1689100104e+02   2.0575700294e+01    0.2989131    0.2660242  -4.14   0.00106167    1.139    0.122
        64 -12.5116    128.8058    180.0662   1.2086969619e+02   2.1059712533e+01    0.4028524    0.2749158 -33.61   0.00222452    1.715    0.417
        65 -10.1490      6.9653    131.0184   1.4662033084e+02   4.5956400090e+01    0.1747974    0.1468122  85.58  0.001204208    1.019    0.018
        66 -13.1281    112.7904    121.0674   1.1396262435e+02   3.5584969518e+01    0.6880544    0.5083331  -7.77  0.003252445    1.782    0.439
        67  -9.9046    233.6967    172.1459   9.8705833720e+01   5.7910141490e+00    0.1945478    0.1509951  30.44  0.001281305    1.397    0.284
        68 -12.1219     98.9407    117.6331   1.1714577307e+02   3.8743226545e+01    0.5206767    0.3849267  16.52 0.0001115883    1.583    0.368
        69 -10.7618     90.4853    116.6495   1.1944149600e+02   4.0348324243e+01    0.2764349    0.1829688  30.21 0.0009653801    1.577    0.366
        70  -9.9739     56.8067    116.5017   1.2988717635e+02   4.5059407149e+01    0.2420945    0.1768682 -66.16 0.0002809024    1.290    0.225
        71  -9.2313     11.6352    113.7387   1.4395379185e+02   4.9757985229e+01    0.1221056   0.08330365 -43.07 0.0004379512    1.640    0.390
        72 -12.6064    126.8327    109.3792   1.0733596111e+02   3.5446436476e+01    0.5836941    0.3574752  38.20  0.002295235    1.631    0.387
        73 -11.3809    131.3110    104.6921   1.0493586224e+02   3.5519348066e+01     0.355572    0.2605963  15.11  0.001246041    1.634    0.388
        74 -10.9643    112.6859    109.1997   1.1120612907e+02   3.8191356702e+01    0.3582873    0.2382894  11.81 0.0009028031    2.128    0.530
        75 -11.3118    100.5187    106.1944   1.1403875910e+02   4.1059354127e+01    0.4035611    0.3395418   6.84  0.001348107    1.332    0.249
        76  -9.9579     29.1077    106.4204   1.3747535312e+02   5.0298927158e+01      0.27941    0.1682344  71.63  0.001398682    1.860    0.462
        77 -11.8541    123.6542    176.6447   1.2151777870e+02   2.2472394476e+01    0.3572851    0.2485387  89.35  0.001771102    2.422    0.587
        78 -12.1862    214.6503    185.7714   1.0447028623e+02   6.8797723296e+00    0.4470583    0.2744756   6.04  0.002338975    1.624    0.384
        79 -15.4152    232.9961     78.8490   7.8227505467e+01   1.8175986493e+01     1.157295     0.752957  24.33  0.005952856    1.859    0.462
        80 -10.1024     87.3669     88.6215   1.1369588768e+02   4.7343680690e+01    0.3123975    0.1607081 -33.91  0.001169704    2.462    0.594
        81 -11.0907    116.8464     84.7533   1.0334983683e+02   4.2594065548e+01    0.4605414    0.2540997  48.89  0.001049767    1.937    0.484
        82  -9.7279     49.3342     84.6051   1.2639052117e+02   5.3744056887e+01    0.2572984    0.1255853  33.34   0.00112741    2.155    0.536
        83 -12.6427    230.0050    164.6910   9.7889502549e+01   7.2733066653e+00    0.2605558    0.1959007   8.15 0.0004787254    1.095    0.087
        84 -12.9747    125.7547     77.5078   9.8609009579e+01   4.2148418783e+01    0.3767147    0.3245571  28.43 0.0006710009    1.170    0.145
        85 -12.1059    131.3183     72.4258   9.5495350006e+01   4.1874205402e+01    0.4950404    0.4015957 -65.27  0.001946984    1.541    0.351
        86 -11.0920    102.0087     78.6746   1.0600663063e+02   4.6864308314e+01    0.2719528    0.2170472 -40.87 0.0002424029    1.217    0.178
        87 -10.7043     95.8414     77.6177   1.0767787066e+02   4.8279321783e+01     0.381144    0.1873876  37.62 0.0008078577    2.126    0.530
        88  -9.7331     25.4628     77.8378   1.3445480096e+02   5.7679016408e+01    0.1792119    0.1685118 -50.51 0.0004960492    1.106    0.096
        89 -11.1797    136.5237     74.4859   9.4810932159e+01   4.0308455848e+01    0.3470832    0.2404413  22.90  0.001518188    1.735    0.424
        90 -11.9512    233.5495    163.4561   9.7061365715e+01   6.8929570978e+00    0.3603408     0.218437  40.50 7.284651e-05    1.791    0.442
        91 -10.8671     33.3261    177.5342   1.4298413280e+02   3.3631987058e+01    0.3255697    0.1685526 -80.58  0.001116113    1.899    0.473
        92 -12.8328    141.8886     61.6686   8.9313808360e+01   4.1312862881e+01    0.8545684    0.4068279  42.62  0.003071942    2.198    0.545
        93 -11.4751    145.4061     68.7906   9.0821294365e+01   3.9264032820e+01    0.3634461    0.2457402 -24.91  0.001121956    1.526    0.345
        94 -11.0493    119.6175     69.5313   9.7743862441e+01   4.5042637958e+01    0.3133509     0.276863 -83.02 0.0008334141    1.413    0.292
        95 -12.1881    128.6095    164.0584   1.1832487678e+02   2.4056047533e+01     0.420414     0.288591  73.17  0.001196959    2.425    0.588
        96 -11.3457    130.5797     65.8671   9.3530342396e+01   4.3245228166e+01    0.2833443    0.2470993 -69.72  0.001375701    1.389    0.280
        97 -10.1063    125.7694     66.5869   9.5050658545e+01   4.4217616123e+01    0.2145477     0.150061  60.40 0.0009333116    1.672    0.402
        98 -12.3439    141.9878     69.4693   9.1853366053e+01   3.9948291129e+01    0.6750522     0.408835 -55.63  0.002688404    2.213    0.548
        99 -10.5230     99.9994     61.5303   1.0096960661e+02   5.0807680419e+01    0.3457058    0.1970452 -58.83  0.001290884    2.596    0.615
       100 -10.5675     18.3543     62.0883   1.3453243883e+02   6.2062397440e+01    0.2030441    0.1900459  28.99 0.0003596451    1.251    0.201
       101 -10.5351    100.9645     69.3571   1.0334965041e+02   4.9027321666e+01    0.2569513    0.2093883 -51.39 0.0005823916    1.296    0.229
       102 -10.3205     55.9778     60.9156   1.1738971446e+02   5.8584725731e+01    0.2120464    0.1922695 -37.89 0.0003241861    1.009    0.009
       103  -9.5879     96.1071    166.0942   1.2652103083e+02   2.8624160898e+01    0.1764307    0.1429635  59.93 0.0004472655    1.266    0.210
       104 -10.7486     46.3907     57.9940   1.2067123338e+02   6.0486212073e+01    0.2576292    0.1990471  24.63 0.0001419479    1.413    0.292
       105  -9.6107     56.3114    164.6653   1.3632117074e+02   3.4008037609e+01    0.1339362   0.08164301  62.30 0.0007044504    1.681    0.405
       106 -11.4855    126.8379     56.1323   9.1144703818e+01   4.5833169874e+01    0.4178781    0.2306112  37.71  0.001377153    1.980    0.495
       107 -10.0870     36.7206     52.7062   1.2354406923e+02   6.2795991363e+01     0.423884    0.1747452 -60.79  0.001547075    2.264    0.558
       108 -11.5064    120.9804    161.9820   1.1979193905e+02   2.5683110657e+01    0.2548375    0.2292755 -15.11  0.001065988    1.190    0.160
       109  -9.5719     29.3341     50.3099   1.2643677219e+02   6.4066384211e+01    0.1436611   0.08622509 -33.76 0.0007043123    1.676    0.403
       110 -11.6447    119.0259    158.3114   1.1964274772e+02   2.6720841818e+01    0.2862496    0.2068219 -59.02  0.001076997    1.574    0.365
       111 -11.8772    118.8560    153.1527   1.1878217659e+02   2.7783581281e+01     0.420987    0.2206266  43.00  0.001745958    1.828    0.453
       112 -11.3833    123.4904     48.9711   8.9416515476e+01   4.7830217831e+01    0.3704808    0.2250735  71.99  0.001431504    2.468    0.595
       113 -11.4432    118.3577     46.4295   8.9833215813e+01   4.9466474879e+01    0.4012258    0.2954645 -81.82 0.0009379383    2.106    0.525
       114 -12.4584    119.9450    149.5903   1.1786502687e+02   2.8326907069e+01    0.5797292    0.2820871  37.80  0.001884365    1.919    0.479
       115 -11.1501    146.7726     36.5768   7.9497661602e+01   4.3903135347e+01    0.3970662    0.3053351 -85.95  0.001911954    1.622    0.383
       116 -11.5571    141.7448     34.8759   7.9891035658e+01   4.5408643702e+01    0.4674626    0.2796422  51.87  0.001657145    1.614    0.380
       117  -9.3339    135.0029     37.2241   8.2207116681e+01   4.6792424966e+01    0.2012233    0.1920854  12.08 0.0002147925    1.011    0.011
       118  -9.8442     96.2374     37.2094   9.2701724082e+01   5.6060674525e+01    0.2165169    0.1920165   5.94  0.000692233    1.086    0.079
       119 -14.7714    222.5742     75.7959   7.8863802802e+01   2.0675142707e+01    0.5633755    0.4243354 -33.54  0.001427897    1.207    0.172
       120  -9.5635    236.2625    177.2563   9.9239442671e+01   4.8015806427e+00    0.1453141    0.1253274  11.69  0.000632405    1.331    0.248
       121 -10.0497    132.7281     31.8219   8.0650133178e+01   4.8103857811e+01    0.3696008    0.2034747 -23.10  0.001544111    1.884    0.469
       122 -10.6147     77.4249    154.7228   1.2968706909e+02   3.3605645097e+01    0.2523495    0.1812362  62.94  0.000705126    1.476    0.322
       123 -10.1493    141.0456     29.9573   7.8204152610e+01   4.6226175186e+01    0.2197542    0.2071607  19.27 0.0003050545    1.041    0.039
       124  -9.5135    250.5204     27.5726   6.3850169319e+01   2.0637994041e+01    0.1799246    0.1039483 -27.06  7.37869e-05    1.469    0.319
       125 -10.7759    250.5627     24.0469   6.3010005980e+01   2.0983924232e+01    0.2171449    0.1387519 -28.76 0.0004017608    1.322    0.243
       126  -9.5222    250.1997    153.5524   9.2476744939e+01   5.6264456097e+00    0.1557751    0.1080862  29.98 0.0004446605    1.446    0.308
       127  -9.2693    132.0444    246.5509   1.2846765745e+02   1.0274975780e+01    0.1676248   0.08032176  35.51 0.0004312871    1.543    0.352
       128 -10.2319      8.0225    152.9836   1.4760334602e+02   4.0926354470e+01    0.1664748    0.1379219  73.86            0    1.017    0.017
       129  -9.9306    247.4577    173.9130   9.6827293215e+01   3.6195812884e+00    0.1665351    0.1236326   3.16 0.0003403158    1.030    0.029
       130 -10.6725    129.4430     24.1898   7.8360215303e+01   4.9911637552e+01    0.2862357    0.1850147 -67.19  0.001201809    2.226    0.551
       131 -10.2214    201.5740     21.6538   6.6657418709e+01   3.1931581831e+01    0.2177964    0.1973337  60.61 0.0002517555    1.164    0.141
       132 -11.2351    159.7032     20.0720   7.1388969000e+01   4.2559278341e+01    0.3418356    0.2829653  14.09 0.0006113026    1.310    0.236
       133  -9.2017     34.4764    150.4805   1.4060290802e+02   3.9370342851e+01    0.1211879    0.1080048  79.94  0.000809596    1.038    0.037
       134 -10.8087     14.7005    149.3891   1.4569977510e+02   4.1248113690e+01     0.284481    0.2227675 -83.02   0.00136533    1.164    0.141
       135 -10.9067    197.5105     18.0561   6.6034139951e+01   3.3270464551e+01    0.2352124    0.2041727  65.21 0.0003435791    1.192    0.161
       136 -10.0119    223.1851    245.2060   1.1230711027e+02  -8.6421319606e-01    0.1326333   0.09973408  21.37 0.0004082317    1.315    0.239
       137 -10.8168    214.9249    244.0162   1.1350082485e+02   2.3014611825e-01    0.2164863    0.1574456  17.87 0.0004627042    1.137    0.120
       138  -9.6745    169.1982     13.8897   6.7969881187e+01   4.0744444686e+01    0.2080188    0.1782193 -54.81 0.0003810374    1.184    0.155
       139 -11.3812    226.0497    240.3835   1.1117394692e+02  -7.3650441862e-01    0.3241601    0.2103833  -0.47  0.001780785    1.293    0.226
       140  -9.9361     65.9344    242.1825   1.4044395155e+02   1.8656119788e+01     0.160009    0.1053718  49.62 0.0003260737    1.191    0.160
       141  -9.6395     14.3282    242.3259   1.4976408902e+02   2.3582811578e+01   0.07984905   0.07334207 -24.16  0.000705022    1.700    0.412
       142  -9.8481    127.0217    238.0313   1.2854102919e+02   1.2058697524e+01    0.1718054    0.1292144  30.56 0.0004704834    1.036    0.035
       143  -9.7296     10.9734    146.4436   1.4648591684e+02   4.2173601507e+01    0.2257444    0.1360031  50.55 0.0006518493    1.508    0.337
       144 -10.0937    236.5336    234.8240   1.0869089914e+02  -1.4351403092e+00    0.2278278    0.1016741  20.03  0.001329397    1.950    0.487
       145  -9.8880    122.6693    230.8929   1.2863377660e+02   1.3631897074e+01    0.1450133    0.1252974  37.39 0.0003826708    1.133    0.117
       146  -9.2498      7.3082    231.6270   1.5069891848e+02   2.5879300116e+01    0.1106145   0.04612695  56.65 0.0007032276    1.771    0.435
       147  -8.9685    153.6997    230.7088   1.2265115328e+02   9.5868253877e+00    0.1115073   0.07488032   9.73 0.0002254346    1.565    0.361
       148 -12.0707    212.9509    171.7718   1.0220220555e+02   8.9680867655e+00    0.3605143    0.2722679  47.14  0.001123728    1.763    0.433
