#   1 NUMBER                 Running object number                                     
#   2 MAG_AUTO               Kron-like elliptical aperture magnitude                    [mag]
#   3 X_IMAGE                Object position along x                                    [pixel]
#   4 Y_IMAGE                Object position along y                                    [pixel]
#   5 X_WORLD                Barycenter position along world x axis                     [deg]
#   6 Y_WORLD                Barycenter position along world y axis                     [deg]
#   7 A_WORLD                Profile RMS along major axis (world units)                 [deg]
#   8 B_WORLD                Profile RMS along minor axis (world units)                 [deg]
#   9 THETA_WORLD            Position angle (CCW/world-x)                               [deg]
#  10 FWHM_WORLD             FWHM assuming a gaussian core                              [deg]
#  11 ELONGATION             A_IMAGE/B_IMAGE                                           
#  12 ELLIPTICITY            1 - B_IMAGE/A_IMAGE                                       
         1 -12.6963    202.4453     20.9422   6.4494339590e+01   3.2335962956e+01    0.6614169    0.2973177 -71.03  0.002422783    3.506    0.715
         2 -12.6408     43.3842     20.1578   1.0084441717e+02   6.5763733396e+01    0.7288043    0.3576336  22.80  0.002446299    2.170    0.539
         3 -13.2728    216.1901     14.3198   6.1447419891e+01   2.9835050131e+01    0.9402413    0.4839145  88.65  0.004512178    1.996    0.499
         4 -14.1431    186.1760      7.3018   6.3071343931e+01   3.7722624039e+01     1.068517    0.7364203 -70.78  0.006094817    1.478    0.323
         5 -12.4809     57.1762      6.6537   8.9975352620e+01   6.5346650690e+01     0.544753    0.4808605 -51.93  0.003872731    1.862    0.463
         6 -11.1268    109.9930      8.9721   7.6052268349e+01   5.5313964397e+01      0.18443    0.1506783 -74.63 0.0007765852    1.664    0.399
         7  -9.9773    148.6874      8.2958   6.8505788787e+01   4.6620523038e+01    0.1272545   0.09300663 -75.64 0.0002803221    1.598    0.374
         8 -11.8983     43.4469      8.4785   9.5826984353e+01   6.7144207343e+01    0.2985546    0.2146898  34.86  0.001181947    1.477    0.323
         9 -12.4261    165.9857      2.0000   6.4211855996e+01   4.3062007862e+01    0.5766667    0.1983307  66.92   0.00241386    2.368    0.578
        10 -10.0348    133.6794     18.3049   7.4243261410e+01   4.9173907052e+01    0.1283634   0.09884423 -76.08 0.0003506831    1.634    0.388
        11 -12.0594    221.8559    248.8426   1.1161444252e+02  -1.0152268938e+01    0.5985625    0.2490755  44.94  0.002800631    2.416    0.586
        12 -10.7332    149.1378    222.7049   1.2153953019e+02   6.5792882706e+00    0.2321141    0.1886573 -74.94  0.001328276    1.423    0.297
        13  -9.9386    174.0000    221.0151   1.1620315732e+02   2.3317994147e+00    0.2081681   0.07871991 -46.57 0.0008048211    2.959    0.662
        14 -10.8400    115.4858    209.2643   1.2653706978e+02   1.5316659970e+01    0.2689753    0.1892217  81.49  0.001378531    1.603    0.376
        15 -11.2379      4.8796    199.4622   1.4784021172e+02   3.2372378702e+01    0.2799659    0.1610069  55.84  0.001015998    1.592    0.372
        16  -9.7912    133.3091    195.8003   1.2053944796e+02   1.4946495895e+01    0.2710179    0.1305998 -62.18  0.001044857    2.509    0.601
        17 -12.2313    159.4981    191.8061   1.1407901785e+02   1.0716352560e+01    0.6762509    0.4565038 -83.76  0.002592817    2.348    0.574
        18 -10.5128    183.3708    183.3351   1.0731090938e+02   7.6441529380e+00    0.3556354    0.1857331 -38.96   0.00146902    2.056    0.514
        19 -10.9176    223.8914    183.1517   9.9155896767e+01  -2.4892362406e-01     0.209751    0.1960019 -60.15    0.0012384    1.276    0.216
        20  -9.9795    210.3931    182.7811   1.0168528459e+02   2.3845890849e+00    0.2071493    0.1303841 -29.16 0.0009546618    1.720    0.419
        21 -10.0624    217.3272    187.6540   1.0132442538e+02   1.8284239569e-01     0.136458    0.1135943 -84.60 0.0007050211    1.749    0.428
        22  -9.9922    191.6714    178.3259   1.0455290795e+02   6.9511001603e+00    0.1476411    0.1183807  88.08 0.0007050325    1.701    0.412
        23 -11.1519     34.6863    173.5684   1.3948889781e+02   3.5135580936e+01    0.2319387    0.1297627  87.13  0.001195443    1.796    0.443
        24 -10.5492    121.2388    169.2309   1.1853416294e+02   2.3177341852e+01    0.2411354    0.1212713 -65.54  0.000830816    2.467    0.595
        25 -11.3064     55.5712    167.5669   1.3397821888e+02   3.4076388829e+01    0.3941725    0.2425071 -82.83  0.001358269    1.590    0.371
        26 -10.0968     44.3218    168.3475   1.3669538961e+02   3.5263879495e+01    0.1284301   0.08976883 -45.14 0.0007049348    1.739    0.425
        27 -10.0339    138.4048    164.2170   1.1346675297e+02   2.0960421151e+01      0.22443    0.1434605 -63.84 0.0009547035    1.765    0.433
        28 -10.3986    122.3444    163.3192   1.1712451193e+02   2.4338933762e+01    0.1499577    0.1222852 -10.43 0.0007049394    1.724    0.420
        29 -10.7644    167.3239    157.3168   1.0531741269e+02   1.6419174927e+01    0.3169053    0.2275563 -89.96  0.001330489    2.044    0.511
        30 -11.2058    105.3815    156.3284   1.1992210966e+02   2.9136067404e+01    0.6169414    0.2987676 -61.09  0.002423387    2.144    0.534
        31 -11.4984     28.6835    156.5205   1.3885862005e+02   3.9700719466e+01    0.3629215    0.1769045 -86.57  0.001248718    2.208    0.547
        32 -10.9121    119.0933    157.2151   1.1669775260e+02   2.6388951519e+01    0.3057906    0.2104321  61.82  0.001390313    1.610    0.379
        33  -9.5438    237.3341    156.3069   9.1035945551e+01   1.9938026703e+00    0.1435877    0.1071642   1.73  0.000184108    1.669    0.401
        34 -10.2224      6.5266    155.9711   1.4386887833e+02   4.1774791505e+01     0.181895   0.09077445 -74.11 0.0005133374    1.534    0.348
        35 -10.4389    232.3894    153.1786   9.1235055841e+01   3.5226479923e+00    0.2127576    0.1245688 -48.08 0.0009522826    1.744    0.426
        36 -10.1251     23.7211    153.6178   1.3967428094e+02   4.0846952595e+01    0.1562869    0.1049905  50.60 0.0006131272    1.611    0.379
        37 -10.6370    218.4818    156.4694   9.4519262170e+01   5.7006961807e+00    0.3120207    0.1384534 -40.60  0.001208647    2.159    0.537
        38 -10.5336    189.9084    150.2957   9.8835978810e+01   1.2982701857e+01    0.3622549    0.2173456 -57.72  0.001420683    2.012    0.503
        39 -10.2728     11.9996    148.7463   1.4186136250e+02   4.2978429649e+01    0.1681317    0.1342325 -79.58 0.0007674613    1.044    0.043
        40 -10.9359    106.7677    145.2227   1.1733054219e+02   3.1527582088e+01    0.4759845    0.2768038 -89.27  0.001573082    3.568    0.720
        41 -10.2440    148.4763    144.9816   1.0690008942e+02   2.3220464007e+01    0.2265283     0.136407 -70.91 0.0008099662    2.542    0.607
        42  -9.9198     87.3251    143.6609   1.2206438431e+02   3.5239398347e+01    0.1522217    0.1081647  80.86 0.0007051311    1.726    0.421
        43 -10.0361    124.3246    142.6514   1.1229875858e+02   2.8780599772e+01    0.1626198    0.1198775  86.25 0.0007049283    1.749    0.428
        44  -9.9627    181.6769    141.3345   9.8512768796e+01   1.6670833012e+01     0.161389    0.1238079 -83.60 0.0007050635    1.709    0.415
        45  -9.6722    225.4872    139.4573   8.9426894136e+01   7.4721986198e+00    0.1457158    0.1368664 -39.61 0.0002927284    1.012    0.012
        46 -10.4186    244.5055    136.5212   8.5501744109e+01   4.1541967981e+00    0.1415502    0.1273115 -42.91 0.0001097996    1.041    0.040
        47 -10.5382     82.9980    131.5245   1.2076064148e+02   3.8824864744e+01    0.3226151    0.1787393 -74.12  0.001272377    2.444    0.591
        48 -10.1600    131.3945    130.5925   1.0772054867e+02   3.0122315370e+01    0.3176547     0.138381 -60.37 0.0009556097    3.397    0.706
        49 -11.9881     98.3461    127.4701   1.1568517519e+02   3.7234198729e+01     0.679136    0.3465106 -72.58  0.002170937    3.689    0.729
        50 -10.8597     42.8360    122.3370   1.3012414233e+02   4.6260882102e+01    0.3895939    0.1580302 -78.26  0.001169647    5.089    0.804
        51 -11.9734    193.2615    118.6216   9.0623370539e+01   1.8688825824e+01     0.620562    0.4500161 -70.54  0.002265232    1.705    0.413
        52 -10.8696    249.1810    123.3717   8.1864489505e+01   5.5716715217e+00     0.328882    0.1342576 -54.18  0.001097408    3.464    0.711
        53 -11.2839    141.8142    112.6574   1.0059872156e+02   3.1859071406e+01    0.5103124    0.2710499 -25.28   0.00162814    3.351    0.702
        54 -10.5284      2.0862    115.0214   1.4022751037e+02   5.1278109090e+01    0.1818616    0.1384903 -71.83 0.0007083013    1.048    0.046
        55 -10.7444     58.4067    123.6084   1.2598161456e+02   4.4163949688e+01    0.2770147    0.1215378 -73.28 0.0009550151    3.442    0.709
        56 -10.5728    174.0369    110.9541   9.2685605170e+01   2.4762014676e+01    0.3702151    0.2210976 -49.32 0.0009847967    1.701    0.412
        57 -11.3254    159.4585    110.2406   9.5749731930e+01   2.8340425345e+01    0.5846502    0.1507369 -43.42  0.001593681    3.819    0.738
        58 -11.3802    121.7851    110.7138   1.0522928488e+02   3.6580495022e+01    0.4579199    0.1778466 -40.60  0.001519835    2.758    0.637
        59 -10.4308     77.8418    111.6666   1.1780395158e+02   4.4253082986e+01    0.3155748     0.168428 -74.76  0.001096169    3.462    0.711
        60 -10.3704     60.0239    110.0512   1.2269099293e+02   4.7100215284e+01    0.2125422    0.1756755 -46.93 0.0008923737    1.097    0.088
        61 -10.7256     13.7391    108.2101   1.3598108310e+02   5.2032219946e+01    0.4633543   0.07850046 -59.46  0.001716956    3.328    0.700
        62 -12.1961    140.8282    101.5480   9.7873178588e+01   3.4426959601e+01     0.644208    0.4401869 -29.89  0.002828828    1.664    0.399
        63 -11.0842    127.7021    100.5099   1.0092927490e+02   3.7529468594e+01      0.41842    0.1773352 -44.69  0.001500682    2.326    0.570
        64 -10.4757     81.7157    100.5798   1.1392265096e+02   4.6139364864e+01    0.2446211    0.1737265 -71.61 0.0007062122    1.760    0.432
        65 -11.5072    106.9475     97.8526   1.0583651141e+02   4.2311466843e+01    0.4103884    0.2088165 -51.18   0.00154172    2.010    0.503
        66 -12.8227    170.2790     90.9830   8.8216131746e+01   2.9595371359e+01    0.4620994    0.3688117 -61.47 0.0008314053    1.330    0.248
        67 -10.2538     94.4985     93.0070   1.0808510891e+02   4.5628875579e+01    0.2128594    0.1168764 -27.34 0.0006800573    2.558    0.609
        68 -11.7414     43.6638     99.9174   1.2543430916e+02   5.1279350553e+01    0.5809724    0.2978059 -74.81   0.00244282    2.818    0.645
        69 -10.0470     24.5253    103.4548   1.3199370183e+02   5.2273407380e+01    0.1247791   0.09959221 -56.50 1.319603e-05    1.020    0.020
        70 -11.3916     42.3740     87.8011   1.2306948692e+02   5.4046815842e+01    0.3461268    0.2105369  -1.68  0.001736658    2.353    0.575
        71 -10.1514     86.4585     87.5127   1.0895149087e+02   4.8152134524e+01    0.1397874     0.130843 -37.09 7.768504e-05    1.047    0.045
        72 -10.6535    140.6322     81.9684   9.2400172367e+01   3.8332253023e+01    0.3587773     0.144164 -39.18  0.001262875    2.527    0.604
        73 -10.7028    104.3751     83.1746   1.0237758612e+02   4.5807794817e+01    0.2153538    0.1317855 -52.50 0.0009544862    1.790    0.441
        74 -10.4497     45.4416     81.9265   1.2059620826e+02   5.4955610811e+01    0.1977569    0.1101382 -53.80 0.0006114219    1.577    0.366
        75 -11.7739    223.6772     71.5448   7.3827463784e+01   2.0112412430e+01    0.2992985    0.2407883  89.28 0.0001953041    1.233    0.189
        76 -10.0891     51.7062     70.0109   1.1519848601e+02   5.6635068678e+01    0.1873789    0.1455621 -39.93 0.0005945985    1.119    0.106
        77 -11.8381     20.7493     51.1430   1.2098742948e+02   6.3235823150e+01    0.5106969    0.2774284 -54.73  0.002964768    1.739    0.425
        78 -11.4348     19.6417     58.9303   1.2362363336e+02   6.1881315033e+01    0.3131186     0.179238 -39.52  0.001392619    1.397    0.284
        79 -13.5251     30.8319     59.6475   1.1965776332e+02   6.0811714822e+01    0.9488255    0.6401637  18.72  0.005065721    1.648    0.393
        80 -12.1027     40.0974     51.7627   1.1377622659e+02   6.1322185692e+01    0.5157427    0.2065069 -42.15  0.001743563    2.103    0.525
        81 -12.7860    233.4272     61.5226   7.0178163237e+01   1.9453915270e+01    0.8307525    0.4209199  85.72  0.003260671    2.878    0.653
        82  -9.9033    160.7663     60.9808   8.1801492880e+01   3.7153599734e+01    0.1939911    0.1879374  80.83 0.0002212413    1.027    0.027
        83 -10.8658     48.0742     57.2491   1.1259673040e+02   5.9450163793e+01    0.2682528    0.1782088 -11.97  0.001521716    1.640    0.390
        84 -10.9747    149.8121     52.7819   8.1650411241e+01   4.1064442547e+01    0.2961431    0.1958296  56.31 0.0003950121    1.420    0.296
        85  -9.7662    173.0542     49.6464   7.6263470921e+01   3.5838675001e+01    0.1928988    0.1681682  69.61  0.000347061    1.065    0.061
        86  -9.7422     82.6261     47.3012   9.7373321596e+01   5.6074400611e+01    0.1226353    0.1070202  89.26 0.0007029288    1.754    0.430
        87 -10.2959    156.9885     44.9987   7.7896733164e+01   4.0442114054e+01    0.2202574    0.1947144  59.19 0.0005331217    1.048    0.046
        88 -10.3253     69.5289     38.0034   9.8305159466e+01   5.9617687934e+01    0.2335108    0.1132727 -29.79 0.0006406089    2.043    0.510
        89 -11.2951     75.5962     43.2871   9.8212090806e+01   5.7866728899e+01    0.3120162     0.192133  26.70   0.00165432    1.664    0.399
        90 -10.7954     70.3014     42.3146   9.9624352734e+01   5.8863136639e+01    0.3230286    0.2345457  69.00  0.001637723    2.703    0.630
        91 -10.4373      9.8826     43.8579   1.2312904126e+02   6.5321858702e+01    0.1894412    0.1480086  11.74 0.0006577898    1.460    0.315
        92 -10.5028      5.6471     42.8173   1.2454120277e+02   6.5772007977e+01    0.2798413    0.1846046 -72.48  0.001731367    2.252    0.556
        93  -9.6989    238.5249     43.5513   6.5560199600e+01   2.0951662643e+01    0.1338306    0.1120979 -74.57 2.730589e-05    1.004    0.004
        94  -9.5033    114.4938     42.5279   8.6585357657e+01   5.0579942800e+01    0.1366684    0.1242577  27.80  2.81141e-05    1.004    0.004
        95 -12.2753     42.0262     38.3307   1.0842925682e+02   6.3337216908e+01    0.4453727    0.3146395  12.26  0.001615808    1.385    0.278
        96 -11.0120    119.8885     34.0641   8.2404696699e+01   5.0517033326e+01    0.2982102    0.2601989  52.49  0.001062427    1.115    0.103
        97 -11.5807    103.9729     30.0731   8.5012484476e+01   5.4381705087e+01    0.5251009     0.338705  62.77  0.001834026    1.828    0.453
        98 -10.0837    248.0307    240.7555   1.0556638681e+02  -1.3017332741e+01    0.1504704   0.08757266  34.15 0.0004859257    1.552    0.356
        99 -10.5503    119.7121     22.8888   7.8679258592e+01   5.1848666542e+01    0.3267398    0.1382701  49.39  0.001180979    2.014    0.504
       100 -11.5573     22.4042    239.2167   1.4746370530e+02   2.2493054119e+01    0.3205855    0.1288931  72.37  0.001618993    2.485    0.598
       101 -10.6110    239.6359     20.9788   6.0623942335e+01   2.3684340942e+01    0.2310376    0.1656788  74.98 0.0007851103    1.304    0.233
       102 -10.0663      5.9032    236.1285   1.4996476280e+02   2.4854356388e+01    0.1340402    0.1021264 -87.27 0.0004133244    1.278    0.218
       103 -11.0351     12.5037    227.1237   1.4834454651e+02   2.5938342665e+01     0.214897     0.149499  83.89 0.0004689396    1.054    0.051
       104 -10.1548     89.0430     18.1965   8.4706857294e+01   5.8667424125e+01    0.1876949    0.1478322  81.17  0.001088351    1.979    0.495
       105  -9.7282      3.0131     17.7453   1.1734556664e+02   7.0018630380e+01    0.1382167    0.1020283 -18.78 0.0002860755    1.074    0.069
       106 -10.1691    104.4191    225.7095   1.3106098318e+02   1.3807601936e+01    0.2376501    0.1238988 -68.93  0.001128153    2.159    0.537
       107 -10.1546     77.0941    225.8629   1.3647504026e+02   1.8060034567e+01     0.205162     0.139836  70.50 0.0008514961    1.298    0.229
       108 -10.7005     96.2041    225.3973   1.3266362015e+02   1.5205947720e+01    0.1991097    0.1000568  52.19 0.0009580753    1.768    0.435
       109 -12.5030    227.2881    220.8736   1.0579773425e+02  -7.0360625107e+00    0.4426078    0.3315826 -47.16  0.002593761    1.653    0.395
       110 -10.1700    211.4189    218.2383   1.0831939724e+02  -3.9314851752e+00    0.1723656    0.1258779 -49.39 0.0006943552    1.661    0.398
