#   1 NUMBER                 Running object number                                     
#   2 MAG_AUTO               Kron-like elliptical aperture magnitude                    [mag]
#   3 X_IMAGE                Object position along x                                    [pixel]
#   4 Y_IMAGE                Object position along y                                    [pixel]
#   5 X_WORLD                Barycenter position along world x axis                     [deg]
#   6 Y_WORLD                Barycenter position along world y axis                     [deg]
#   7 A_WORLD                Profile RMS along major axis (world units)                 [deg]
#   8 B_WORLD                Profile RMS along minor axis (world units)                 [deg]
#   9 THETA_WORLD            Position angle (CCW/world-x)                               [deg]
#  10 FWHM_WORLD             FWHM assuming a gaussian core                              [deg]
#  11 ELONGATION             A_IMAGE/B_IMAGE                                           
#  12 ELLIPTICITY            1 - B_IMAGE/A_IMAGE                                       
         1 -15.6511    106.1360     65.7370   6.1161427421e+01   4.8644384010e+01     4.531725     2.572454  33.72   0.01873771    2.056    0.514
         2 -15.2199    124.8982     84.1363   6.1852534750e+01   4.0995900925e+01     2.970068     2.146748 -25.07   0.01372692    1.580    0.367
         3 -16.5455    154.6091    106.6766   6.0984072527e+01   2.9851169511e+01     5.057481      4.15661 -13.19   0.02506916    1.418    0.295
         4 -14.9697    136.8227     66.3313   5.3522611699e+01   4.1466618076e+01     6.639587     3.895247   9.91     0.019903    4.885    0.795
         5 -15.4385    176.2907    170.3945   7.1000780053e+01   1.2534234066e+01     3.159448     2.616196 -56.18   0.01714016    1.417    0.294
         6 -14.5053    134.6149    149.5148   7.6272940060e+01   2.4684551499e+01     5.058902     2.018224 -61.25   0.01276569    5.405    0.815
         7 -16.1203    182.7413    137.3629   6.2508582116e+01   1.7860436425e+01     3.697189      2.71604 -18.83   0.01819353    1.523    0.344
         8 -11.5747     12.2842     11.8017   7.8402452768e+01   7.3559056048e+01     0.220954    0.1619517   0.98 0.0007350385    1.140    0.123
         9 -10.2410     91.0501      8.7789   4.3688991407e+01   5.9714399021e+01    0.1772265   0.09464899  61.71 0.0005237192    1.664    0.399
        10 -10.2509     97.8801      5.8091   4.0950706868e+01   5.8391477940e+01    0.1675321    0.1465003 -71.57 0.0006957055    1.324    0.245
        11 -10.7318      2.2769      3.5611   8.0724274052e+01   7.5795904745e+01    0.3007752   0.07001396 -40.60  0.001225661    3.640    0.725
        12 -11.2636     93.5036    246.2731   1.0154651212e+02   1.0470441390e+01    0.4453273    0.2381929  36.57  0.001504447    1.540    0.350
        13  -9.5209    141.4723    250.0331   9.1810479933e+01   3.2853489293e+00    0.1526616     0.122737 -43.11 0.0003407124    1.462    0.316
        14  -8.9909    128.6263    250.7242   9.4579612049e+01   4.9247253582e+00    0.1257857   0.08712937   4.75 0.0007005167    1.691    0.409
        15  -9.7257     89.0165    250.2011   1.0289927540e+02   1.0336507661e+01    0.1739301    0.1481022  17.41 0.0004613359    1.266    0.210
        16  -9.7827     75.9195    250.3786   1.0568027071e+02   1.1983344940e+01    0.1680902    0.1265251  37.82  0.000421989    1.129    0.115
        17  -9.3458     67.5627    249.5731   1.0736423966e+02   1.3175136359e+01    0.1799892    0.1161252  54.58 0.0002446288    1.386    0.278
        18  -9.6865     70.9954    248.4947   1.0655135915e+02   1.2954208434e+01     0.168287    0.1290137  39.29 0.0003573516    1.115    0.103
        19 -11.0633     61.3422    247.8813   1.0852820151e+02   1.4254771365e+01    0.2513948    0.2182182 -14.78  0.001405345    1.571    0.364
        20  -9.4261     24.9600    250.5014   1.1609758971e+02   1.7822744277e+01    0.1535771    0.1198337  54.16 0.0003724268    1.053    0.050
        21 -10.0771     21.7126    248.1383   1.1661243204e+02   1.8608942888e+01    0.1676045    0.1458149  42.03 0.0004825048    1.262    0.208
        22  -9.1241     15.0183    250.7446   1.1804077714e+02   1.8772709871e+01    0.1312193   0.07948855  39.02 0.0002612803    1.412    0.292
        23 -10.6043     81.8123    246.2188   1.0404681217e+02   1.2012251709e+01    0.1933293    0.1834192 -26.39 0.0004139207    1.296    0.229
        24 -10.8580     71.7066    242.9842   1.0591280552e+02   1.3921074881e+01    0.2254293    0.1716676  35.91 0.0004289229    1.171    0.146
        25 -10.0690     75.4778    245.0446   1.0529184435e+02   1.3046898446e+01    0.2038926    0.1585239  21.87 0.0005330747    1.369    0.270
        26  -9.9013     78.8094    243.2152   1.0440513373e+02   1.2971687356e+01    0.1810055    0.1425488  48.85 0.0003618113    1.087    0.080
        27 -11.2219     42.3350    245.2092   1.1228233387e+02   1.6984623478e+01    0.2857991    0.2359383  -0.20  0.001349787    1.707    0.414
        28 -11.7996     33.3749    246.4331   1.1419051309e+02   1.7726418288e+01     0.244667    0.2067254  14.43  0.000629765    1.529    0.346
        29 -10.2412     37.4411    243.5350   1.1317995433e+02   1.7855242946e+01    0.2062128     0.164865   4.83  0.001251891    1.745    0.427
        30  -9.0052     16.4522    247.5355   1.1761263478e+02   1.9249832706e+01    0.1124029   0.08877297  60.99 0.0001757133    1.041    0.039
        31  -9.2291     12.8538    247.1876   1.1829568563e+02   1.9667244540e+01    0.1297994    0.1212928  58.70 0.0003967818    1.304    0.233
        32  -9.4746      7.7768    247.4494   1.1928453354e+02   2.0098569437e+01    0.1246302   0.09934684  30.17  0.000290879    1.438    0.305
        33  -9.5883    205.5031    245.9770   7.8550304298e+01  -4.4913983187e+00    0.1644367   0.08301774 -16.38   0.00076738    2.413    0.586
        34  -9.8052    136.0922    246.1465   9.2433904782e+01   4.6721798205e+00    0.1866616    0.1485865   6.06 0.0004963672    1.262    0.208
        35 -10.0322    133.9251    242.5860   9.2430516126e+01   5.5836740464e+00     0.191505    0.1780076  -7.06 0.0004996154    1.165    0.142
        36 -10.9280    104.3772    245.8046   9.9159795345e+01   9.0969064799e+00    0.2389291     0.180336  24.57 0.0007064227    1.242    0.195
        37  -9.9499    102.4210    242.4758   9.9211188193e+01   9.9757167414e+00    0.2048041     0.108219  32.61 0.0001630443    1.619    0.382
        38 -10.3432     87.5436    242.5256   1.0244760091e+02   1.1964453059e+01      0.18196    0.1128184 -49.94 0.0001033229    1.924    0.480
        39 -11.0952     57.9831    243.7127   1.0890216788e+02   1.5465583715e+01    0.2743405    0.2249298 -43.34  0.001179793    1.595    0.373
        40 -10.7401     56.7547    239.3187   1.0881049862e+02   1.6481514035e+01    0.2770821    0.2102473 -38.02  0.001299682    1.812    0.448
        41 -10.7288     50.2694    245.2049   1.1063679781e+02   1.6082235369e+01    0.1978054    0.1673566  47.11 0.0004680209    1.100    0.091
        42 -11.1339     50.7511    239.6075   1.1011646297e+02   1.7132981522e+01    0.4321874    0.3400257   9.23  0.002512552    1.660    0.397
        43  -9.8158     52.5558    235.4652   1.0940512321e+02   1.7757802817e+01    0.1825592     0.164192 -82.12  5.30685e-05    1.228    0.186
        44 -10.9787     49.0830    234.8655   1.1010902086e+02   1.8286540055e+01    0.3466898    0.2343223 -42.06  0.001782741    2.059    0.514
        45 -10.4589     54.5772    231.2459   1.0861773831e+02   1.8384689421e+01    0.2517361    0.2232181  10.87 0.0004021077    1.388    0.280
        46 -10.5697     57.5893    226.6199   1.0754689597e+02   1.8988858849e+01    0.3116006     0.213513 -21.05  0.001473089    2.411    0.585
        47 -11.1416     62.8617    221.2807   1.0585011655e+02   1.9474925443e+01    0.2201942    0.2110858 -15.72 0.0003533555    1.279    0.218
        48 -10.9079     59.0049    220.7270   1.0668516265e+02   2.0073452516e+01    0.5596173    0.3120671 -34.24  0.002452828    3.137    0.681
        49  -9.5348     66.8165    244.8232   1.0711989994e+02   1.4174924697e+01    0.1646878    0.1493483  39.94 0.0004161014    1.151    0.131
        50  -9.9594    196.8371    244.4219   7.9938700605e+01  -3.1987559388e+00    0.1734912    0.0944834  17.81 0.0009422128    1.725    0.420
        51 -10.4792    113.0235    243.2923   9.7008138537e+01   8.3703292669e+00    0.2309573    0.1887887   6.32 0.0006799373    1.331    0.249
        52 -10.2363     22.6406    242.4964   1.1613050263e+02   1.9620346919e+01    0.2762682    0.1493393 -77.23  0.001633417    1.863    0.463
        53 -10.3358     17.2394    242.5911   1.1721538857e+02   2.0140728498e+01    0.3068512    0.1866003 -37.70  0.001289477    2.939    0.660
        54  -9.7799      3.7233    242.9423   1.1987690340e+02   2.1350121597e+01    0.1917734    0.1469567 -51.49  0.001344698    1.811    0.448
        55 -10.0956    209.6053    243.1874   7.7362096665e+01  -4.6056731835e+00    0.1596893   0.09364557 -23.23 0.0005328085    1.618    0.382
        56  -9.6207    146.4531    242.9689   8.9831711690e+01   3.7680035565e+00    0.1697457    0.1212413 -39.99  0.001013083    1.571    0.364
        57  -9.8917    141.6256    242.1414   9.0736278749e+01   4.5816530156e+00    0.1959848    0.1506116 -31.81 0.0006504889    1.446    0.308
        58 -10.5857     36.9334    235.1184   1.1272872569e+02   1.9603794093e+01    0.1914064    0.1577481 -84.47 0.0003506816    1.254    0.203
        59 -11.5643     36.0519    229.0433   1.1249833761e+02   2.0959695939e+01    0.3186981    0.1991641  37.22 0.0004123581    1.435    0.303
        60 -10.1589     35.5452    239.2619   1.1329580636e+02   1.8913701465e+01    0.1842381    0.1741405  21.18 0.0006626012    1.347    0.258
        61 -12.4899     31.2914    234.0711   1.1385258792e+02   2.0425773359e+01    0.3315659    0.2371262 -86.26 0.0005428822    1.369    0.270
        62 -10.4085     30.0495    227.9119   1.1371761086e+02   2.1839124259e+01    0.3804609     0.207581 -48.03  0.001966855    2.531    0.605
        63 -11.1714     27.8879    223.8177   1.1391612666e+02   2.2934001341e+01    0.4198468    0.1887931 -69.68  0.001758497    2.187    0.543
        64 -10.6759     27.6530    241.9831   1.1508796994e+02   1.9207601215e+01    0.1853825    0.1821579 -87.84 0.0006493663    1.341    0.254
        65 -10.3461     31.4174    240.5477   1.1423196834e+02   1.9098382208e+01    0.2609895    0.1738902  53.57 0.0004265595    1.214    0.176
        66  -9.6464     10.7640    243.0513   1.1851463037e+02   2.0675087879e+01    0.1486058    0.1181898  68.20  0.000205605    1.069    0.064
        67  -9.5748     98.4304    241.7496   9.9998513657e+01   1.0653980639e+01    0.1523407    0.1177288 -43.32  0.000517979    1.548    0.354
        68 -10.5769     83.5731    241.1921   1.0317567114e+02   1.2742455255e+01     0.217674    0.1766506  23.43 0.0003933596    1.263    0.208
        69 -10.0869     63.6190    241.1845   1.0749215572e+02   1.5279067216e+01     0.291865    0.1469374 -74.30  0.001211769    2.277    0.561
        70  -9.3185    138.3913    240.8415   9.1247768727e+01   5.2584288726e+00    0.1641342    0.1128794 -32.53 0.0009326559    1.666    0.400
        71  -9.5966    126.5128    241.4999   9.3877954545e+01   6.8131054847e+00    0.1611915     0.118031 -35.30 -1.358304e-05    1.583    0.368
        72 -10.3357    132.7290    229.0765   9.0860334315e+01   8.1744537945e+00    0.4189641    0.2410057   3.59  0.001750324    2.925    0.658
        73 -10.6532    130.0631    235.6285   9.2342480839e+01   7.3616403755e+00    0.3518847    0.2295122 -16.03  0.001789252    2.128    0.530
        74  -9.8107    134.1446    232.1158   9.0973446735e+01   7.4111347561e+00     0.195224    0.1674326  23.00 0.0003483385    1.012    0.012
        75 -10.0376    126.6985    230.4417   9.2381794308e+01   8.7992749928e+00     0.214264    0.1589245  37.88 0.0004024912    1.210    0.174
        76 -10.1730    125.6715    234.5022   9.3152416251e+01   8.1955499659e+00    0.2743856    0.2172323 -15.47  0.000687753    1.459    0.315
        77  -9.6479    122.2948    241.3119   9.4763728049e+01   7.4378288158e+00    0.1880881    0.1601782  11.47 0.0003004085    1.169    0.145
        78  -9.3693    122.7311    237.6890   9.4210234835e+01   8.0312767571e+00    0.1897094    0.1644356   5.85 0.0001858575    1.185    0.156
        79 -10.2690    111.3890    239.0480   9.6857483265e+01   9.3759137080e+00    0.3977236     0.222639 -25.82   0.00152289    3.151    0.683
        80  -9.4961     91.2986    240.9554   1.0146772923e+02   1.1764926005e+01    0.1609401    0.1502586  43.49 0.0003927532    1.101    0.091
        81  -9.6254    155.6440    246.6380   8.8427503030e+01   1.9004138274e+00    0.1878437    0.1274541  -1.01 0.0006653774    1.648    0.393
        82  -9.3363    130.7515    240.4091   9.2825433759e+01   6.4100699831e+00    0.1719023    0.1078384  22.27 0.0003737396    1.519    0.342
        83 -11.2474     67.7868    239.0237   1.0640312568e+02   1.5190117304e+01    0.4792249    0.2043103 -65.31   0.00214558    2.563    0.610
        84 -10.0647     66.8539    230.7293   1.0584687398e+02   1.6984094403e+01    0.2029149    0.1706852 -47.32 0.0005291373    1.444    0.308
        85 -10.4745     78.9856    223.2364   1.0233174081e+02   1.6968619445e+01    0.2018611    0.1829952 -55.81 0.0003151763    1.256    0.204
        86 -10.7996     73.0163    222.2961   1.0360957409e+02   1.7956729702e+01    0.2135922    0.1996302 -80.19 0.0003971365    1.166    0.142
        87 -10.1756     75.6827    227.0038   1.0348826697e+02   1.6619088379e+01    0.2118639    0.1646049  37.93 0.0002982775    1.153    0.133
        88 -10.6711     75.4164    218.1219   1.0260356284e+02   1.8532921373e+01    0.2290887    0.1894957  35.78 0.0003915013    1.143    0.125
        89 -10.2016     71.5081    216.9157   1.0339092039e+02   1.9310028181e+01    0.2028486    0.1697831  26.08 0.0004127625    1.248    0.199
        90 -10.5350     72.6147    232.1852   1.0470031888e+02   1.5952397746e+01     0.284166    0.2256431   2.05  0.001330222    1.637    0.389
        91 -11.6019     71.5513    227.4283   1.0446968969e+02   1.7068405660e+01    0.3014169    0.2563057 -49.99 0.0001275838    1.388    0.279
        92 -10.1677    226.1601    239.1906   7.3754304045e+01  -6.0284134582e+00    0.1423978    0.1217961  -1.58 0.0003846049    1.312    0.238
        93  -9.6458    201.7792    239.4122   7.8229486526e+01  -3.1042992347e+00    0.1607444   0.09606923  17.33 0.0003170879    1.504    0.335
        94 -10.1242    118.1197    239.1409   9.5398841080e+01   8.4166028034e+00    0.1897395    0.1556746  11.78 0.0004563077    1.243    0.196
        95 -10.7715    104.0623    237.6264   9.8298018046e+01   1.0660920796e+01    0.3912703    0.2290999  15.66  0.001895329    2.141    0.533
        96 -10.1134    107.4266    233.3803   9.7046505264e+01   1.1001869974e+01    0.2028527    0.1799912   4.67 0.0008807447    1.220    0.181
        97 -10.8657     77.3189    238.2312   1.0424936067e+02   1.4134258395e+01    0.2191593    0.1874899  28.05 0.0004623295    1.191    0.160
        98  -9.9408    208.4909    238.4724   7.6827972697e+01  -3.8103036120e+00    0.1211552   0.09378543   1.63 0.0001429208    1.003    0.003
        99 -10.8644     42.0855    236.3430   1.1171959780e+02   1.8783469563e+01    0.3415178    0.2633787 -57.19  0.001368093    1.563    0.360
       100  -9.3628     17.4914    233.5564   1.1669681744e+02   2.1937023066e+01    0.1719481    0.1025897 -82.92 0.0001676864    1.611    0.379
       101 -10.3465     17.3280    237.4231   1.1693395871e+02   2.1165518195e+01    0.1871175    0.1359494 -89.15  0.001017729    1.308    0.236
       102  -9.5134     21.3621    238.2802   1.1616008283e+02   2.0592434113e+01    0.1533181    0.1396613  24.58  0.001124701    1.389    0.280
       103  -9.3897     20.8356    235.2116   1.1609900663e+02   2.1267833070e+01    0.2480806    0.1800182 -55.45 0.0003236971    1.733    0.423
       104  -9.7533      1.8376    237.5927   1.2002611855e+02   2.2580009857e+01    0.1622887    0.1299178  89.24 0.0005093254    1.237    0.192
       105  -9.3529    166.6703    237.6609   8.4875651275e+01   1.8293357518e+00    0.1326712   0.08686003  -2.85 0.0007051807    1.737    0.424
       106 -10.1220    156.9562    236.7687   8.6755484989e+01   3.3333755950e+00    0.1904557    0.1460307   9.74 0.0004254067    1.205    0.170
       107 -10.4984    146.0917    236.0849   8.8950871207e+01   4.9897181492e+00    0.1940784    0.1717377  -7.16 0.0004304282    1.146    0.127
       108 -10.2114    134.9063    236.7571   9.1444212389e+01   6.4675404691e+00    0.2005915    0.1661121 -14.04 0.0006591789    1.308    0.235
       109 -11.0003    101.9147    228.4151   9.7680265976e+01   1.2749140194e+01    0.2374652    0.2025025 -36.53 0.0001678873    1.360    0.265
       110 -10.8485     95.3777    235.9809   1.0002991465e+02   1.2171227491e+01    0.2185038    0.2066036 -33.00 0.0006060137    1.237    0.191
       111 -10.6772     99.5345    233.1015   9.8775268519e+01   1.2159471396e+01    0.2598261    0.2289978  86.39 0.0008994298    1.282    0.220
       112  -9.6994     72.3456    237.0550   1.0522706270e+02   1.5006003504e+01    0.1613832    0.1445876  75.62 0.0004400222    1.143    0.125
       113  -9.1102      8.8189    237.3687   1.1863980014e+02   2.1989220787e+01    0.1337287    0.1016271  24.92 0.0003190209    1.551    0.355
       114  -8.9856    189.6843    236.2963   8.0060510050e+01  -1.0794731821e+00    0.1090271   0.09456687  44.88 0.0003461535    1.606    0.377
       115  -9.1639    120.2760    235.3428   9.4446901161e+01   8.8109361984e+00    0.1258841   0.09511059 -10.18 0.0003460864    1.622    0.383
       116 -11.1385     90.7779    234.2600   1.0086196906e+02   1.3133792945e+01    0.2371457    0.1967872 -34.71 0.0004146236    1.471    0.320
       117 -10.0265    228.5306    234.4975   7.2583892400e+01  -5.6739356955e+00    0.1186809   0.08862236  -3.81 0.0001205832    1.010    0.010
       118 -10.1588    180.5582    234.2099   8.1537402249e+01   4.6952256471e-01    0.1676885     0.106529 -24.98 0.0006463073    1.621    0.383
       119 -10.2438    170.1763    233.7562   8.3568671122e+01   1.9755246097e+00    0.2335232    0.1411192 -16.99 0.0009518602    2.003    0.501
       120  -9.8848    162.2943    233.4561   8.5151238522e+01   3.1331194774e+00    0.2167898    0.1391685 -29.43 0.0008955809    1.685    0.406
       121 -10.2649    140.0132    233.4053   8.9877599476e+01   6.3312173868e+00    0.2098371    0.1649338 -18.85 0.0001705449    1.396    0.284
       122 -10.9056     77.1643    233.2831   1.0379459981e+02   1.5140682391e+01     0.221929    0.2052002 -39.60  0.000526128    1.308    0.235
       123 -10.1120     79.9309    229.3518   1.0276978510e+02   1.5575038722e+01    0.2013753    0.1739908 -42.23 0.0004022869    1.388    0.279
       124 -10.5552    146.4347    230.5244   8.8078181667e+01   5.9137519246e+00    0.2310638    0.1887143  10.78 0.0005855046    1.137    0.120
       125 -10.0764    152.8590    232.9201   8.7055223242e+01   4.5683662050e+00     0.228549    0.1746029 -24.30 0.0003492406    1.388    0.280
       126 -11.4390    152.7622    227.4736   8.6264418497e+01   5.5314534826e+00    0.4087855     0.272676 -34.12  0.001736615    1.616    0.381
       127 -10.3429    156.6059    223.8395   8.4883292181e+01   5.6097556642e+00     0.292556    0.1946285 -24.18  0.001157429    1.684    0.406
       128 -11.8713    114.6254    232.3417   9.5313443666e+01   1.0179842812e+01    0.2876753    0.2155516  21.33 0.0002134161    1.292    0.226
       129  -9.3863    166.4490    232.4831   8.4141603850e+01   2.7077963135e+00    0.1293988    0.1066785   8.70 0.0003409212    1.042    0.040
       130 -10.2661    121.7597    231.3471   9.3598189921e+01   9.3442747287e+00    0.2127232    0.1970275  -2.99  0.000326284    1.144    0.126
       131 -11.3078    124.9703    218.8238   9.1142821599e+01   1.1283784062e+01    0.5628356     0.322259 -22.05  0.001316529    2.931    0.659
       132 -11.0670     84.6707    231.3606   1.0191458396e+02   1.4535230223e+01    0.4050857     0.261719   8.04   0.00157789    2.201    0.546
       133 -11.6083     98.9437    223.6720   9.7777125049e+01   1.4123884295e+01    0.4438192    0.2706315  27.03  0.001726071    1.594    0.373
       134 -10.9477    104.8530    223.1075   9.6345948984e+01   1.3393533518e+01     0.247788    0.2251528  34.55  0.000384384    1.028    0.027
       135 -10.2896    109.0050    219.4193   9.4903719414e+01   1.3538303336e+01    0.2173704    0.1901041 -40.00 0.0003065499    1.273    0.215
       136 -11.0521    115.3184    192.0074   8.9321886299e+01   1.8414870979e+01    0.2672406    0.2369307 -12.70 0.0004475692    1.224    0.183
       137 -11.5314     92.5185    227.9176   9.9755519118e+01   1.4161738522e+01    0.3797278     0.277676  45.73  0.001125285    1.223    0.182
       138 -10.4905    119.6183    194.5257   8.8673868948e+01   1.7168341068e+01    0.2670933    0.2346627 -39.26 0.0003394486    1.196    0.164
       139 -10.6879     91.9010    221.9367   9.9193817901e+01   1.5473236704e+01    0.2962744    0.2189669 -42.82 0.0003881888    1.589    0.371
       140 -10.4500    104.8727    205.6134   9.3971720417e+01   1.7055570023e+01    0.3278947    0.1983826 -43.70 0.0004278284    1.864    0.463
       141 -10.5101    110.4033    191.0544   9.0393426631e+01   1.9415279069e+01      0.25988    0.2249501  -5.72 0.0004279673    1.290    0.225
       142 -11.7564    106.3066    187.7589   9.0896293076e+01   2.0816044205e+01     1.131126     0.543683  26.04  0.004403478    2.377    0.579
       143 -12.1954     85.8643    222.7462   1.0068730857e+02   1.6140281092e+01    0.6175917    0.3244861 -33.56  0.001799857    3.331    0.700
       144 -11.1010     98.0943    218.5006   9.7326611564e+01   1.5311301408e+01    0.4162105    0.2017214  37.94  0.001577268    1.803    0.445
       145 -11.8708    119.7221    201.7943   8.9812169756e+01   1.5584655883e+01    0.7173309    0.5095907 -75.14   0.00247647    1.856    0.461
       146 -11.7059    109.6868    226.3305   9.5654745552e+01   1.2053264576e+01    0.3600252    0.2509482 -32.13 0.0005963524    1.784    0.439
       147 -10.4866     89.0510    210.2989   9.8432719690e+01   1.8355588926e+01    0.2325529    0.1996758 -69.95 0.0002716669    1.248    0.199
       148 -12.1289    118.7314    217.1698   9.2340066781e+01   1.2550423926e+01    0.8894629    0.5369282 -16.73  0.003687185    2.851    0.649
       149 -10.7686    119.7042    211.0983   9.1232913873e+01   1.3639029519e+01    0.3464127    0.2448243 -39.84 0.0003568681    1.567    0.362
       150 -11.7922    104.2520    215.6837   9.5513913401e+01   1.5005791202e+01    0.5225844    0.4398166  80.95  0.001388471    1.366    0.268
       151 -10.8206    106.0752    210.3064   9.4346382694e+01   1.5868070479e+01    0.3258151    0.2249234  17.94 0.0002757195    1.603    0.376
       152 -10.9615    124.8615    210.9502   9.0004451595e+01   1.2877299838e+01    0.3045931    0.2452263 -70.32 0.0004181559    1.512    0.339
       153 -10.6274    126.8148    206.1819   8.8813321088e+01   1.3550269797e+01    0.2735293    0.2222346  -3.00 0.0003771403    1.367    0.268
       154 -10.5518    102.1393    197.0786   9.3395584051e+01   1.9353512995e+01    0.2354007    0.1922273  31.35 0.0003036956    1.172    0.147
       155 -11.6978     98.6565    211.7155   9.6311022195e+01   1.6663985697e+01    0.3802264    0.3292415 -19.32  0.001970122    1.349    0.259
       156 -11.9059     92.9661    211.3958   9.7631725623e+01   1.7557404719e+01     0.628998    0.2826917 -49.95  0.001317248    2.446    0.591
       157 -11.5995    111.5882    213.1681   9.3440786584e+01   1.4441077939e+01    0.3797213    0.2751794 -68.85   0.00174242    1.641    0.391
       158 -11.9082    114.9485    207.5423   9.1830983658e+01   1.5108715451e+01    0.5179604     0.378996 -54.48  0.002781026    1.482    0.325
       159 -10.6444    109.6927    196.0207   9.1357496570e+01   1.8417984021e+01    0.2995232    0.2521709  52.56 0.0003582423    1.203    0.169
       160 -11.8246    109.7356    203.1960   9.2439331813e+01   1.6838376245e+01    0.4289939    0.3056824 -63.51   0.00172067    1.571    0.363
       161 -11.3961    105.9471    198.5186   9.2666763993e+01   1.8446838604e+01    0.3065585    0.2510865 -51.14 0.0003181229    1.295    0.228
       162  -9.3280    194.4786    231.0882   7.8303048501e+01  -9.2372036580e-01     0.172034    0.1121789 -33.33 0.0005141314    1.525    0.344
       163 -10.0618    187.7429    230.8396   7.9579534703e+01   2.0100425195e-02    0.2209357     0.118788  -5.71 0.0009590041    2.836    0.647
       164 -11.3275    176.4500    227.6658   8.1337314348e+01   2.0909180266e+00    0.3162678    0.1714059 -28.69  0.001575176    2.038    0.509
       165  -9.7504    158.8111    228.8538   8.5185754936e+01   4.4118821413e+00    0.1924336    0.1523745   0.18 0.0003863132    1.221    0.181
       166 -12.7986    147.0023    190.4456   8.1426231330e+01   1.3522476456e+01     1.579605    0.8318129 -22.23  0.005538056    3.454    0.710
       167 -13.7127    141.0131    182.8171   8.1436510965e+01   1.6135415751e+01     3.345293     1.134361 -36.53  0.009253674    4.896    0.796
       168  -9.4932    124.1912    249.5650   9.5372202885e+01   5.7278644693e+00    0.1721337     0.104531  21.48  0.000549147    1.608    0.378
       169 -10.1491      1.9327    221.8069   1.1932976767e+02   2.5825640386e+01    0.2234006    0.1440908 -79.51  0.001071225    1.464    0.317
       170 -11.1554      5.3530    217.8035   1.1842183095e+02   2.6384306399e+01    0.6620102    0.2418614  68.05  0.002684323    2.789    0.641
       171  -9.5085      1.2418    218.3709   1.1931707254e+02   2.6617817576e+01    0.1630099   0.09038582  85.63 0.0009437386    1.585    0.369
       172 -10.4894    238.8234    226.0226   6.9421712489e+01  -5.7210873813e+00    0.1458193    0.1257403  26.31 0.0007064238    1.595    0.373
       173  -9.2846    184.4406    226.4927   7.9536519980e+01   1.1624361796e+00    0.1300206    0.1038608   1.76 0.0007402887    1.074    0.069
       174 -10.2501    162.2406    225.3856   8.3925577893e+01   4.5131583655e+00    0.2455918    0.2275762  68.57   0.00156919    1.485    0.327
       175 -11.2407    126.6620    224.8078   9.1611630361e+01   9.8694367516e+00    0.2487763    0.2243136 -22.15  0.000554531    1.197    0.165
       176 -10.0104    190.3268    225.0910   7.8139988170e+01   5.7180719286e-01    0.2008468    0.1346548 -16.50 0.0008249533    1.481    0.325
       177 -10.0077    167.4796    225.0236   8.2768231113e+01   3.8146657440e+00    0.1907475    0.1520583  18.79 0.0003267821    1.091    0.083
       178 -14.9342    194.6181    162.6107   6.5651984852e+01   1.0837580481e+01     2.610124     1.255839 -31.79   0.01084014    2.176    0.540
       179 -10.9056    174.1029    221.5062   8.0827055395e+01   3.4537752101e+00    0.4745929     0.239792 -28.49  0.002043672    2.343    0.573
       180  -9.8976    200.6460    222.0657   7.5632883377e+01  -3.6097561922e-01    0.2060521   0.08323885 -23.50 0.0007024863    4.303    0.768
       181 -10.9331     36.3294    210.2468   1.1102314659e+02   2.5024137621e+01    0.4455283    0.2815188  22.17  0.001435789    1.806    0.446
       182 -10.6210     43.9510    207.0874   1.0895742146e+02   2.4894275831e+01    0.3460265    0.2194451 -32.46  0.001698908    2.430    0.588
       183 -10.7687     70.8023    204.7974   1.0220692795e+02   2.2099704603e+01    0.3658524    0.2456168 -35.39  0.001826823    1.986    0.497
       184 -10.2308     36.7994    217.3027   1.1147039790e+02   2.3401646095e+01    0.2078533    0.1792003 -72.47 0.0003856981    1.260    0.206
       185 -11.5765     67.6711    200.9807   1.0253692031e+02   2.3389476926e+01    0.2631247    0.2489866 -17.55 0.0003162336    1.249    0.199
       186 -10.0601     37.3475    221.8700   1.1169372371e+02   2.2346375647e+01    0.2244689    0.2000319 -62.74 0.0004538922    1.324    0.244
       187 -11.8329     44.7966    218.9172   1.0978067780e+02   2.2154739674e+01    0.5855303    0.3062739  29.22  0.001832117    1.888    0.470
       188 -10.5885     64.8052    206.5656   1.0387350084e+02   2.2482134298e+01    0.3174468    0.2720123 -48.93 0.0004206917    1.336    0.252
       189 -10.5426     65.9181    215.9528   1.0460502386e+02   2.0244286551e+01    0.1881798    0.1717646  56.79 0.0003160926    1.049    0.047
       190 -10.6766     69.1382    212.7152   1.0349912384e+02   2.0541263120e+01    0.4242343    0.2484365 -83.13  0.002066441    2.018    0.504
       191 -11.8162     56.5780    210.4830   1.0626506488e+02   2.2630223978e+01      0.58057    0.3973375  62.56  0.002444591    1.414    0.293
       192 -10.9316     61.2994    214.1303   1.0550831888e+02   2.1230772282e+01     0.247226    0.2161745 -11.26 0.0004709151    1.466    0.318
       193 -10.0325     64.7634    211.4438   1.0440799551e+02   2.1389115704e+01    0.2262016    0.1733993  37.57  0.000370144    1.220    0.180
       194 -11.7594     42.8268    213.9947   1.0982200510e+02   2.3464501288e+01    0.4976968    0.4203404 -46.01  0.001931666    1.462    0.316
       195 -10.4656     46.7462    212.9956   1.0882330191e+02   2.3238910357e+01    0.1963685    0.1675935  61.19 0.0001886484    1.014    0.014
       196 -11.1328     61.0889    203.8137   1.0448276139e+02   2.3585235713e+01    0.4244934    0.2758693  -3.70  0.001606755    2.564    0.610
       197 -10.9851     55.6639    204.0143   1.0583277817e+02   2.4214600637e+01    0.2437355    0.2234586  42.66 0.0004454161    1.129    0.115
       198 -10.2472     56.9156    199.8821   1.0508994438e+02   2.5018421390e+01     0.193695     0.179737  68.69 0.0003067388    1.052    0.049
       199 -11.3582     54.1395    216.0246   1.0737189834e+02   2.1692624772e+01     0.561932    0.2742898 -51.89  0.002258674    2.391    0.582
       200 -10.9263     51.8434    212.5499   1.0758631084e+02   2.2739450877e+01    0.2244867    0.2208724  81.10   0.00044031    1.188    0.159
       201  -9.2570    179.4524    221.4089   7.9713718196e+01   2.6991673549e+00    0.1305917    0.1073305   5.50 0.0002511108    1.038    0.036
       202  -9.5426    166.8398    220.8054   8.2228002821e+01   4.6346635768e+00    0.1972468    0.1541732  -0.02  0.000493517    1.227    0.185
       203 -10.2371    163.7331    218.3549   8.2488953771e+01   5.5252184601e+00    0.4395139    0.2361228 -11.28  0.001645709    3.599    0.722
       204  -9.9199     67.9963    220.0993   1.0454500904e+02   1.9077324832e+01    0.1855765    0.1668795  48.86 0.0003001371    1.059    0.056
       205  -9.8056     79.9720    214.7759   1.0115034685e+02   1.8643684408e+01    0.1850026    0.1744358  -2.67 0.0003032834    1.228    0.186
       206 -10.6938     81.7433    218.7146   1.0118589394e+02   1.7554272898e+01    0.2212022    0.1942819  54.32 0.0004198739    1.041    0.039
       207 -11.3676     84.7394    214.2709   9.9956762066e+01   1.8097465733e+01    0.2531326    0.2149439  20.27 0.0002901662    1.251    0.200
       208  -9.5819     16.4679    219.4278   1.1612445106e+02   2.5014994674e+01    0.1192763   0.09841324  67.25 0.0001079948    1.032    0.031
       209  -9.2950    195.0115    218.0871   7.6051991175e+01   1.0412409914e+00    0.1517444    0.1247543  -6.77 0.0004384484    1.048    0.045
       210  -9.9554    156.9601    217.8293   8.3857845009e+01   6.6346108717e+00     0.197964    0.1586068   3.11 0.0003455483    1.209    0.173
       211 -11.2340    178.8694    216.3572   7.8993355409e+01   3.6354916919e+00    0.3968975    0.2090507  12.79  0.001699205    2.594    0.615
       212  -9.7891    169.8540    217.3271   8.1026566738e+01   4.7959865376e+00    0.1831729    0.1471504  12.20 0.0003857876    1.106    0.096
       213  -9.3359    232.4164    216.2859   6.8864408180e+01  -3.6026068257e+00    0.1290651   0.07567381  -1.69 0.0006969236    1.828    0.453
       214  -9.5294    161.0034    215.7279   8.2645035662e+01   6.4052742810e+00     0.185684    0.1536555  16.90 0.0004050928    1.072    0.067
       215 -10.5751     13.0786    215.5520   1.1663807284e+02   2.6177196289e+01    0.1981423    0.1795662 -71.10 0.0005533996    1.307    0.235
       216  -9.4836    200.4055    214.7389   7.4432994754e+01   8.2701713839e-01    0.1778772    0.1048148 -26.39 0.0009393951    1.650    0.394
       217 -11.1106    187.0299    214.1128   7.6955701162e+01   2.8274542560e+00    0.2014196     0.161659   2.06 0.0003726098    1.091    0.083
       218 -13.9468     93.5168    141.6851   8.5911972138e+01   3.4090239819e+01     2.490991      1.83301   5.56   0.01121687    1.771    0.435
       219 -10.1307     29.0444    214.0166   1.1298494046e+02   2.4951775946e+01    0.1819057    0.1574309  69.96 0.0003242014    1.053    0.051
       220 -13.6268     83.3537    199.0415   9.8373879020e+01   2.1687759489e+01      1.96436     1.273802 -47.50  0.009804898    1.710    0.415
       221 -12.4419     96.8459    199.5651   9.5076181670e+01   1.9597219919e+01     1.011378    0.4479838 -70.17  0.003172575    3.248    0.692
       222 -12.3237     94.0796    154.3528   8.8298959932e+01   3.0832227217e+01     1.105595    0.6415513 -17.45  0.003622386    3.651    0.726
       223 -11.9505     78.7899    157.3427   9.3261825197e+01   3.2496319642e+01    0.5294542    0.3230233  50.82  0.001478657    1.773    0.436
       224 -12.8695    116.6278    152.6535   8.1673765066e+01   2.7316413772e+01     1.469009    0.9265839   6.91  0.005511833    2.644    0.622
       225 -12.5229     36.5066    118.3969   9.9884798795e+01   4.8051257964e+01    0.6924034    0.6493413  56.04  0.001751435    1.158    0.137
       226 -13.5727     81.4954    167.2420   9.4168956556e+01   2.9598979229e+01     1.469495     1.039466  13.74  0.004914798    1.734    0.423
       227 -12.3067     97.7578    162.7813   8.8852548626e+01   2.8141608496e+01      1.04451    0.4169913  32.82  0.003698664    2.566    0.610
       228 -12.6616    104.0457    154.9322   8.5597417313e+01   2.9001976288e+01     1.000097    0.8395207   0.99  0.005010709    1.381    0.276
       229 -13.6936     26.4548    206.9318   1.1306555668e+02   2.6808672027e+01     2.308798    0.7219906  34.61  0.008620654    2.658    0.624
       230 -14.0170     33.7179    197.5975   1.1059348997e+02   2.8218056525e+01     1.624648     1.307001  48.59   0.01005156    1.165    0.142
       231 -13.6172     63.6916    161.7659   9.8370618647e+01   3.3515887127e+01     1.584065     1.134182  34.42  0.007980774    1.418    0.295
       232 -12.9899     73.1357    181.7227   9.8661943294e+01   2.7230699074e+01     1.140005    0.7917132 -55.69  0.005777261    1.462    0.316
       233 -12.4912     85.4477    177.6362   9.4750059460e+01   2.6445255323e+01     1.451179     0.842041 -26.24  0.005529476    2.924    0.658
       234 -13.5642     49.5307    201.3725   1.0706822424e+02   2.5564411311e+01     1.619126    0.6812936 -58.97  0.007093718    2.366    0.577
       235 -11.7682     55.3789    169.1951   1.0180782218e+02   3.2699523614e+01    0.2940741    0.2748437 -35.80 0.0005916296    1.205    0.170
       236 -14.7441     28.2923    126.3179   1.0402734431e+02   4.6785102027e+01     3.525206     1.709384  54.69   0.01432386    2.644    0.622
       237 -12.6246     63.5723    174.0272   1.0018710539e+02   3.0430704103e+01     1.233914    0.7339233 -14.46  0.004698568    3.238    0.691
       238 -13.3576     22.8941    171.0425   1.1099153263e+02   3.5749730279e+01     1.365611    0.6480373  71.85  0.005773526    2.487    0.598
       239 -14.7959     12.6447    175.4885   1.1407703547e+02   3.5546699941e+01     2.840089     1.314717 -67.71   0.01369609    1.903    0.475
       240 -14.1158     11.1849    131.4544   1.1035256425e+02   4.6823328396e+01     1.789883     1.045281 -50.81  0.007638848    1.622    0.384
       241 -14.1378     45.3951    176.7728   1.0550668242e+02   3.1987676396e+01     1.776218     1.363856 -20.01  0.009500543    1.737    0.424
       242 -14.8629     38.8640    161.4270   1.0550529384e+02   3.6600120024e+01     2.377939      1.69593 -86.77   0.01255361    1.360    0.265
       243 -14.6846     16.8891    156.2668   1.1124608020e+02   4.0008757721e+01     2.240922     1.669391 -22.35   0.01255906    1.733    0.423
       244 -13.3345     20.3705    142.2010   1.0870581995e+02   4.3338623281e+01     1.066121    0.6801184  -2.66  0.003935425    2.121    0.529
       245 -13.0206     47.1181    147.6674   1.0117844939e+02   3.9241996064e+01      1.65181    0.4656683 -70.63  0.004801592    4.144    0.759
       246 -13.4762     56.2243    148.4325   9.8502127254e+01   3.7932898899e+01     1.290691    0.9372815  71.11   0.00634821    1.554    0.356
       247 -14.9863     67.2362    136.6555   9.2981210545e+01   3.9506364486e+01      2.72871     2.169083  85.46   0.01364975    1.424    0.298
       248 -13.0548     62.0187    139.7405   9.5211981965e+01   3.9432706078e+01     0.815296    0.6554404  46.91  0.002782434    1.294    0.227
       249 -12.1843    180.7044    211.1234   7.7726192038e+01   4.2636113802e+00    0.3944443    0.1807128 -44.63  0.001785825    2.287    0.563
       250 -11.9188    183.5414    205.9292   7.6238838218e+01   4.7416443055e+00     0.325411    0.2053831  24.65  0.001012833    1.525    0.344
       251  -9.5063    113.4357    248.7535   9.7555763149e+01   7.3370626672e+00    0.1455684    0.1167365 -35.57  0.000395546    1.485    0.327
       252 -13.4549    141.0354    211.9622   8.6445231298e+01   1.0173119757e+01     1.672233    0.8964023  31.44   0.00783343    1.727    0.421
       253 -11.0515      1.9384    209.8922   1.1876396470e+02   2.8404402459e+01    0.3035948    0.2029513  86.83  0.001126401    1.282    0.220
       254 -10.3688      4.7571    206.9943   1.1799672902e+02   2.8810282455e+01    0.2689401    0.1813513  78.91 0.0009359717    1.253    0.202
       255 -11.4998    193.7632    209.6261   7.4837861063e+01   2.6030619443e+00    0.2734905    0.1855581  -7.54 0.0009385349    1.528    0.346
       256  -9.8307    225.2077    208.5533   6.8772697936e+01  -1.5549071507e+00    0.1963713    0.1179106 -29.21  0.000622545    1.455    0.313
       257  -8.9918    203.2853    208.2810   7.2752285180e+01   1.4637691360e+00    0.1283619   0.08628517  -4.95 0.0002499336    1.519    0.341
       258 -13.3683    156.0798    197.0776   8.0546241830e+01   1.0693453921e+01     1.834815     1.084871  13.66  0.007976107    2.211    0.548
       259 -10.2377    186.8468    246.7467   8.2205440125e+01  -2.2625968736e+00    0.2768088   0.08476038 -45.49  0.001127419    3.860    0.741
       260 -10.4607     39.0387    205.6859   1.1000530832e+02   2.5765309045e+01    0.2098385    0.1712805 -72.57  0.000375062    1.249    0.200
       261  -9.4510    116.4370    226.7749   9.4183784572e+01   1.0989131707e+01    0.1662133    0.1218092 -37.67 0.0003954401    1.570    0.363
       262 -11.0491    129.3415    201.0817   8.7402676733e+01   1.4208023270e+01    0.4517194    0.2135191 -39.13  0.001676619    2.511    0.602
       263 -10.6058    129.5579    194.4766   8.6254796615e+01   1.5565685416e+01    0.2657167    0.2237428  -9.65 0.0001316233    1.288    0.223
       264  -8.9919    217.6940    201.6340   6.8878759386e+01   5.1865181175e-01    0.1358421   0.08411557  -8.99 0.0007036726    1.746    0.427
       265 -10.7892    119.9846    224.2346   9.3038725146e+01   1.0964667415e+01    0.2282392    0.1917774 -20.69 0.0002842435    1.339    0.253
       266  -9.2191    202.3269    201.2678   7.1678788107e+01   2.7536104566e+00    0.1323612   0.08908205  -1.63 0.0004232193    1.574    0.365
       267 -11.0232    134.0721    200.4101   8.6176418022e+01   1.3588946353e+01    0.2422042    0.2118964 -34.24 0.0002947742    1.190    0.160
       268 -10.5898    186.3957    199.3124   7.4470466666e+01   5.4701512713e+00    0.2645039    0.1817333 -10.69 0.0007246655    1.563    0.360
       269 -10.2286     93.0038    198.4814   9.5880173074e+01   2.0413810176e+01    0.2259777    0.1865589 -42.43 0.0001070229    1.338    0.253
       270 -11.0004     73.8463    198.8433   1.0073524828e+02   2.3057790830e+01    0.2380766    0.2020211  59.74 0.0002777793    1.113    0.102
       271  -9.8277    210.1995    198.1850   6.9627103082e+01   2.1260105717e+00    0.1883521    0.1469906  -4.04 0.0003927234    1.134    0.118
       272 -10.9324    124.0822    197.4573   8.8068528043e+01   1.5816732562e+01    0.2392351    0.2165557 -35.32 0.0003367368    1.157    0.136
       273 -10.7296    114.2078    197.7559   9.0516825002e+01   1.7325363480e+01    0.2661291    0.2143009 -22.29 0.0003670201    1.435    0.303
       274  -9.8946    231.7458    197.1354   6.5588186352e+01  -6.7925887499e-01    0.2379542    0.1386042   1.58  0.001212118    2.120    0.528
       275 -10.3936    223.6392    196.0258   6.6792755711e+01   5.8607249220e-01    0.3485562    0.2149404  20.93  0.001887683    1.677    0.404
       276 -10.3247     12.6587    196.0346   1.1554005300e+02   3.0626784329e+01    0.1913998    0.1721029  45.11 0.0003628291    1.221    0.181
       277 -10.2328    202.5528    194.6241   7.0414801676e+01   3.8376120087e+00    0.3924384    0.2092357  13.93  0.001686755    2.636    0.621
       278 -10.6269     74.1411    194.0061   1.0004886212e+02   2.4147111677e+01    0.2167051    0.1893339  40.08 0.0003444483    1.109    0.098
       279 -10.5090    129.9030    177.7296   8.3193121880e+01   1.9159537559e+01    0.4434629    0.1984535 -50.65  0.001410988    2.281    0.562
       280 -11.0223    129.6518    172.9921   8.2359919111e+01   2.0263416459e+01    0.2603454    0.2240408  24.14 0.0002152109    1.152    0.132
       281 -10.5795    130.9325    189.0243   8.4983907881e+01   1.6507984065e+01    0.2341839     0.217315  37.60 0.0002990952    1.080    0.074
       282 -10.9766    124.9697    192.2512   8.6988431522e+01   1.6794480187e+01    0.2638837    0.2206983  -7.27 0.0003555465    1.323    0.244
       283 -10.3190    126.3697    188.1880   8.5949773903e+01   1.7448981103e+01    0.2510064    0.2426413  69.02 0.0003662238    1.128    0.114
       284 -11.0905    129.2095    185.1050   8.4710377891e+01   1.7648817108e+01     0.414993     0.254495 -40.33  0.001890632    1.737    0.424
       285 -10.8271    219.6070    192.1985   6.6801411817e+01   1.7588652648e+00    0.4266816    0.1515679 -32.05  0.001679687    2.911    0.656
       286 -10.7764    223.0508    190.2117   6.5819145663e+01   1.5922956647e+00    0.2682641    0.1405134 -23.63  0.001119765    1.974    0.493
       287 -10.8204    224.3938    173.9920   6.2485276430e+01   4.0449267294e+00    0.4877345    0.1517363 -36.42  0.001849994    2.911    0.656
       288 -10.1856    226.4148    177.8347   6.2883586178e+01   3.1151998059e+00    0.2211309    0.1519424 -11.85 0.0007617306    1.454    0.312
       289 -10.6183    224.3453    181.7670   6.3995815645e+01   2.7737414256e+00    0.3170493    0.1694617 -28.26  0.001432717    1.739    0.425
       290 -10.9491    222.4937    185.4903   6.5028461573e+01   2.4342430417e+00    0.2425852    0.1774907 -19.23 0.0008657261    1.185    0.156
       291 -11.5882    218.6350    183.8259   6.5395537217e+01   3.2675994729e+00    0.5093988    0.3209082 -31.58  0.002637378    1.391    0.281
       292  -9.5560    210.4613    192.1240   6.8455330429e+01   3.0889595056e+00    0.1845404    0.1142689 -34.37  0.000364625    1.464    0.317
       293  -8.7731    245.6586    191.7071   6.2296483839e+01  -1.6661990217e+00    0.1249799   0.07841622  -6.66 0.0007028126    1.654    0.396
       294 -10.2761    215.6671    190.4058   6.7176713896e+01   2.6149789299e+00    0.2043268    0.1667559 -13.34 0.0006839478    1.017    0.017
       295 -11.3913    210.2877    180.6475   6.6299411427e+01   5.0549848850e+00    0.4699422    0.2966039 -42.10  0.002490869    1.549    0.355
       296 -10.6018    198.9955    180.8453   6.8475309824e+01   6.7831860245e+00    0.3759285    0.1804351 -41.03   0.00169236    1.959    0.489
       297 -11.0347    204.3764    167.7001   6.4829678919e+01   8.2643916032e+00    0.6511982     0.369059 -27.34  0.002256976    1.803    0.445
       298 -10.1199    206.4744    185.0351   6.7857530553e+01   4.8848845931e+00    0.3203796    0.1660569 -23.62 0.0008522223    2.237    0.553
       299 -10.5327    204.3493    179.8688   6.7258552293e+01   6.1105049288e+00    0.2481855    0.2000935 -19.11 0.0004928562    1.090    0.083
       300  -9.9599    205.7099    188.9872   6.8755355592e+01   4.3239516725e+00    0.2045506    0.1557866 -10.54  0.000421082    1.217    0.178
       301 -10.4466    202.4712    187.5365   6.9096191202e+01   5.0655418541e+00    0.2244754    0.2165807  67.95  0.000817158    1.463    0.317
       302 -10.0322    205.5152    176.4125   6.6359760979e+01   6.5335570757e+00    0.2213479    0.1922182   8.73 4.672815e-05    1.128    0.113
       303 -11.1680    202.5231    173.4380   6.6334950798e+01   7.5393249636e+00    0.5056879    0.3143327  21.16  0.002491649    1.853    0.460
       304  -9.3217    237.5224    187.4481   6.2835167245e+01   3.8613762106e-02    0.1281849    0.0969739 -13.39 -1.697991e-05    1.108    0.097
       305  -9.5082    210.7575    187.2137   6.7474114982e+01   3.8677000908e+00    0.1739438    0.1303977  -7.44 0.0002619662    1.265    0.209
       306 -11.7841    120.2829    186.1241   8.7097524237e+01   1.8914873296e+01    0.3406695    0.2580751  33.69  0.001742264    1.264    0.209
       307 -13.2909     42.0844    131.7602   1.0027728752e+02   4.3973016041e+01     1.521855    0.7175665 -41.64  0.006025504    2.411    0.585
       308  -9.4021    243.4809    186.0245   6.1601591271e+01  -5.3326815805e-01    0.1876539   0.08640315 -20.88 0.0008101212    2.697    0.629
       309 -11.1864     85.9491    185.3048   9.5783212078e+01   2.4524406859e+01    0.2553752    0.2221084 -51.94 0.0003132694    1.205    0.170
       310 -11.6243     89.6765    181.0595   9.4154117165e+01   2.4980103778e+01    0.2680666    0.2401635   2.06 0.0003256437    1.254    0.203
       311  -9.3227    229.5416    185.2531   6.3763095184e+01   1.4737324666e+00    0.1758795    0.1009451 -25.24 0.0009112214    1.601    0.375
       312 -10.8718    134.6115    181.8329   8.2796995633e+01   1.7445509213e+01     0.263369    0.2331957 -21.23 0.0004615308    1.155    0.134
       313  -8.8843    229.3221    181.2826   6.3048211549e+01   2.1389394233e+00    0.1289192   0.08617264  -6.04 0.0004412524    1.592    0.372
       314  -9.4424    235.6235    180.1085   6.1770618017e+01   1.4410972684e+00     0.179714   0.09625957 -26.19 0.0003926276    1.732    0.423
       315 -10.3288    124.9126    170.4983   8.3079561235e+01   2.1661154037e+01    0.2544282    0.2057935 -47.87 0.0003537634    1.252    0.201
       316 -10.1475    124.0178    166.4946   8.2531253617e+01   2.2738774411e+01     0.263283    0.2087135 -41.72 -0.0001359391    1.277    0.217
       317 -11.5108    122.1256    178.9203   8.5360065095e+01   2.0225728220e+01    0.4336849    0.3363448  -8.02  0.000701657    1.570    0.363
       318 -10.6824    124.4140    174.8315   8.4028020922e+01   2.0760471346e+01    0.2461129    0.2315735   7.48 0.0003171813    1.056    0.053
       319 -10.6586    117.7861    175.4315   8.5830532871e+01   2.1760801138e+01     0.251109    0.2305032 -24.99 0.0002922798    1.129    0.114
       320 -11.6944    119.0077    169.6166   8.4430682679e+01   2.2896274842e+01    0.3727372    0.2982651 -72.66 0.0005773365    1.455    0.313
       321 -10.5920    110.0021    177.4793   8.8211085526e+01   2.2593582336e+01    0.4421439    0.2741633   1.01  0.001667834    2.849    0.649
       322 -10.5505    113.0891    174.6841   8.6909699446e+01   2.2729785384e+01    0.2626217    0.2327899 -41.24 0.0003970516    1.158    0.136
       323 -11.1279    112.1014    169.5286   8.6222705235e+01   2.4106871863e+01    0.4939865    0.2632451 -57.30  0.002023722    1.978    0.494
       324 -10.3454    115.3345    166.0382   8.4708216909e+01   2.4372713661e+01     0.263453    0.2262304  15.56 0.0004044168    1.233    0.189
       325 -10.3966    230.6593    176.6896   6.1943194064e+01   2.6873608066e+00    0.3667051    0.1719547 -49.90  0.001569154    2.866    0.651
       326 -10.3379    218.4965    177.7016   6.4239520284e+01   4.3087262252e+00    0.3206318    0.2005403  11.49 0.0009118132    1.963    0.491
       327 -10.0496    134.8367    176.6085   8.1764214568e+01   1.8550830107e+01    0.2292521    0.1911323 -30.83 0.0004814784    1.233    0.189
       328 -10.2621    103.0651    177.1083   8.9963585749e+01   2.3818009524e+01    0.2109122    0.2070684  16.47  0.000363038    1.036    0.034
       329  -9.6746     94.5291    176.9581   9.2204433930e+01   2.5215481966e+01    0.2188504     0.198394  -9.66 0.0003597237    1.231    0.188
       330 -10.7358     98.5666    175.1795   9.0828224661e+01   2.5002400553e+01    0.2558742    0.2318461  23.69 0.0003510996    1.128    0.114
       331  -9.8861    209.7840    174.1971   6.5127337528e+01   6.2475796732e+00    0.1813737    0.1372333 -10.48 0.0002687226    1.288    0.224
       332 -11.3634    107.0968    172.0491   8.8009004250e+01   2.4354602597e+01    0.3093563    0.2595159 -43.19 0.0003997302    1.229    0.186
       333 -10.5801    218.5562    172.2689   6.3164410796e+01   5.2160006188e+00    0.3369616    0.2028496  51.24  0.001603785    2.352    0.575
       334  -9.1126    241.6869    172.6809   5.9376208573e+01   1.7669952418e+00    0.1287194   0.08372331  -9.92 0.0007037336    1.649    0.394
       335 -10.3299    233.6378    172.0373   6.0550313934e+01   3.0090385245e+00     0.181936    0.1331133 -26.65 0.0004040774    1.130    0.115
       336 -10.9737     95.6673    170.7429   9.0848685144e+01   2.6537198357e+01    0.2773303    0.2449293 -38.51 0.0005688058    1.196    0.164
       337 -10.2455    133.8956    170.8446   8.0885112785e+01   1.9994941540e+01    0.2202443    0.1910337 -10.99 0.0004078465    1.222    0.182
       338 -11.0595    142.9007    169.8995   7.8491652963e+01   1.8593393879e+01    0.2912571    0.2411966 -10.77 0.0002757993    1.310    0.237
       339 -10.2166    138.1098    169.8712   7.9652726326e+01   1.9459129880e+01    0.3190897    0.2341288  -9.65  0.001320662    1.725    0.420
       340 -10.7189    147.8926    167.0333   7.6715247926e+01   1.8313266321e+01    0.3215477    0.2104423  37.00            0    1.522    0.343
       341  -9.9002    134.9297    166.8882   7.9844219114e+01   2.0694772180e+01     0.257323    0.2075641 -30.44 0.0003216758    1.289    0.224
       342  -9.7108    230.3591    170.2983   6.0754014225e+01   3.7693374771e+00     0.187497    0.1110469 -24.44 0.0006451103    1.600    0.375
       343 -11.0664    229.3836    165.4889   5.9970205837e+01   4.7051993349e+00    0.4480236     0.222056 -26.03  0.001521145    2.131    0.531
       344 -10.3695    234.1427    162.1209   5.8526253898e+01   4.5451419133e+00    0.2886048    0.1847329  -9.10 0.0005512654    1.874    0.466
       345 -11.3986    101.3936    169.4081   8.9061851450e+01   2.5931178948e+01    0.2713196    0.2477738 -15.34  0.001145003    1.190    0.160
       346 -11.4219    151.9994    167.2581   7.5790631762e+01   1.7519113494e+01    0.5224333    0.2111422 -46.79  0.001584457    2.458    0.593
       347 -10.1209    246.9153    167.2240   5.7518528857e+01   1.8945407929e+00    0.3613974    0.1995116  30.36   0.00195701    2.139    0.533
       348 -11.2728    129.0021    166.1182   8.1181495069e+01   2.1935393878e+01    0.2623755    0.2210316 -38.62 0.0003115866    1.196    0.164
       349  -9.4064    128.7494    162.2891   8.0475728973e+01   2.2856231965e+01     0.208042    0.1746296 -15.00  0.001040525    1.315    0.240
       350 -10.6608    106.9003    166.2526   8.6998953070e+01   2.5770873433e+01    0.2532485    0.2098457 -43.79 0.0002196971    1.233    0.189
       351  -9.3569    217.4067    166.3952   6.2197652248e+01   6.3972683518e+00    0.1338566    0.1098649 -15.83 0.0001972674    1.080    0.074
       352  -9.1156    212.5847    168.4331   6.3466796698e+01   6.8080181966e+00    0.1356032    0.1129681 -17.34 0.0001134304    1.045    0.043
       353 -10.8653    119.6675    163.0324   8.2979809666e+01   2.4316633280e+01    0.2595748    0.2315029  19.59 0.0001704903    1.144    0.126
       354 -10.8170    111.2190    162.4726   8.5116092148e+01   2.5934838719e+01    0.2636051    0.2433698 -32.13   0.00040038    1.110    0.099
       355 -10.1883    132.9158    161.9255   7.9342572390e+01   2.2179580735e+01    0.2195468    0.2071143 -11.17 0.0003312151    1.052    0.050
       356 -10.5250    124.4473    160.2805   8.1176761312e+01   2.4100420525e+01    0.2446947    0.2228927  12.00 0.0003444706    1.126    0.112
       357 -10.3347    212.9753    159.4757   6.1576246637e+01   8.3134194336e+00    0.5553309    0.1833086 -49.39  0.001730141    4.369    0.771
       358 -11.2698    217.0705    155.5690   6.0052217921e+01   8.3255555224e+00    0.4395473    0.2891786  28.93  0.001399294    1.724    0.420
       359 -10.3870    122.2190    155.7983   8.0837258698e+01   2.5552458072e+01     0.239516    0.2146691 -16.32 0.0004084899    1.178    0.151
       360  -8.9781    246.3358    157.2936   5.5684387141e+01   3.5334676890e+00    0.1258478   0.08577684  -8.05 0.0007026531    1.643    0.391
       361  -9.9520    237.8334    156.1108   5.6749276832e+01   4.9722795563e+00     0.224295    0.1451705 -22.69 0.0007924471    1.460    0.315
       362 -11.1601    227.8237    154.9776   5.8120231798e+01   6.6986693247e+00    0.3563515    0.1908277 -28.76  0.001246414    1.782    0.439
       363 -11.1482     84.6397    153.9689   9.0952133244e+01   3.2451440214e+01    0.2552978    0.2449248  35.16 0.0003392879    1.068    0.064
       364 -11.3182     84.8557    148.4566   8.9847201187e+01   3.3811900191e+01    0.3063394    0.2599699 -31.70 0.0005821889    1.279    0.218
       365 -10.1468    119.5784    158.4626   8.2084703711e+01   2.5405982227e+01    0.2462841    0.2333734  55.31 7.758132e-05    1.097    0.088
       366 -10.9086    208.4948    152.2820   6.0880589443e+01   1.0344578236e+01    0.3120368    0.2206273 -59.41  0.001182566    1.863    0.463
       367 -11.9902    214.1802    147.2090   5.8806220040e+01   1.0277200076e+01     0.522978    0.3303653 -31.34   0.00149583    1.439    0.305
       368 -10.4969    223.8431    149.9601   5.7747539066e+01   8.1871290759e+00    0.1999476    0.1553868 -16.05 0.0003220232    1.250    0.200
       369 -10.0820    226.6342    146.1858   5.6511140984e+01   8.3755682797e+00    0.2478164    0.1106786 -29.70 0.0006345416    2.347    0.574
       370 -10.8049    233.8354    146.6925   5.5474836893e+01   7.1349209543e+00    0.3095177    0.1458986  35.51   0.00141566    2.656    0.624
       371  -9.7398    206.2882    145.7051   5.9877316624e+01   1.1916772385e+01     0.192413    0.1472002 -17.44 0.0003621985    1.332    0.249
       372 -10.5731    208.7843    142.8645   5.8821167343e+01   1.1989916556e+01    0.2472141    0.2120388   7.09 0.0004347163    1.244    0.196
       373 -10.5906     98.7275    145.3456   8.5152913401e+01   3.2283418932e+01    0.2602478    0.2352161 -28.06 0.0002852919    1.161    0.139
       374 -10.6108    221.8488    144.7299   5.6988721360e+01   9.4148468126e+00    0.2417269    0.1737698 -39.51  0.001169671    1.226    0.185
       375  -9.3149    247.7855    142.9983   5.2653127884e+01   5.5866531520e+00     0.170096   0.08417655 -37.21 0.0003066914    1.631    0.387
       376 -11.0446    230.7176    141.2753   5.4846758873e+01   8.5388214000e+00    0.3040879    0.2177969   1.42  0.001656302    1.766    0.434
       377 -10.6215    214.7246    141.0522   5.7403046091e+01   1.1271988424e+01    0.1915779    0.1544354 -32.10 0.0002895318    1.077    0.071
       378  -9.4309    246.2954    137.3355   5.1731647606e+01   6.7153742084e+00    0.1269964   0.08803818 -12.88 0.0004659254    1.647    0.393
       379  -9.8330    219.9385    136.3521   5.5528972987e+01   1.1190636238e+01    0.1734397    0.1602339 -14.01 0.0003745971    1.106    0.096
       380 -10.7195    206.0158    134.9937   5.7592653561e+01   1.3911690735e+01    0.2133463    0.1904317 -32.62  0.000574642    1.024    0.024
       381  -9.3448    242.2896    134.6595   5.1759037021e+01   7.7705899778e+00    0.1261444   0.08963214 -56.51  0.000702324    1.645    0.392
       382 -11.6553     97.3059    132.0088   8.2661428915e+01   3.5835046204e+01    0.4314003    0.2806451 -51.71  0.001485493    1.498    0.332
       383 -14.3273    163.3342    128.4118   6.4503329940e+01   2.3548389456e+01     2.255936     1.490242 -12.37  0.009189883    2.283    0.562
       384 -10.4317     87.8847    130.6817   8.5234998934e+01   3.7803994943e+01    0.2425397    0.2010935 -40.75 0.0003402114    1.210    0.174
       385 -11.2466     96.7145    123.3314   8.0804351508e+01   3.8071518302e+01      0.28785    0.2615152 -31.43 0.0003009941    1.113    0.101
       386 -11.2599     86.8844    115.9175   8.2077026025e+01   4.1638465058e+01    0.5922592    0.3497591  26.05  0.001808268    1.966    0.491
       387 -10.8981     90.2101    109.4733   7.9361696936e+01   4.2604199322e+01    0.5746075    0.2312804 -41.88  0.001925026    2.671    0.626
       388 -11.2806     97.2826    117.8313   7.9275425974e+01   3.9300369510e+01    0.3007691    0.2634179   5.20 0.0004635758    1.258    0.205
       389 -11.2199     92.9619    115.1246   7.9940118666e+01   4.0746783652e+01    0.4005667    0.2770408 -45.71    0.0005224    1.408    0.290
       390 -11.9261     90.0763    121.3004   8.2375073357e+01   3.9757633028e+01    0.9794984    0.3765282  44.36  0.003267782    2.815    0.645
       391 -12.1186     96.3196    106.9185   7.6736554142e+01   4.2072171450e+01    0.5836136    0.3604727 -20.86  0.002185973    2.506    0.601
       392 -10.9760    100.1180    100.0916   7.3663918105e+01   4.2904323096e+01    0.4336644    0.3014779  26.90 0.0008438925    1.619    0.382
       393 -10.6777     77.1243    122.9123   8.6909415434e+01   4.1530568232e+01    0.5809771    0.3152409 -27.99  0.001873444    2.947    0.661
       394 -11.8922     81.3241    129.3354   8.6992468653e+01   3.9231312013e+01    0.5301077    0.2582981 -49.19  0.001179445    1.967    0.492
       395 -10.8448     82.2399    122.7896   8.5222661020e+01   4.0728278049e+01    0.4802701    0.3041816 -60.40  0.001501295    1.612    0.380
       396 -10.1392    108.8082    247.7148   9.8423920487e+01   8.1506333705e+00    0.1911448    0.1608977 -32.01 0.0009186143    1.418    0.295
       397 -11.1693     92.8034    128.9829   8.3334185099e+01   3.7379938697e+01    0.2913506    0.2503745 -43.05 0.0003129363    1.147    0.128
       398 -11.1138    206.5787    128.9322   5.6150000880e+01   1.4905001041e+01    0.2051106    0.1855171  10.06 0.0003357872    1.203    0.169
       399 -10.2024     50.0360    128.5348   9.7069148111e+01   4.3894829143e+01    0.2692502    0.1795473 -47.16 0.0004384324    1.456    0.313
       400  -9.6804    211.8331    127.1617   5.4866132020e+01   1.4249903752e+01    0.1834087    0.1495027 -14.48 0.0003123744    1.302    0.232
       401 -10.7464     87.2273    126.0027   8.4379102139e+01   3.9085810555e+01    0.2488668    0.2218036  17.46 0.0003320944    1.194    0.162
       402 -12.6498     75.8422    150.5930   9.2930121764e+01   3.4657935598e+01    0.7798884     0.577934  -4.30  0.003633095    1.798    0.444
       403 -14.1523    120.7604    137.5529   7.7223790596e+01   3.0122503540e+01     2.061764     1.888701  70.60   0.01067937    1.201    0.168
       404  -9.5099    208.3354    123.2827   5.4586235456e+01   1.5589976455e+01    0.1362783    0.1055677   0.37 0.0005779438    1.619    0.383
       405  -9.0781      1.8185    248.3600   1.2045106256e+02   2.0471796764e+01      0.13058   0.09563408  26.43 0.0002838369    1.588    0.370
       406 -10.0513      2.9111    123.3359   1.1214011240e+02   4.9436049943e+01    0.1739858    0.1540852 -59.53  0.000485433    1.114    0.103
       407 -11.5674     51.2155    114.5410   9.3916590037e+01   4.7370167651e+01     0.623249    0.4981122  64.87  0.001611985    1.459    0.314
       408 -11.4853     25.8010     95.4898   9.9529582052e+01   5.4909245193e+01    0.6834033    0.4217136 -16.26  0.003285318    1.975    0.494
       409 -10.4318     62.7388     95.5633   8.5181935079e+01   5.0512593329e+01    0.2408307    0.2216095 -26.13 0.0005261231    1.045    0.043
       410 -11.5386     34.8749     99.8940   9.6879680103e+01   5.2948516768e+01    0.8940945    0.4799223  77.47  0.003033759    4.037    0.752
       411 -10.5855     77.9564    113.1037   8.4316430505e+01   4.3845585572e+01    0.2585914      0.20657 -42.55 0.0003412565    1.217    0.178
       412 -10.4444     81.9138    111.9639   8.2714157167e+01   4.3462993117e+01    0.2348426    0.2168236  25.34 0.0002826861    1.119    0.106
       413 -10.7581     68.6051     97.9602   8.3676321573e+01   4.9038434151e+01    0.5636708    0.2577047  23.38   0.00187724    2.923    0.658
       414 -10.9697     74.8820     94.3840   8.0442037671e+01   4.8858623332e+01    0.3049753    0.2430385  -0.91 0.0004845158    1.445    0.308
       415 -11.0758     74.9244    100.7325   8.2175128325e+01   4.7353975013e+01    0.4974436    0.2524408  23.93  0.001310166    2.514    0.602
       416  -9.7620     80.7901     99.0279   7.9679706571e+01   4.6758508647e+01    0.2085818    0.2003917 -77.76  0.001128275    1.130    0.115
       417 -10.9927     56.6345    111.8514   9.1404519797e+01   4.7352356795e+01    0.2704878    0.2404121 -34.02  0.000304163    1.115    0.103
       418 -11.0883     59.8420    107.0833   8.9154622993e+01   4.8111699272e+01    0.2997025    0.2528152  -3.17 0.0004049444    1.307    0.235
       419 -10.5455     54.1687    107.4524   9.1296208142e+01   4.8791266105e+01    0.2629823    0.2249907 -36.44 0.0003567925    1.139    0.122
       420 -10.8478     71.7971    105.0574   8.4404445779e+01   4.6818330089e+01    0.2988188    0.2572292 -30.42 0.0002820273    1.164    0.141
       421 -11.6488     65.3725    103.3174   8.6238976121e+01   4.8238858485e+01    0.5132061     0.386193  75.56  0.001126755    1.819    0.450
       422 -11.7871     57.1233    101.0081   8.8672269233e+01   4.9997399740e+01    0.6050282    0.5014355   8.18   0.00165188    1.313    0.238
       423 -11.2977     41.1144    104.3410   9.5445463561e+01   5.1163022072e+01    0.3280839    0.2581438 -63.52  0.001303728    1.197    0.165
       424 -11.1787     74.7918    117.7696   8.6494722813e+01   4.3195396689e+01    0.2730546    0.2463947 -31.13 0.0004050574    1.118    0.106
       425 -10.6221     64.6207    117.6889   8.9917926679e+01   4.4756885094e+01    0.4950047    0.2613845 -36.02  0.001710139    2.304    0.566
       426 -10.7284     69.1410    116.5394   8.8113850842e+01   4.4379897490e+01    0.2923129    0.2492065 -30.26 0.0003231955    1.213    0.175
       427 -12.1215     69.0387    110.6574   8.6760816743e+01   4.5869383767e+01    0.8169581    0.4702368  57.86  0.003163247    2.522    0.604
       428 -11.0599     62.0829    112.7965   8.9692641407e+01   4.6360168542e+01    0.3408946    0.2607272 -28.75  0.000433441    1.421    0.296
       429 -11.2839     44.4198    107.8618   9.4965065015e+01   4.9894993466e+01    0.3399937    0.2206511 -43.42 0.0004501966    1.477    0.323
       430 -11.1395     49.5636    105.1419   9.2461485447e+01   4.9962967813e+01    0.3594279    0.2537709  27.47 0.0003688054    1.516    0.340
       431 -11.1552     28.4933    114.5708   1.0207020968e+02   4.9817333082e+01    0.2637484    0.2136684 -47.55 0.0002645376    1.159    0.137
       432 -10.4226     32.6889    112.1430   1.0012221328e+02   5.0048899067e+01     0.252717    0.2110569 -42.97 0.0003902313    1.151    0.131
       433  -9.8827      1.5768    115.0140   1.1165630653e+02   5.1632704349e+01    0.1883953    0.1356253 -69.93 0.0004751372    1.152    0.132
       434 -11.2028     43.2367    113.2320   9.6505285811e+01   4.8658385866e+01    0.2571051    0.2244157 -42.32 0.0003019343    1.103    0.093
       435 -13.3963     63.4012    188.7332   1.0215499924e+02   2.6840801930e+01     1.401797    0.9844548 -71.60  0.005475382    1.424    0.298
       436 -10.8584     24.4324    105.4677   1.0197073578e+02   5.2509537679e+01    0.3957131    0.1915183  37.60  0.001282604    2.282    0.562
       437 -10.4178     22.8639    101.1781   1.0178715724e+02   5.3729107224e+01      0.27101    0.1557171 -56.77 0.0002442009    1.469    0.319
       438 -11.2927     14.0969    112.3835   1.0690109580e+02   5.1535550865e+01    0.2919891    0.1863582 -61.72  0.000765115    1.318    0.241
       439 -11.2854     17.8708    108.6732   1.0496162552e+02   5.2213393573e+01    0.3479804    0.2178054   4.85  0.001419025    1.938    0.484
       440 -11.4648     24.7030    110.3546   1.0272646130e+02   5.1236506976e+01     0.332158    0.2499777  -4.79 0.0002301838    1.556    0.357
       441 -11.8750    211.1332    111.5383   5.1475564354e+01   1.7125721326e+01    0.3563843    0.2384273  27.86  0.001739086    2.064    0.516
       442 -10.6458     38.9555    110.3109   9.7480883111e+01   4.9879532779e+01    0.2561847    0.2017057 -53.37 0.0004149318    1.142    0.124
       443 -10.1107     35.5672    108.4587   9.8365910164e+01   5.0707522309e+01    0.2094862    0.2011327 -51.16 8.544906e-05    1.068    0.063
       444  -9.8295     74.4008    110.1668   8.4793596029e+01   4.5148797538e+01    0.2356483    0.2048661  10.27  0.000432178    1.240    0.193
       445  -9.6866     21.7101    107.7028   1.0338045069e+02   5.2163643116e+01    0.2087108    0.1711516 -47.19 0.0001882374    1.131    0.116
       446 -11.5964    249.5141    105.9020   4.4917424409e+01   1.1160604642e+01    0.2780685    0.2110832 -70.54  0.001716269    1.582    0.368
       447 -10.2415      4.8083    106.6578   1.0946305659e+02   5.3578189637e+01    0.1902153    0.1452874 -33.98 0.0003702587    1.361    0.265
       448 -10.2451     46.6931    225.5992   1.0990007646e+02   2.0496221742e+01    0.2743704    0.1774724 -37.89  0.001091893    2.283    0.562
       449 -11.8359     85.0130    105.0010   7.9879044188e+01   4.4603693698e+01    0.3699988    0.3233412 -74.79 0.0007269326    1.285    0.222
       450 -11.3667     92.5626    101.9528   7.6576540724e+01   4.3937490993e+01    0.5217004    0.3536023  53.90  0.001361047    1.715    0.417
       451 -11.5859     77.5612    105.1858   8.2442320777e+01   4.5845191858e+01     0.297114    0.2470902 -25.97 0.0003891583    1.261    0.207
       452 -10.8713    224.2527    247.0075   7.5319539052e+01  -6.8377803722e+00    0.1811619    0.1213268  -4.39  0.000463162    1.225    0.184
       453  -9.9680     46.3840    100.9111   9.2684582450e+01   5.1412778070e+01    0.2128388    0.1938951  37.12 0.0003776238    1.202    0.168
       454  -9.7553     30.4801    100.0856   9.8624861044e+01   5.3331967349e+01    0.1917162    0.1791697 -26.11 0.0003871988    1.106    0.096
       455  -9.7903     17.4825     98.0501   1.0331078373e+02   5.4936823373e+01    0.1961398     0.149433 -60.52 0.0005128094    1.127    0.113
       456 -11.0845     13.8184     97.3720   1.0462857231e+02   5.5366342312e+01    0.4640984    0.2193925 -37.86  0.002066091    2.174    0.540
       457  -9.8168     18.5184     93.9961   1.0215060967e+02   5.5873886884e+01    0.1902056    0.1528896 -56.80 -1.255791e-05    1.069    0.064
       458 -10.4043     15.1764     93.3733   1.0337800182e+02   5.6271743481e+01    0.2599461    0.2263972  59.39 0.0003879751    1.339    0.253
       459 -13.2255    242.3487     95.7294   4.3677936740e+01   1.3957103121e+01    0.5294423     0.491458  29.21  0.003636001    1.354    0.261
       460 -12.4758    248.9946     79.0739   3.9472219990e+01   1.5287302917e+01    0.4807394    0.2563509 -37.13  0.002610168    1.572    0.364
       461 -11.7318    250.0024     87.4654   4.1084666074e+01   1.3876722661e+01    0.3105926      0.18266 -30.98  0.001153099    1.632    0.387
       462 -10.9675     86.0795     98.7302   7.7806919664e+01   4.5884130598e+01    0.3270681    0.2387856 -31.57 0.0003418849    1.459    0.314
       463 -10.1388     88.4303     94.1383   7.5712864591e+01   4.6500166132e+01    0.2391769    0.2030716  16.73 0.0004101624    1.252    0.201
       464 -11.0007     50.6599     97.3666   9.0205645762e+01   5.1756321659e+01     0.251538    0.2153602 -34.71 0.0003043254    1.113    0.102
       465 -10.4980     39.9385     97.2997   9.4336347037e+01   5.3058041071e+01    0.2504834    0.1806104 -49.91 0.0003506522    1.240    0.193
       466  -9.6736     41.3453     93.7446   9.2950146410e+01   5.3777412039e+01    0.2121563    0.1610102 -53.41 0.0003573784    1.193    0.162
       467 -10.7353      7.5047     95.5452   1.0680618792e+02   5.6220807924e+01    0.1898116    0.1165039 -81.27 0.0001156669    1.622    0.384
       468 -10.7055      3.3683     95.7212   1.0845454990e+02   5.6404223562e+01     0.407407    0.2115909  68.35  0.001782382    2.728    0.633
       469 -10.4017      3.4809     92.0457   1.0784728189e+02   5.7311057651e+01    0.1848107     0.146795 -64.08 0.0003477503    1.063    0.059
       470 -11.2055    227.7323     95.7902   4.5539138758e+01   1.6599087587e+01    0.2758826    0.1919564 -18.66  0.001465472    1.766    0.434
       471 -10.7209     45.6417     96.3180   9.1883989767e+01   5.2640461384e+01    0.2747199    0.2089166 -42.91 0.0004009632    1.215    0.177
       472 -14.3367    143.0175    136.5516   7.1206492618e+01   2.5950551420e+01     2.322532     1.406159 -51.71  0.008216464    1.705    0.414
       473  -9.8427    100.7489     89.9405   7.0510479906e+01   4.5012795217e+01    0.2279794    0.1996997  -8.87 0.0002877229    1.230    0.187
       474 -10.6094    105.0423     90.7582   6.9441176996e+01   4.3955203093e+01    0.4640037    0.2729845 -65.62  0.001686477    2.724    0.633
       475  -9.8114     94.6965     91.2772   7.2822039365e+01   4.5934093253e+01    0.2483862    0.2034473  39.99 0.0005486495    1.237    0.191
       476 -11.1060     94.3116     95.8275   7.4279959437e+01   4.4999665945e+01    0.3086863    0.2824685 -80.14 0.0007169248    1.241    0.194
       477 -11.6601    100.3270     94.0133   7.1849575079e+01   4.4214896944e+01    0.8124377    0.3436249  48.15  0.002835631    2.589    0.614
       478 -11.0941     80.9939     93.2559   7.7978139908e+01   4.8059436112e+01    0.2531724    0.2076589 -37.40 0.0003137949    1.188    0.158
       479  -9.3646     68.5833     94.1939   8.2656156715e+01   4.9935972092e+01    0.2161282    0.1418618 -50.13 0.0003425391    1.452    0.311
       480  -9.7875     66.5033     91.0080   8.2529420898e+01   5.1012194899e+01    0.2055479    0.1929455  -7.20 0.0003516705    1.054    0.051
       481 -10.4368     55.5965     93.3748   8.7295065974e+01   5.2066160633e+01    0.3204726    0.2232018 -32.68  0.001405812    1.483    0.326
       482 -11.1453     60.7580     89.7944   8.4348717625e+01   5.2175481816e+01    0.5046421    0.3071279  48.69  0.001558485    1.993    0.498
       483 -11.5394    216.7990     93.0227   4.6412755573e+01   1.9144573513e+01    0.2786594    0.2288864  23.61  0.001604024    1.593    0.372
       484 -10.9506    225.3130     91.3504   4.4879274510e+01   1.7765014409e+01    0.2803502    0.1674756 -65.31  0.001128331    2.145    0.534
       485 -10.3596    130.5205     91.9196   6.2690350344e+01   3.8191063069e+01    0.2477084     0.218094  47.70 0.0003987883    1.146    0.127
       486 -10.5411     48.9615     91.4585   8.9370677796e+01   5.3411692672e+01    0.2532476    0.1860247 -43.48 0.0003796571    1.253    0.202
       487 -10.9231     35.2017     91.5419   9.4887614833e+01   5.4987722766e+01    0.2605113    0.2345758   5.14  0.000868775    1.185    0.156
       488  -9.6673     22.0238     91.2835   1.0019401635e+02   5.6272271959e+01    0.1793917    0.1636938 -31.83 0.0003512999    1.098    0.090
       489 -11.2490     71.4204     88.8198   8.0089646658e+01   5.0721926712e+01    0.2689633    0.2370399 -19.86  0.000476018    1.128    0.113
       490 -10.0876     43.2014     89.7926   9.1234664456e+01   5.4523508345e+01    0.1949261    0.1849309 -51.02 0.0004228952    1.087    0.080
       491 -10.5538     88.0783     88.2793   7.4094920932e+01   4.7870464146e+01    0.2487632    0.2086206 -40.55 0.0005119598    1.167    0.143
       492 -10.2855     29.7053     89.4038   9.6636570863e+01   5.6057988309e+01    0.2660432    0.1787885 -10.27  0.000331414    1.739    0.425
       493 -10.5237     35.0060     86.4071   9.3735406104e+01   5.6256180649e+01    0.3033345    0.2032365   2.73  0.001512895    1.739    0.425
       494  -9.3013     17.4461     89.5284   1.0171959702e+02   5.7060650253e+01    0.1360694    0.1154426 -51.55 0.0001445096    1.008    0.008
       495  -9.6911     11.8610     89.1755   1.0395481671e+02   5.7534088683e+01    0.1861907    0.1297834 -43.52 0.0003651625    1.280    0.219
       496 -13.0721    243.1438     83.7308   4.1070388459e+01   1.5639741159e+01    0.5408986    0.2486455 -37.81  0.002668172    1.802    0.445
       497 -14.0870    134.9178    124.4895   7.0321349139e+01   3.0285769223e+01     1.870683     1.276479  37.22  0.008374253    1.527    0.345
       498 -11.7290     94.8732     85.8297   7.1117167066e+01   4.7075691021e+01    0.4321478    0.2551102  40.62   0.00113415    1.707    0.414
       499  -9.5203     59.5346     83.5234   8.3021759007e+01   5.3809869552e+01    0.1890536    0.1382005  39.93 0.0001193661    1.473    0.321
       500 -11.0269     65.2932     85.7624   8.1468995452e+01   5.2413371707e+01    0.4299121    0.3562835  72.33  0.001407695    1.586    0.369
       501  -9.5697     67.4465     82.5694   7.9699472568e+01   5.2788386368e+01    0.2167807    0.1671644 -16.71 0.0001311053    1.427    0.299
       502  -9.5048     47.0190     87.5210   8.9109868499e+01   5.4601414615e+01    0.1983247    0.1403544  26.53 0.0004309704    1.497    0.332
       503  -8.9433     39.6758     87.7447   9.2145692338e+01   5.5425197784e+01    0.1422707   0.09865747 -25.09 0.0002515097    1.547    0.354
       504  -9.5308     21.9395     86.6984   9.9263728943e+01   5.7405108621e+01    0.1763875    0.1607495 -31.64 0.0003131467    1.089    0.082
       505 -10.4243      5.9350     87.0735   1.0602782977e+02   5.8405045482e+01    0.1964924     0.159671 -51.10 0.0003244285    1.050    0.048
       506 -10.2374     76.1530     86.0950   7.7567492726e+01   5.0530474072e+01     0.233433    0.2075578  21.36 0.0005821186    1.137    0.121
       507  -9.5630     80.0302     84.2050   7.5614009102e+01   5.0257534975e+01    0.2156735    0.1892797  -9.97 0.0002357771    1.170    0.145
       508 -10.3721    107.4364     85.0875   6.7007975097e+01   4.4638091562e+01    0.2341652    0.2050294  23.41 0.0004367127    1.189    0.159
       509 -10.2739     15.8917     85.1268   1.0148296894e+02   5.8251893031e+01    0.2162055    0.1736985 -31.68 0.0003414692    1.195    0.163
       510 -11.1632    213.0357     84.5148   4.4983863631e+01   2.1271286252e+01    0.2401045    0.1291884  53.76  0.001012047    2.071    0.517
       511 -11.8007    218.5421     83.1472   4.3928822340e+01   2.0382920684e+01    0.2803509    0.1887571  38.22  0.001350961    1.999    0.500
       512  -9.9390     40.9282     83.8518   9.0622334008e+01   5.6210830157e+01    0.2109395    0.1684524 -26.58 0.0003263124    1.222    0.182
       513 -10.0720     27.2363     83.9289   9.6400093829e+01   5.7617263266e+01     0.284914     0.172509  29.69   0.00087993    1.803    0.446
       514 -12.6394    194.1360     78.0458   4.6169553651e+01   2.6288048264e+01    0.3965856    0.3089083 -49.76  0.001548857    1.174    0.148
       515  -9.7854    104.5179     78.9193   6.5952184233e+01   4.6504928028e+01    0.2047293    0.1843143 -32.56 0.0003555357    1.111    0.100
       516 -10.3188     88.9895     82.4371   7.1991069246e+01   4.8954123035e+01    0.2489836    0.1986446 -24.97  0.000174816    1.318    0.242
       517 -11.3112     93.0431     78.3541   6.9357161314e+01   4.9000159479e+01     0.495653    0.3307186   7.43  0.001783675    2.288    0.563
       518  -9.6138     97.7239     81.3139   6.8801688534e+01   4.7442875758e+01     0.208144    0.1728304 -13.24 0.0002678896    1.329    0.248
       519 -10.1740     99.0892     78.1081   6.7353514246e+01   4.7811011908e+01    0.2425461    0.2101814 -34.67 0.0002860702    1.152    0.132
       520  -9.8464     71.3909     83.2690   7.8441128541e+01   5.1977716719e+01    0.2166242    0.1655807 -31.66 0.0006603241    1.308    0.236
       521 -10.5822    115.5368     81.6384   6.3618046277e+01   4.3574106360e+01    0.2616358    0.2412775  15.51 0.0004540451    1.129    0.114
       522  -9.5397     56.2786     81.9404   8.3837553721e+01   5.4649998756e+01    0.1994483    0.1689096 -38.49   0.00026853    1.096    0.088
       523  -9.7139     51.7975     81.8003   8.5593559125e+01   5.5312851850e+01    0.1754239    0.1656168  85.74 0.0002831095    1.262    0.207
       524  -9.3816     34.4610     82.0637   9.2869433516e+01   5.7351689328e+01    0.1994468    0.1243409 -55.81 0.0004160081    1.449    0.310
       525  -9.4959      5.5423     82.4865   1.0537637306e+02   5.9544366771e+01    0.1332201    0.1074139 -51.52 5.722418e-06    1.036    0.034
       526 -10.5886    109.6772     81.0022   6.5085865176e+01   4.4981945289e+01    0.2638997    0.2166836  41.16 0.0001520323    1.212    0.175
       527 -10.7341     15.5093     81.3284   1.0085260435e+02   5.9199240951e+01    0.4032049    0.1517899  26.16  0.001701188    2.802    0.643
       528 -10.1351      2.4918     80.9426   1.0640538286e+02   6.0075788685e+01     0.200672    0.1077417 -65.87 0.0006482536    1.551    0.355
       529 -10.6318    231.7486     80.4034   4.1670877414e+01   1.8241492656e+01    0.1645579    0.1189876  49.28 0.0009555815    1.690    0.408
       530 -10.7641     75.2834     79.3772   7.5802550702e+01   5.2154915382e+01     0.258242    0.2323795 -16.55 0.0008976046    1.081    0.075
       531 -10.1366     38.3625     79.9563   9.0653870418e+01   5.7421578983e+01     0.211702    0.1871701  29.21 0.0003593837    1.249    0.199
       532  -9.4207     23.7743     80.1384   9.6989515692e+01   5.8833513441e+01    0.1873747    0.1336829 -36.04 0.0003317456    1.291    0.226
       533 -10.2712     63.8919     78.9762   7.9952108807e+01   5.4158562903e+01    0.2539916    0.1963245 -47.13 0.0003011187    1.258    0.205
       534 -10.1639     65.5662     75.4964   7.8205121259e+01   5.4646522835e+01    0.3111801    0.1774002  21.90  0.001306225    2.119    0.528
       535  -9.5595     60.1617     79.5821   8.1594125966e+01   5.4605360908e+01     0.205735     0.143142  30.18 0.0003782877    1.482    0.325
       536 -10.0491     58.0124     76.9773   8.1644509685e+01   5.5509588425e+01    0.2898673    0.2327635 -78.49  0.001480804    1.666    0.400
       537  -9.9625     28.3367     78.8796   9.4691414799e+01   5.8718510330e+01    0.1934815    0.1811419  19.37 0.0003820847    1.199    0.166
       538  -9.7205     69.7984     78.4984   7.7550629423e+01   5.3293790103e+01    0.1984026    0.1432474  31.65 0.0003853605    1.411    0.291
       539 -10.4571     43.6885     77.3589   8.7664781049e+01   5.7390085238e+01    0.2529988    0.2340952  -8.83 0.0007607578    1.078    0.073
       540  -9.1330     34.3456     78.2456   9.1914612603e+01   5.8262210699e+01    0.1402053   0.09493292 -22.81 0.0003125472    1.573    0.364
       541  -9.7471      7.8845     78.3536   1.0357034379e+02   6.0408128854e+01    0.1771142    0.1474951 -37.04 0.0005084887    1.109    0.098
       542  -9.2728     17.6208     77.2339   9.9016286862e+01   6.0022913097e+01    0.1852003    0.1016078 -51.77 0.0002424962    1.506    0.336
       543 -10.0983     48.7489     76.1162   8.5169563426e+01   5.7018595401e+01    0.1986653     0.182887 -47.18 0.0004005011    1.126    0.112
       544 -10.3999    102.5722     74.2893   6.5048985160e+01   4.7827538430e+01    0.2572403    0.2200079  19.75 0.0003722208    1.234    0.190
       545 -10.8219     73.8462     73.1967   7.4325150595e+01   5.3715436775e+01     0.239271    0.2108459 -25.16 0.0002580035    1.092    0.084
       546 -10.0578     70.6879     69.3019   7.4196632537e+01   5.5074228214e+01    0.4481611    0.3163486  86.14  0.001829501    2.899    0.655
       547  -9.5463     53.9673     77.2417   8.3358681906e+01   5.6043541192e+01    0.2895248    0.1890748 -22.41  0.001166564    1.786    0.440
       548 -11.0180     10.1814     73.0796   1.0143089047e+02   6.1520570508e+01    0.3898307    0.1445999 -63.44  0.001650339    2.270    0.560
       549  -8.6702     60.3213     73.3107   7.9560205108e+01   5.5955931161e+01    0.1498574    0.1062368 -14.28 0.0007036861    1.649    0.393
       550 -10.9573     97.3586     71.7918   6.5831815830e+01   4.9413022013e+01    0.2778789     0.230816  20.91 0.0004325185    1.271    0.213
       551  -9.6406     63.9265     72.1960   7.7770199674e+01   5.5618536706e+01    0.2049893    0.1946539  82.08 0.0005774388    1.289    0.224
       552 -11.7785    199.1289     88.1832   4.7883841827e+01   2.3547604527e+01    0.3738395    0.2034788  55.03  0.001441759    1.991    0.498
       553 -10.3333    102.8669     82.8073   6.7675487280e+01   4.6070076479e+01    0.2387185    0.2086578 -31.28 0.0003432744    1.147    0.128
       554 -10.3227     79.5341     70.2715   7.1280832491e+01   5.3267942246e+01    0.2568864     0.216288   4.80 0.0005658981    1.244    0.196
       555  -9.4189     50.3360     71.0297   8.2926615612e+01   5.7926870844e+01    0.1937872    0.1646714 -34.27  0.000500921    1.081    0.075
       556  -9.2061     42.5664     71.5253   8.6412105202e+01   5.8845175753e+01     0.139458    0.1239481 -29.09  7.43597e-05    1.012    0.011
       557 -10.6123     37.0515     70.2415   8.8453205231e+01   5.9792295916e+01    0.2868881    0.1933782 -62.38  0.001163946    1.610    0.379
       558  -9.5345     23.1532     71.4873   9.5099704010e+01   6.0916143631e+01    0.1767794    0.1294017  10.80 0.0006262564    1.462    0.316
       559 -14.1123    112.5951    114.8481   7.3936940213e+01   3.7043028504e+01     1.646884     1.430653  25.83  0.006812135    1.207    0.171
       560 -14.2266    134.4221    109.1609   6.6485245635e+01   3.3745538753e+01     1.763166     1.217441 -47.20  0.006735879    1.432    0.302
       561  -9.8120     74.0266     68.7037   7.2744425682e+01   5.4599458695e+01    0.1952383    0.1756071  13.87 0.0002917417    1.078    0.072
       562  -9.4578     58.5206     69.0740   7.8894695630e+01   5.7137594148e+01    0.1987229    0.1334042 -44.37 0.0003218255    1.427    0.299
       563 -10.8541    221.6322     68.8539   4.0309058224e+01   2.1945802134e+01    0.3366851   0.09868407  66.83  0.001118948    4.760    0.790
       564  -9.3459     44.5051     66.9454   8.4123903617e+01   5.9599674955e+01     0.198634    0.1273777 -48.17 -0.0002530527    1.460    0.315
       565  -9.5599     64.6450     66.0155   7.5400028111e+01   5.6778409643e+01    0.1978268    0.1657917 -31.13 0.0003765748    1.139    0.122
       566  -9.9417     81.8018     65.2536   6.8749775429e+01   5.3814029929e+01    0.1979659    0.1896565  22.99 0.0003634542    1.073    0.068
       567  -9.5028     76.6914     64.9663   7.0470221859e+01   5.4844610059e+01    0.1946888    0.1765639 -27.59 0.0002378533    1.089    0.081
       568  -9.9458     71.7567     64.8589   7.2256381243e+01   5.5771804886e+01    0.2091608    0.1789919 -10.31 0.0003399901    1.159    0.137
       569 -10.2977     24.1829     64.8265   9.2783178368e+01   6.2334066758e+01     0.184128    0.1318641 -30.23 0.0002936679    1.278    0.218
       570 -10.5553     83.3268     86.8925   7.5288357237e+01   4.9064944953e+01    0.4968823    0.2459504 -34.86 0.0009051536    2.371    0.578
       571 -10.4326    126.6925     63.8759   5.5111082639e+01   4.4266936199e+01    0.2752487    0.2170206  22.71 0.0008807409    1.501    0.334
       572  -8.9957      2.5646    229.4846   1.1954131769e+02   2.4163696635e+01    0.1130589   0.09121667  69.77 8.632561e-05    1.065    0.061
       573  -9.6845     66.9001     62.3266   7.3217287291e+01   5.7125883883e+01    0.1916742    0.1665536  12.13  0.000327756    1.110    0.099
       574  -9.2294     58.1664     62.4200   7.6754613918e+01   5.8560594856e+01    0.1744373     0.131487  41.75 0.0003762156    1.447    0.309
       575 -12.9929    166.8563     54.0469   4.4155273053e+01   3.6227398643e+01    0.5362158    0.3700222 -85.72   0.00140984    1.687    0.407
       576 -10.4446     79.8999     60.2852   6.7649836956e+01   5.5114813158e+01    0.4250334    0.1799519  40.40 0.0008449159    2.341    0.573
       577  -9.4115     62.3411     60.1833   7.4251644229e+01   5.8321201603e+01    0.1784821    0.1282564 -48.00 0.0002634649    1.468    0.319
       578 -13.6413    142.9151    220.6208   8.7370649982e+01   8.2360565906e+00     2.054263     1.077292  19.96  0.009052156    2.229    0.551
       579  -9.1595     49.2557     58.9620   7.9318661739e+01   6.0608281808e+01    0.1656653    0.1124162 -44.78 0.0003334944    1.425    0.298
       580  -9.5506    207.5261     58.4744   3.9597120236e+01   2.6380754880e+01    0.1316477     0.114934 -60.93 8.352476e-05    1.014    0.014
       581  -9.4054     57.2044     57.7695   7.5479294028e+01   5.9631485305e+01    0.1868012    0.1474067 -10.79 0.0003682285    1.279    0.218
       582  -9.1762     32.0098     58.2652   8.7007116388e+01   6.2963063076e+01    0.1555638    0.1120144  17.71 0.0004967687    1.424    0.298
       583 -10.0158    229.0676    227.6475   7.1365826559e+01  -4.7995589537e+00    0.1616716    0.1216213   3.23 0.0005128321    1.087    0.080
       584 -10.3905     82.7373     55.9729   6.5083739499e+01   5.5327823716e+01    0.2411896    0.2301187 -21.39  0.001021554    1.098    0.089
       585 -11.0070     65.6537    225.4468   1.0561414710e+02   1.8236526069e+01     0.212925    0.2025792  15.93 0.0002628657    1.233    0.189
       586  -9.3830     41.2149     60.8810   8.3584965658e+01   6.1312165734e+01    0.1891391    0.1431216 -19.25 0.0006018761    1.288    0.223
       587  -9.6550     62.7265     55.0615   7.2202866618e+01   5.9229918719e+01     0.191345    0.1651896 -19.24 0.0003504297    1.095    0.086
       588  -9.2082      7.7052     55.3123   9.8265960587e+01   6.5717595714e+01    0.1139187   0.09691682  69.04 0.0003292398    1.596    0.373
       589 -14.6638    179.1665    197.2667   7.5585522333e+01   6.9592456248e+00     3.539786     1.859743  17.78   0.01480461    2.524    0.604
       590  -9.9893     68.9606     53.8148   6.9277745561e+01   5.8354332318e+01    0.3292259     0.179857  31.77  0.001089743    1.916    0.478
       591  -9.5007     17.7261     53.3207   9.2505303202e+01   6.5408943264e+01    0.1143732     0.101046  77.14 0.0002488304    1.572    0.364
       592  -9.9578     91.1099     51.3607   6.0615275058e+01   5.4371776318e+01    0.2193227    0.1879058 -11.36 0.0003920382    1.212    0.175
       593  -9.6280     86.8928     52.3787   6.2351722519e+01   5.5092466002e+01    0.1971873     0.168474  30.58 0.0004253626    1.112    0.101
       594  -8.9143     43.4603     54.5558   8.0327086465e+01   6.2302608154e+01    0.1371108    0.1183867 -14.26 9.216016e-05    1.023    0.022
       595  -9.3398     19.5626     48.4719   8.9956318618e+01   6.6259684202e+01    0.1305936    0.1063843 -27.55 0.0001277839    1.021    0.021
       596 -10.4894     90.9840     47.2367   5.9109480091e+01   5.5055753718e+01    0.1918291    0.1741178  33.42 0.0002798223    1.032    0.031
       597 -11.2641     84.7659     44.8175   6.0166265729e+01   5.6751256807e+01    0.4444021    0.2152272 -31.87 0.0009123043    2.209    0.547
       598  -9.7521     73.6865     46.2974   6.4582117670e+01   5.8754189158e+01    0.1873167    0.1476518   9.63 0.0006249234    1.322    0.244
       599 -13.5635    157.5875    178.2187   7.6689868369e+01   1.4230833012e+01     1.638847     1.199145 -27.30  0.008264272    1.423    0.297
       600 -11.6023    145.8681     43.4750   4.4659566034e+01   4.2753101127e+01     0.261802    0.2091301 -22.66 0.0007035834    1.417    0.294
       601 -11.6588    227.1336    243.7369   7.4303493458e+01  -6.7396678340e+00    0.2862156    0.1538061  25.31 0.0009635987    1.669    0.401
       602  -9.4273    104.2701     44.3433   5.4176384797e+01   5.2539767433e+01    0.1429936    0.1060962  16.88 0.0004277574    1.611    0.379
       603 -10.4582     42.0873    225.6504   1.1092730966e+02   2.1009714705e+01    0.2266791     0.177309  76.70 0.0004363215    1.176    0.149
       604 -11.1531    108.5118     38.7879   5.1049686228e+01   5.2338819200e+01    0.3009634    0.2424318 -30.52 0.0007837078    1.326    0.246
       605 -10.1302     71.8351     41.7459   6.3426733209e+01   5.9841412995e+01    0.2136343    0.1731596  -8.70 0.0003213637    1.251    0.200
       606  -9.2829     90.4998     41.4966   5.7062166643e+01   5.6026278398e+01    0.1400995    0.1283972  29.00 0.0008106884    1.002    0.002
       607  -9.8911     19.7844    227.2236   1.1586655109e+02   2.3028710569e+01    0.1736724      0.12886  64.65 0.0004873327    1.100    0.091
       608 -11.6186    132.8543     39.9928   4.6025417032e+01   4.6373333952e+01    0.2862889    0.1838622  50.06 0.0006287224    1.495    0.331
       609  -9.3898    102.2567     40.6940   5.3378169905e+01   5.3519781818e+01    0.1317242     0.108428 -69.89 0.0001716532    1.515    0.340
       610  -9.1446     77.5300     40.4654   6.0873087512e+01   5.8906711068e+01    0.1396927    0.1237257  18.74 3.776462e-05    1.036    0.035
       611  -9.4147     40.1923     39.9862   7.6154365536e+01   6.5485146946e+01    0.1929971    0.1577354 -73.48  0.001070974    2.005    0.501
       612 -10.5018    127.0955     38.8877   4.6833045866e+01   4.7910135534e+01     0.187131    0.1551653  36.39  0.001032198    1.268    0.212
       613  -9.8852    210.3949    226.8309   7.4589906863e+01  -2.3677303019e+00    0.1702194   0.09654449 -24.32 0.0004485925    1.691    0.409
       614  -9.9567    190.0522     37.3128   3.6516461674e+01   3.3098520900e+01    0.1825583    0.1544743 -80.48 0.0006575838    1.063    0.060
       615  -9.8205    103.9470     37.0284   5.1568458509e+01   5.3632481972e+01    0.2048524    0.1855041  36.04 0.0003245535    1.050    0.047
       616  -8.8138     49.2883     42.7054   7.3038222123e+01   6.3656059864e+01      0.11748    0.1093493  81.35 0.0002438115    1.548    0.354
       617 -10.5358     97.0293     38.9416   5.4162660250e+01   5.4946883209e+01     0.221166    0.1962431 -14.52 0.0003066152    1.184    0.156
       618  -9.0993     83.2871     36.6774   5.7414469965e+01   5.8263983676e+01    0.1293308    0.1095747 -74.31 0.0002305194    1.602    0.376
       619 -11.6453    149.8667     34.2998   4.1193862484e+01   4.2966621046e+01    0.3319293    0.1878743 -39.07  0.001599626    1.786    0.440
       620 -11.1703    144.7236     33.0185   4.1648762066e+01   4.4372092775e+01    0.3602004    0.1789156 -22.77  0.001543288    2.476    0.596
       621 -10.5600      9.7881    225.8067   1.1788851195e+02   2.4279540849e+01    0.3213091    0.2835091  34.47  0.002349218    1.332    0.249
       622 -11.4517    112.6589     34.5950   4.8531496930e+01   5.1913807818e+01    0.2471481    0.2216194  57.99 0.0006080511    1.044    0.042
       623  -9.2497    129.6367     34.6530   4.4910232019e+01   4.7837001818e+01    0.1499328    0.0983657  32.15 0.0004066168    1.858    0.462
       624 -10.8211    100.0137     33.5095   5.1275219028e+01   5.4995535426e+01    0.1994621    0.1829479 -12.74 0.0006508072    1.159    0.137
       625 -10.3541    118.0040     29.7863   4.5629557935e+01   5.1231097699e+01    0.2384064    0.1309484  38.79  0.001061887    2.027    0.507
       626  -9.3209     69.3208     35.0003   6.1534228063e+01   6.1347506267e+01    0.2158149    0.1066746 -11.86  0.000704453    4.240    0.764
       627 -10.6467     76.9959     29.7875   5.6611635889e+01   6.0519010565e+01    0.2082891    0.1596999  26.48 0.0004693582    1.248    0.199
       628  -9.8700    102.2898     29.6835   4.9230618642e+01   5.4948823684e+01    0.1322652     0.105014 -71.68 0.0001851118    1.594    0.373
       629 -10.6243    105.3233     32.9015   4.9682020816e+01   5.3847984884e+01    0.2272219    0.1834949  69.16 0.0006931316    1.280    0.219
       630  -9.5602    105.3990     26.2206   4.7161783772e+01   5.4633033711e+01    0.1670668    0.1269435 -39.44 0.0004538906    1.452    0.312
       631 -10.2493     14.9066    223.0795   1.1666710239e+02   2.4378986802e+01    0.1824993    0.1515492 -82.34 0.0003963844    1.246    0.197
       632  -9.3897     97.6527     24.3038   4.8325262232e+01   5.6647048049e+01    0.1334809     0.103499 -77.39 0.0003671269    1.693    0.409
       633 -10.2523      4.4999     24.5385   8.9647217302e+01   7.2139035069e+01    0.1213566   0.09420305 -22.55 0.0001495113    1.004    0.004
       634  -8.9447    123.6984     23.2528   4.2216651231e+01   5.0599263637e+01      0.12973   0.09832056 -78.50 0.0001858827    1.502    0.334
       635  -9.8209     91.0109     22.7798   4.9459068475e+01   5.8327661408e+01     0.184244   0.09996878  56.31 -0.0006383859    1.671    0.402
       636  -9.4099    112.5269     20.5398   4.3474604165e+01   5.3569618580e+01    0.1330954    0.1205974  69.68 5.340197e-05    1.068    0.063
       637  -9.6722    127.9866     17.0102   3.9334578707e+01   5.0206414722e+01    0.1553771    0.1431278  71.45 0.0004856906    1.037    0.036
       638 -10.5808     73.0195     16.7094   5.2158767475e+01   6.2909432903e+01    0.1860306     0.152154  40.21 0.0005002239    1.071    0.066
       639  -9.7913     68.3579     17.2863   5.3970345653e+01   6.3811262095e+01    0.1393278   0.08539753  27.32 0.0007022382    1.678    0.404
       640 -10.5085    149.7724    246.0309   8.9556519701e+01   2.8027206006e+00    0.2830467    0.1739886 -26.47  0.001537366    1.966    0.491
       641 -10.0249    129.1189    245.7082   9.3853767017e+01   5.7131715266e+00    0.3035875    0.2089835  76.44  0.001577144    2.510    0.602
       642  -9.8963    119.0429    246.4818   9.6094827455e+01   6.9702527712e+00    0.1734648    0.1561342  24.38 0.0004455168    1.079    0.073
