#   1 NUMBER                 Running object number                                     
#   2 MAG_AUTO               Kron-like elliptical aperture magnitude                    [mag]
#   3 X_IMAGE                Object position along x                                    [pixel]
#   4 Y_IMAGE                Object position along y                                    [pixel]
#   5 X_WORLD                Barycenter position along world x axis                     [deg]
#   6 Y_WORLD                Barycenter position along world y axis                     [deg]
#   7 A_WORLD                Profile RMS along major axis (world units)                 [deg]
#   8 B_WORLD                Profile RMS along minor axis (world units)                 [deg]
#   9 THETA_WORLD            Position angle (CCW/world-x)                               [deg]
#  10 FWHM_WORLD             FWHM assuming a gaussian core                              [deg]
#  11 ELONGATION             A_IMAGE/B_IMAGE                                           
#  12 ELLIPTICITY            1 - B_IMAGE/A_IMAGE                                       
         1 -10.2702     10.3685     18.8842   1.0134989378e+02   7.1896784814e+01     1.274531    0.4122017 -28.11  0.003685052    7.404    0.865
         2 -11.0704     23.7957     32.0171   9.9595024586e+01   6.8221285235e+01     1.500943    0.4231837 -42.93  0.003858204    2.925    0.658
         3 -10.2147     18.2505      5.2103   8.9955889182e+01   7.3653318447e+01    0.6308066    0.5055306 -55.44  0.003126953    1.716    0.417
         4 -10.6177     37.2105      9.7434   8.2227740258e+01   7.0699093250e+01    0.8038322     0.274855 -41.47  0.001790253    2.729    0.634
         5 -10.5506      6.8776     30.1407   1.0746401751e+02   6.9874352489e+01    0.6725529    0.2773185 -53.01  0.002291518    1.722    0.419
         6  -9.9778      6.0940      5.3412   9.7525730406e+01   7.4704469962e+01    0.3829981    0.2406007 -33.35  0.001404073    1.222    0.182
         7 -10.0674      2.6585      3.1101   9.8579966897e+01   7.5344604437e+01    0.2812345    0.1587937 -36.81  0.001071148    1.329    0.247
         8  -8.6388    115.2615      4.3760   5.3315644717e+01   5.5858250149e+01    0.2780683    0.2022432 -31.24 0.0005400243    1.437    0.304
         9  -9.2525    102.4132      8.1878   5.7921142047e+01   5.8569900856e+01    0.8612069    0.2467695 -38.31  0.002820052    3.881    0.742
        10  -9.9180    108.1308      3.7163   5.4529566387e+01   5.7646681863e+01    0.8356762    0.5699288 -72.89  0.004020317    2.113    0.527
        11  -9.4020    101.1508     32.0019   6.8991252808e+01   5.5867675763e+01    0.6602101    0.2558411 -35.31  0.001287355    2.433    0.589
        12 -10.0167    102.7400     21.1312   6.3768772148e+01   5.7015361153e+01    0.9670924     0.577374  59.89  0.004412388    1.809    0.447
        13  -9.1140    112.3917     15.5523   5.8859326333e+01   5.5423193756e+01    0.4417657    0.2172945 -30.28  0.001668963    1.987    0.497
        14  -9.0872    113.8730     10.1245   5.6138910760e+01   5.5646338829e+01    0.3771001    0.2399586  29.69 0.0003674711    1.653    0.395
        15 -10.9325     37.0497     39.2654   9.6146738239e+01   6.5424882823e+01    0.7872005    0.4311196 -49.20  0.001296879    1.521    0.342
        16 -10.5291     62.0756      4.0556   6.8062673356e+01   6.7474592787e+01    0.8351692     0.526535   0.35  0.004454156    1.653    0.395
        17 -10.5697     81.0334     23.3662   7.1359924033e+01   6.1352404988e+01     1.414024    0.4160043  37.99  0.004150543    4.874    0.795
        18 -10.2271     69.5621     40.5011   8.3177025303e+01   6.0635559747e+01    0.9306747     0.377856 -41.10  0.002564435    2.219    0.549
        19 -10.4107     73.8000     17.1345   7.0800120495e+01   6.3634387859e+01     1.406882    0.3069872 -32.30  0.004408694    4.123    0.757
        20  -9.5727     77.9259      3.9655   6.2576504905e+01   6.4389783174e+01    0.5279384    0.3243911  -8.92  0.001749876    1.628    0.386
        21 -10.4584     60.9586     31.8525   8.2763522234e+01   6.3598321170e+01     1.184644    0.6791525 -13.22  0.004670119    2.551    0.608
        22 -10.4038     45.7368     29.2894   8.8073909092e+01   6.6288128459e+01    0.5589772      0.46317 -66.71  0.002797849    1.683    0.406
        23  -9.7365     62.9623     20.7734   7.6684650266e+01   6.5080299548e+01    0.5883359    0.2643566 -45.57  0.001842565    2.664    0.625
        24  -9.7229     64.6526     13.4136   7.2231919465e+01   6.5837616477e+01    0.3286935    0.2589942  -7.88 0.0002243074    1.126    0.112
        25 -10.8914    134.0173     31.0380   6.0370357394e+01   4.8172578821e+01    0.4195612    0.2941245  -4.94  0.001943863    1.645    0.392
        26 -10.3018     50.0236     15.5387   7.9390765657e+01   6.7974997293e+01     1.006187    0.5960948   1.86  0.004817221    2.313    0.568
        27  -9.8563      2.5035     14.5031   1.0406496325e+02   7.3260138310e+01    0.7490181    0.2439313 -62.87  0.003031901    3.596    0.722
        28  -9.3837     91.6312     24.3010   6.8400287126e+01   5.9041995924e+01    0.7988204    0.3296932 -23.94  0.002594619    2.644    0.622
        29  -9.2685     96.3745     14.8131   6.2601244884e+01   5.9225396600e+01    0.6703509    0.2731604 -15.27  0.002391834    3.153    0.683
        30  -9.3821    139.6115     20.3844   5.5126716890e+01   4.8068321307e+01    0.5493403     0.206988 -32.38  0.002025179    2.506    0.601
        31  -8.2055    119.7264     16.4262   5.7569042367e+01   5.3541737936e+01    0.3413921    0.2042914  -2.14  0.001491525    2.018    0.504
        32  -9.0282     85.8197      4.9024   6.0707205310e+01   6.2627616637e+01    0.4349991    0.3771036 -24.51  0.002649341    1.222    0.181
        33  -8.1841     80.5435     12.3413   6.6102386805e+01   6.2912221917e+01    0.2759554    0.1808185 -36.68  0.001434257    1.605    0.377
        34  -8.5703    141.2343     12.8280   5.1926076488e+01   4.8468096037e+01    0.3262179    0.2286208  -0.04  0.001153545    1.618    0.382
        35  -9.7465    136.9481      8.5763   5.1008519794e+01   4.9998482940e+01     0.435685    0.2786933   8.43 0.0007618635    1.870    0.465
        36  -8.5798    125.0949     13.0443   5.5019936935e+01   5.2573351377e+01    0.2493505     0.202666 -24.82  0.000847124    1.252    0.201
        37  -8.4301    126.8842      8.9480   5.2973282277e+01   5.2535282943e+01    0.2658927    0.1915103  43.63 0.0005597437    1.322    0.244
        38  -8.6089    125.9153      4.8633   5.1461541450e+01   5.3161017482e+01    0.2955347    0.1961614  21.23 0.0008316473    1.658    0.397
        39  -7.2687    177.7391      9.6921   4.5589024225e+01   3.9159684394e+01    0.1395182    0.1042426  32.78 0.0002431528    1.526    0.345
        40  -7.7024     67.7344      8.9948   6.8716560777e+01   6.5836774396e+01    0.1806578    0.1498175 -10.35 0.0003089926    1.081    0.075
        41  -7.9479    155.7818      7.7641   4.7774449742e+01   4.5149346780e+01    0.2326812   0.09029195 -33.40 0.0008821147    2.449    0.592
        42  -8.4846     97.6859      5.7138   5.7922527536e+01   5.9907171277e+01    0.2835701    0.1932891  22.61 0.0009504431    1.486    0.327
        43  -8.7479     95.9973      2.9914   5.7028337575e+01   6.0552018000e+01    0.3088635    0.2226616  -7.17  0.001155611    1.372    0.271
        44  -8.6001    131.1002      6.1121   5.1041437272e+01   5.1730793986e+01    0.2156296    0.1904269 -50.62 0.0005698462    1.234    0.190
        45  -8.2693    136.2237      1.6761   4.8412014707e+01   5.0803429500e+01    0.3181774    0.1141824  65.12  0.001133535    2.478    0.597
        46  -7.7585    120.5078      6.4352   5.3153823718e+01   5.4373296831e+01    0.1410934    0.1276866  35.88  0.000163373    1.028    0.027
        47  -7.5681    143.2185      5.1698   4.8671050462e+01   4.8685807646e+01    0.1896155    0.1583544 -65.10   0.00032721    1.304    0.233
        48 -10.1248     28.2284     11.4629   8.7828370873e+01   7.1551273735e+01    0.7155244    0.4761996  29.63  0.004448298    1.701    0.412
        49  -9.5315     85.1807     12.9609   6.4959123159e+01   6.1875109740e+01    0.4849849    0.2769838 -51.02  0.001590243    2.600    0.615
        50  -7.2847    150.5283      1.5062   4.6238606701e+01   4.7091414575e+01    0.1391642    0.1316117  64.15 2.294533e-05    1.003    0.003
        51 -10.8134    108.8548    100.8790   9.0546225443e+01   4.0729250068e+01     1.047497    0.7438346 -75.71  0.004694105    1.806    0.446
        52 -10.3229    199.6522    249.3698   9.8699976004e+01  -1.8967064757e+00    0.4015984    0.1766952  40.30  0.002309531    1.774    0.436
        53 -10.7588    192.2272    249.3221   9.9920341364e+01  -8.2426365191e-01    0.4256368    0.2500862  41.25   0.00280308    1.382    0.277
        54 -10.0867     58.3555    124.5713   1.0998306136e+02   4.3189111518e+01    0.6054029    0.3300064  79.03  0.002249225    2.611    0.617
        55  -9.9721     27.4821    123.1109   1.1827588483e+02   4.6885259153e+01    0.5751754    0.2730424  74.32  0.002448537    2.620    0.618
        56  -7.0504    222.7238    125.7409   7.1870013807e+01   1.1202402477e+01    0.1374006    0.1031718   8.50            0    1.467    0.319
        57  -8.1122    158.5017    122.4924   8.3698724364e+01   2.5648675692e+01    0.2642762    0.2087997 -82.51  0.001235504    1.669    0.401
        58 -10.0663    108.6103    114.4445   9.4036709043e+01   3.7682832148e+01    0.6715457    0.3936354 -73.64  0.001436549    2.590    0.614
        59  -8.5367    152.0258    121.7164   8.4978266530e+01   2.7213867786e+01    0.2112016    0.2085485  32.94 0.0008607585    1.021    0.021
        60 -10.1047    140.6745    118.3564   8.6816962207e+01   3.0354113084e+01    0.6467111    0.3841472 -65.83  0.002108379    2.464    0.594
        61  -9.5740    141.5162    112.5405   8.5137417257e+01   3.1406664542e+01    0.4242073    0.3029597  32.66   0.00192937    1.583    0.368
        62 -10.1408     92.0097    113.0425   9.8274721585e+01   4.0978068772e+01    0.6076592    0.4169732 -83.86  0.001646452    1.843    0.457
        63  -8.9789     93.8008    103.2511   9.5433221344e+01   4.2966335203e+01    0.6617397    0.3996941  15.44  0.002474083    3.144    0.682
        64  -8.2790      1.4635    116.2967   1.2462479618e+02   5.0479710338e+01    0.3416228   0.09474947 -79.44  0.001199707    2.928    0.658
        65  -8.9890    152.7426    115.4149   8.3226951597e+01   2.8350431707e+01    0.2713976    0.1826267 -53.14 0.0005734147    1.582    0.368
        66 -10.2295     78.1245    112.9312   1.0220036688e+02   4.3239087540e+01    0.5420406    0.3119077 -79.98  0.001510015    2.356    0.576
        67  -7.8563     78.2266    105.0588   1.0043803733e+02   4.5105088095e+01    0.3067915     0.203723 -22.67  0.001336449    2.379    0.580
        68  -9.5216     81.5035     99.4816   9.8136087411e+01   4.5914817447e+01    0.8022338     0.305571 -53.57   0.00260459    2.356    0.575
        69  -8.5750     56.7758    113.6013   1.0853241570e+02   4.6034540014e+01    0.2631023    0.1753397  40.95  0.001163569    1.643    0.391
        70  -9.4755    157.0739    112.2283   8.1410733549e+01   2.8034424550e+01    0.4547071     0.253824  45.97  0.001378165    1.823    0.451
        71 -10.4539     62.9764     95.6962   1.0297815936e+02   4.9553715984e+01    0.7571533    0.4284071 -85.25  0.001525164    2.811    0.644
        72  -8.7017     65.5688     85.6204   9.9680628416e+01   5.1589375570e+01    0.6418968     0.379589  -9.72  0.002285109    4.026    0.752
        73  -8.0792     63.7630     82.5666   9.9483828412e+01   5.2558186696e+01    0.2610151    0.1745883 -84.59 0.0006545567    2.049    0.512
        74 -10.2879     65.8002    110.0982   1.0520915007e+02   4.5701871067e+01     0.951768      0.47972 -65.85  0.001803397    1.877    0.467
        75  -9.2651     59.1221    109.6370   1.0709845962e+02   4.6697631107e+01    0.4453242    0.2176507 -62.92  0.001677254    1.790    0.441
        76  -9.9756     14.2646    111.4343   1.2057262510e+02   5.0750343783e+01    0.4776529    0.2314509  74.29  0.001954258    2.363    0.577
        77  -8.8195     14.1884    105.0761   1.1983114301e+02   5.2266694361e+01    0.2623841    0.1507675 -58.65 0.0007425388    1.508    0.337
        78  -7.9101     23.2197     69.1731   1.1077168959e+02   6.0116283371e+01    0.1672556    0.1290625 -83.56 0.0003598954    1.321    0.243
        79  -9.3045     39.0824     54.7093   1.0062017185e+02   6.1936379508e+01    0.9496429     0.127614 -49.03  0.002729889    4.749    0.789
        80 -10.9044     21.4021    101.2989   1.1714518031e+02   5.2622335198e+01     1.445041    0.6363865  79.30  0.003411306    3.578    0.720
        81 -10.5074     32.0992     64.5640   1.0623944114e+02   6.0419577153e+01      1.24121    0.4901562 -33.31  0.004348657    4.225    0.763
        82  -9.9785     34.5599     90.8067   1.1119130032e+02   5.3999637032e+01    0.5221858     0.242566 -81.49  0.001775908    2.713    0.631
        83 -10.0887     36.6921     81.2604   1.0851351112e+02   5.6076717764e+01    0.6934339    0.3643291 -25.19  0.002901081    3.232    0.691
        84 -10.1019     19.9732     85.6640   1.1515318401e+02   5.6473864618e+01    0.7962626    0.1207728 -57.87  0.002687838    3.606    0.723
        85 -10.4972     25.7731     77.9876   1.1169770768e+02   5.7840313845e+01    0.6665183    0.4002059  76.54  0.001971981    2.258    0.557
        86  -8.1037    149.5302    109.9620   8.2554302497e+01   3.0183560866e+01    0.2377979    0.1499282 -43.38 0.0003388267    1.553    0.356
        87  -9.7281    212.3115    108.2026   6.9338082588e+01   1.6266022041e+01    0.2528837    0.2350845   2.44 0.0002672612    1.063    0.059
        88 -10.8288     44.8581    102.4784   1.1007999603e+02   5.0126751347e+01    0.8244891    0.4170941  72.41  0.003057427    3.459    0.711
        89  -9.7110     40.3829    106.7741   1.1220873879e+02   4.9562945703e+01    0.4329448    0.1479851 -68.60  0.001225053    2.599    0.615
        90  -8.0751    216.9545    104.7957   6.7678818001e+01   1.5802653473e+01    0.2225251    0.1906711  10.16 0.0004338497    1.225    0.183
        91  -8.3208    166.0175    104.1244   7.7257395471e+01   2.7598502757e+01    0.2647598    0.2155418 -41.43 0.0005055593    1.198    0.165
        92  -9.6181    149.6572    103.3465   8.0742398795e+01   3.1513342915e+01    0.4456224    0.3077815 -58.80  0.001122068    1.668    0.401
        93  -7.9424     73.8662    103.0966   1.0129714668e+02   4.6234557543e+01    0.2203729    0.1785104 -83.18 0.0004820002    1.272    0.214
        94  -8.5363    159.0281    101.0942   7.7968031962e+01   2.9814573207e+01    0.2928171    0.2133374 -40.22 0.0004373458    1.334    0.250
        95  -9.4098     94.3899     97.2724   9.3729646525e+01   4.4250790270e+01    0.3800233    0.2781682 -67.40 0.0006586745    1.452    0.311
        96  -8.8495     96.0580     91.1805   9.1584969243e+01   4.5346617892e+01    0.5436836    0.3287766 -19.38  0.001949122    3.173    0.685
        97  -9.6807      6.6199    103.6202   1.2189898767e+02   5.3125088094e+01    0.5396621    0.2413569  76.84  0.001953128    2.631    0.620
        98  -9.2778    150.4008     95.7646   7.8442539495e+01   3.2879451972e+01    0.4257708    0.3789988 -45.12  0.002164211    1.097    0.089
        99  -9.9437    239.7839     92.5473   6.1050627758e+01   1.2775597810e+01    0.3181126    0.2411426 -42.19 0.0009457167    1.260    0.206
       100  -8.8673    164.6702     94.6504   7.4908713287e+01   2.9744154090e+01    0.3466777    0.2427846 -52.03 0.0008697375    1.523    0.344
       101  -9.6287    138.5788     92.7815   8.0426207912e+01   3.6199434678e+01    0.3824778    0.3403405 -52.68  0.001093321    1.117    0.105
       102  -9.0450    157.8005     91.5780   7.5538670994e+01   3.1969062647e+01    0.3631184    0.1867203 -38.91   0.00116926    1.877    0.467
       103  -8.9928    157.9055     84.0460   7.3284146078e+01   3.3388897462e+01    0.6559956    0.2247623 -40.47  0.001645769    2.767    0.639
       104 -10.2920      4.3708     89.3514   1.2087387913e+02   5.6627419231e+01    0.9114413    0.2900586 -84.68  0.002647166    3.698    0.730
       105  -8.8796      6.8278     78.4746   1.1850804530e+02   5.9046118752e+01    0.4112361    0.2127064 -40.92  0.002222664    2.060    0.515
       106 -10.3261     47.9414     84.5347   1.0535313175e+02   5.4100000619e+01    0.6782095    0.3747202 -74.25   0.00153382    2.009    0.502
       107  -9.4936     48.6876     77.3168   1.0333764328e+02   5.5718373274e+01    0.6341438    0.3710034 -38.43  0.002909489    1.815    0.449
       108  -8.5620    150.5750     89.1328   7.6470727389e+01   3.4158290241e+01    0.2545966    0.2220941  73.81 0.0006026559    1.278    0.218
       109 -10.3074     85.3302     86.5262   9.3555764710e+01   4.8303052745e+01    0.5292348    0.3863116  85.36  0.001028752    1.928    0.481
       110  -9.4353     87.6795     78.5930   9.0494680857e+01   4.9687299530e+01    0.5235972    0.3568712  14.40  0.001600526    2.147    0.534
       111  -7.1924     78.2854     89.6914   9.6635447923e+01   4.8728745092e+01    0.1418042    0.1099887 -89.49  0.000403415    1.570    0.363
       112  -8.6752    163.7167     86.7787   7.2829235034e+01   3.1466986592e+01    0.3422401    0.2491348 -27.57  0.001548743    1.413    0.293
       113  -9.3106     35.6179    110.8807   1.1429169161e+02   4.9050870417e+01    0.2403025    0.1733339  84.40 0.0005652905    1.346    0.257
       114 -10.3638    103.9034     82.5445   8.6739445922e+01   4.5780727151e+01    0.6006867    0.3047018 -53.14 0.0009098541    2.045    0.511
       115  -9.3419    105.3263     70.9495   8.2621263996e+01   4.7956437168e+01     0.701798    0.3518847 -32.79  0.002653486    2.248    0.555
       116  -9.6946    140.3388     82.4637   7.6894656623e+01   3.7882394457e+01    0.9253849    0.3571554 -35.98  0.003027843    2.669    0.625
       117  -9.2642    139.9793     75.9014   7.4919505470e+01   3.9249539509e+01    0.6253386    0.3837645 -45.69     0.001891    1.621    0.383
       118  -7.9084    170.4266     83.2424   7.0367966365e+01   3.0485522034e+01    0.2302533    0.1389199 -46.63 0.0009380417    1.690    0.408
       119  -9.0780    240.1793     81.4246   5.8189354660e+01   1.4333880302e+01    0.2530983    0.1535926 -35.87  0.001214801    1.434    0.303
       120  -8.3195    149.9104     80.7927   7.4101690538e+01   3.5937267186e+01    0.2955568    0.2152485 -45.78  0.000424597    1.358    0.264
       121  -9.5209    119.1758     78.9887   8.1289454457e+01   4.3370143635e+01    0.6807384    0.2501952 -38.23  0.001762218    2.786    0.641
       122  -9.0419     74.1602     79.8876   9.5267499896e+01   5.1644568662e+01    0.4582434    0.2264913 -60.37 0.0009079357    2.161    0.537
       123  -8.6451     68.8408     79.4391   9.6918330813e+01   5.2555561283e+01    0.2975999    0.1406486 -47.18  0.001251468    1.892    0.471
       124  -8.2022    184.1536     78.2694   6.6206090080e+01   2.7978091667e+01    0.2650844    0.2117017 -15.32  0.000626523    1.343    0.255
       125  -7.9985    166.5547     78.7575   6.9822215477e+01   3.2251369955e+01    0.2250755    0.1409609 -46.40  0.000929063    1.618    0.382
       126  -7.1342    174.2691     78.6834   6.8231093747e+01   3.0354933676e+01    0.1577724    0.1186928 -62.46 0.0002640668    1.556    0.357
       127  -8.2545    156.9175     76.0290   7.1042030488e+01   3.5125647440e+01     0.410762    0.2205346 -27.90  0.001551029    2.049    0.512
       128  -9.1780    129.9587     57.8423   7.1312007563e+01   4.4984542459e+01    0.4816256    0.2401749 -36.56   0.00155261    1.924    0.480
       129  -9.4524    127.3631     75.2402   7.7892496435e+01   4.2311417637e+01    0.4064097    0.2726106 -58.49  0.000787475    1.765    0.433
       130  -8.7905    129.2358     68.8837   7.5308908852e+01   4.3120673483e+01    0.4959243    0.2740229  27.31  0.001708136    2.937    0.660
       131  -9.0113    130.4830     64.0852   7.3360297842e+01   4.3730497144e+01    0.5898445    0.2409248 -35.42  0.001371155    2.405    0.584
       132 -10.0125     81.4410     72.1019   9.0500300241e+01   5.2203289968e+01       0.5253     0.327456 -62.39  0.001151768    1.865    0.464
       133  -9.0725     83.8027     64.0814   8.7064799787e+01   5.3513142688e+01    0.5206623    0.3529944  -4.26  0.002238685    2.275    0.561
       134  -8.4909    148.8345    249.0056   1.0720730723e+02   5.5651152738e+00    0.1677067    0.1178104  73.71  0.001090247    2.013    0.503
       135  -9.8416    171.8119    248.5074   1.0323980619e+02   2.2495402563e+00    0.2311645    0.1998195  64.39  0.001782974    1.474    0.322
       136  -9.9843    164.0251    246.8916   1.0436896059e+02   3.5982832127e+00    0.3339998    0.1536627  25.99  0.001567024    3.019    0.669
       137  -9.8657     16.0006     70.7173   1.1382017849e+02   6.0288134064e+01     0.580572    0.2497448 -50.37  0.001111689    1.916    0.478
       138 -10.0349     17.0237     61.2787   1.1141227551e+02   6.2401780655e+01    0.8159056    0.2049265 -60.81  0.003241034    2.700    0.630
       139 -10.8587     21.9313     53.5097   1.0743991072e+02   6.3796215880e+01    0.8081189    0.4259107 -89.72  0.002872718    3.986    0.749
       140  -7.5932     88.5360    246.4947   1.1729388592e+02   1.4441630625e+01    0.1075869   0.08225808  54.44 2.126834e-05    1.067    0.063
       141 -10.2294     11.9074     45.8508   1.0974320447e+02   6.6207872204e+01    0.7786561    0.3971609  -7.22   0.00391471    2.856    0.650
       142 -10.1039      4.8706     41.7361   1.1187353242e+02   6.7520257333e+01    0.5254881    0.2772374 -63.97  0.001946564    1.485    0.327
       143  -8.2807    156.4649    242.5041   1.0514894830e+02   5.2907215780e+00     0.114056   0.08838493  39.72 0.0001131466    1.003    0.003
       144 -10.0660    124.4182    241.0817   1.1059202618e+02   1.0243499655e+01    0.1961628    0.1582578  46.52 0.0003541288    1.069    0.065
       145  -9.7391    187.3455    233.6685   9.8654195302e+01   1.7433597794e+00    0.2655949     0.217253  32.81   0.00134538    1.086    0.079
       146  -9.0132    115.0995     72.9126   8.0455547064e+01   4.5498026568e+01    0.3414167    0.2785378 -64.00 0.0005136647    1.382    0.276
       147  -8.9595    115.7480     68.8212   7.8906390394e+01   4.6178216359e+01    0.3183333    0.2997963 -11.93 0.0008658267    1.071    0.066
       148 -10.0036     63.2072     60.6805   9.3152566645e+01   5.7576862824e+01    0.6705474     0.320332  32.55   0.00167481    2.461    0.594
       149 -10.5473     55.2046     70.9505   9.9275603465e+01   5.6391534706e+01    0.6092346    0.3780954  59.76  0.001255674    2.378    0.580
       150  -9.6587     55.0660     63.3448   9.7050979177e+01   5.8122614502e+01    0.3959481    0.2631036 -32.44  0.001326743    1.573    0.364
       151  -8.2154    162.7941     72.9088   6.8804815629e+01   3.4233476409e+01    0.2861833     0.198483 -53.37 0.0006537991    1.576    0.365
       152  -7.7616    175.4740     72.4720   6.6117230518e+01   3.1134290993e+01    0.1564359    0.1491551 -44.94 0.0001261998    1.031    0.030
       153  -9.2500    146.9970     69.2677   7.1110923466e+01   3.8800385047e+01    0.4487093     0.275642 -55.85 0.0009497895    1.977    0.494
       154  -7.8163    169.4003     71.1671   6.6908880730e+01   3.2884528409e+01     0.226904    0.1369576 -44.79 0.0005396385    1.655    0.396
       155  -7.9286    156.5350     70.0402   6.9231372483e+01   3.6303957100e+01    0.2408619    0.1506745 -36.06 0.0004972333    1.541    0.351
       156  -9.7912     94.7708     68.3012   8.4951016433e+01   5.0601594352e+01    0.4884627    0.2458725 -46.92  0.000865719    1.875    0.467
       157  -9.2544     97.9231     57.8252   8.0280526664e+01   5.2092180370e+01    0.7935509    0.5095556 -29.28  0.003608625    1.606    0.377
       158  -9.2391    137.9453     65.6603   7.2048775362e+01   4.1660295034e+01    0.6336511    0.3934968 -21.35  0.001442562    1.917    0.478
       159  -9.0103    121.1064     66.0540   7.6490412038e+01   4.5526669897e+01    0.3452515    0.2662137 -58.91 0.0005792528    1.466    0.318
       160  -8.6154    122.0296     61.2074   7.4554730688e+01   4.6231576369e+01     0.346589    0.2492214  22.05 0.0008930331    1.735    0.424
       161  -8.0059     75.6087     66.2685   9.0583593351e+01   5.4447598333e+01    0.2022322    0.1227045 -40.89  0.000935638    1.520    0.342
       162  -8.0597    170.8459     65.1651   6.4747360140e+01   3.3538564301e+01    0.2143818    0.1841361   8.11 0.0004202289    1.308    0.236
       163  -9.4027    109.7189     63.7015   7.8854235809e+01   4.8491258692e+01    0.3981112    0.2704122 -55.57  0.000632766    1.671    0.402
       164  -9.0004    110.5812     58.2848   7.6671447253e+01   4.9341957930e+01    0.4058097    0.3038183   2.64 0.0009988544    1.702    0.413
       165  -8.1246    157.7551     63.1312   6.6733649298e+01   3.7202724237e+01    0.3255114    0.1929372 -45.33 0.0007671922    1.714    0.417
       166  -9.2356    211.6187     60.3792   5.6504427551e+01   2.4032965495e+01    0.4218488     0.265484 -22.99  0.001306086    1.618    0.382
       167  -7.4912    240.4173    231.5055   8.9508286609e+01  -5.7888728991e+00    0.1119661   0.08178534  14.94 0.0001773025    1.029    0.028
       168  -8.1964    247.9370    227.0133   8.7613401266e+01  -6.3731131850e+00    0.1350048   0.09897586  14.48            0    1.005    0.005
       169  -8.0758    127.0614    226.6357   1.0855020965e+02   1.2040161111e+01    0.1773585    0.1464173  78.55 0.0003206793    1.329    0.247
       170  -8.8409     87.6435     58.3064   8.3748342646e+01   5.3996701197e+01    0.5059765    0.2327815 -46.45   0.00169694    2.072    0.517
       171  -8.2556    235.2534    215.1304   8.7710405986e+01  -3.3104122489e+00    0.1834974    0.1325667  26.99 0.0004012003    1.161    0.138
       172  -9.8922     11.0115    207.4681   1.2832685120e+02   3.0228029772e+01    0.5094354    0.2247649  29.77  0.002923916    2.814    0.645
       173 -10.4473     89.7463     38.3668   7.5210725525e+01   5.7270009134e+01     1.195859    0.4904948  31.43  0.003657968    4.352    0.770
       174  -9.0192    192.5307    195.3822   9.1794802460e+01   6.0768457591e+00    0.7390432    0.3482358 -57.57  0.002343304    6.465    0.845
       175  -9.2133    233.6473    197.5087   8.4935297522e+01  -1.0018765742e+00    0.2432408    0.2321975 -68.93 0.0008062609    1.715    0.417
       176 -10.0312     73.4857     57.3726   8.8271381722e+01   5.6677751894e+01        1.239    0.4393185 -39.22  0.002594813    2.866    0.651
       177 -10.4521     85.1088     47.9654   8.0677316486e+01   5.6474312462e+01    0.6187468    0.4447137 -79.00  0.000955519    2.470    0.595
       178  -8.9222     80.1357     46.1231   8.1650665347e+01   5.7740449550e+01    0.2812989    0.2101605 -20.92 0.0005800214    1.356    0.263
       179  -7.7065    164.7241     60.5572   6.4473095387e+01   3.5862659976e+01    0.2053531    0.1539224  76.21 0.0009285691    1.547    0.354
       180  -7.9216    152.4500     60.2922   6.6922918327e+01   3.9024180765e+01    0.2305536    0.1389277 -44.47 0.0009479944    1.674    0.402
       181  -8.0051      9.5206     59.9251   1.1413456766e+02   6.3195659977e+01    0.1960226   0.09303639 -64.31  0.001025047    1.582    0.368
       182  -8.7879    146.5002     58.9618   6.7780671437e+01   4.0743331238e+01    0.3148493    0.1836611 -34.02  0.000720942    1.664    0.399
       183  -8.3793    147.8040     53.7917   6.5715525379e+01   4.1279674377e+01    0.4386769    0.2060752 -25.96  0.001569178    2.360    0.576
       184  -8.5585    141.9490     48.8112   6.5249304222e+01   4.3559148292e+01    0.3257599    0.2403928 -10.61 0.0004731931    1.545    0.353
       185  -9.0913    138.9437     56.9440   6.8815402486e+01   4.2962311619e+01    0.4093319    0.2616007 -53.76 0.0004769586    1.823    0.452
       186  -7.9960    138.5059     52.4902   6.7344909653e+01   4.3821389134e+01    0.2340383     0.139392  43.88 0.0007025648    1.753    0.429
       187  -8.1169     30.0286     58.5100   1.0544590596e+02   6.1986883982e+01    0.1680573     0.128815  22.29 0.0009411037    1.581    0.368
       188  -8.1469    122.7932     40.9988   6.6850277392e+01   4.9503384554e+01    0.3337885     0.215836  21.79  0.001405951    2.019    0.505
       189  -8.9467    121.1833     47.0878   6.9600799127e+01   4.8910769393e+01    0.3448859    0.2279929 -42.72 0.0005455008    1.526    0.345
       190  -9.0078    118.2109     55.4841   7.3523403606e+01   4.8151235158e+01    0.3491153    0.2704989 -61.07 0.0007318654    1.537    0.350
       191  -8.1477    118.9633     51.5084   7.1850648357e+01   4.8680082430e+01     0.384281    0.1917614  34.26  0.001374699    2.673    0.626
       192  -7.1020    246.3042    195.3204   8.2465291497e+01  -2.6945795736e+00    0.1251397   0.07693627   8.26 0.0004709603    1.632    0.387
       193  -8.9725    221.8301    192.1697   8.5977888042e+01   1.5766929282e+00    0.2481554    0.1688489  39.25 0.0008000535    1.402    0.287
       194  -7.8569    248.3046    188.6577   8.0915630943e+01  -2.2109978082e+00    0.1045345   0.09664429 -45.32   0.00051622    1.683    0.406
       195 -10.2053     49.9398     54.2596   9.6079987694e+01   6.0766165272e+01    0.6018189     0.425969 -70.30  0.002303135    1.732    0.422
       196 -10.2331     56.4118     43.2145   8.9419479509e+01   6.2170397539e+01       1.6505    0.8889169  -7.10  0.005162984    5.355    0.813
       197  -9.0048    223.0838    187.5627   8.4914031655e+01   1.9795596409e+00    0.2234013    0.1898277   5.00 0.0004881219    1.056    0.053
       198 -10.0975     76.1465     32.0150   7.7066746217e+01   6.0953502118e+01    0.4920305    0.4164503  69.77  0.001761833    1.630    0.387
       199  -8.7872    223.0801    182.6729   8.3995835546e+01   2.6395932238e+00    0.2186565    0.1658015 -14.86  0.000368172    1.261    0.207
       200  -8.0635      2.9955    181.9585   1.2860467339e+02   3.5935153812e+01    0.1713488    0.1207153  74.39 0.0005841702    1.035    0.034
       201 -10.2341    190.9576    179.1540   8.9172547476e+01   8.8195479912e+00    0.2359016    0.2182345  18.72 0.0003121404    1.073    0.068
       202  -8.2247    143.4350    180.1688   9.8868872759e+01   1.7300053799e+01    0.2036994    0.1651406  34.65 0.0003548557    1.200    0.167
       203  -8.7493    249.3117    177.4335   7.8612677826e+01  -9.9635748765e-01    0.2202117    0.1299532 -16.34 0.0006466687    1.623    0.384
       204  -9.1067     76.5631    178.0292   1.1297575785e+02   2.8563396787e+01    0.2095967    0.1628887  52.17 0.0001887663    1.195    0.163
       205  -7.3745    169.2934     55.6734   6.2008724777e+01   3.5475796674e+01    0.1613058    0.1158329 -61.74 0.0003973314    1.623    0.384
       206  -7.1644    157.3391     55.6802   6.4349921859e+01   3.8547525736e+01    0.1639876    0.1188681 -66.93 0.0007049856    1.712    0.416
       207  -9.3835    162.2848     52.8272   6.2409936560e+01   3.7731487829e+01    0.4671395    0.2547741 -34.52  0.001897388    1.755    0.430
       208  -7.4568    172.4724     50.0374   5.9599351191e+01   3.5518840351e+01    0.2464084      0.14931 -28.78 0.0007694737    1.630    0.387
       209  -8.1903    157.0698     49.0329   6.2152249873e+01   3.9666487671e+01    0.2479349    0.1829592 -66.87 0.0008542347    1.639    0.390
       210  -8.9603    149.8814     47.6116   6.3118702949e+01   4.1733633410e+01    0.5485157    0.2128237 -31.99  0.001352893    2.480    0.597
       211  -8.9427    153.5805     41.3016   6.0155018454e+01   4.1722515116e+01    0.3795516    0.2396239 -29.83 0.0009972432    1.560    0.359
       212  -9.6419    130.4955     46.8510   6.7184602463e+01   4.6713565354e+01    0.9042045    0.3574729 -23.23   0.00211682    3.475    0.712
       213  -8.8868    133.0018     35.9982   6.2502082831e+01   4.7741601254e+01    0.4515338    0.2160257 -40.78   0.00099105    2.128    0.530
       214  -8.7263    211.2767    162.7665   8.2149039264e+01   7.6237271708e+00    0.2209306    0.1856054  22.21 0.0002971577    1.096    0.087
       215  -8.5778    111.9719     46.9199   7.2008866069e+01   5.1066189557e+01    0.3027805    0.2024637 -34.08 0.0004866445    1.433    0.302
       216  -8.0173    113.2220     42.2063   6.9818103041e+01   5.1561931019e+01    0.3021525    0.1837315  23.05  0.001046039    2.278    0.561
       217  -8.8741    105.5458     51.9007   7.5760900484e+01   5.1611226436e+01    0.5975725    0.2756025 -34.30  0.001875311    2.124    0.529
       218  -8.7643    144.3348     43.4695   6.2809826520e+01   4.3781723757e+01    0.5546473    0.2399622  35.58  0.001698254    3.599    0.722
       219  -9.1346    104.9245     41.0608   7.1682491243e+01   5.3616802367e+01    0.4226457    0.2387369 -45.86  0.001112701    1.919    0.479
       220  -8.5564    106.0364     36.4739   6.9483083211e+01   5.4100349419e+01    0.3465019    0.2024791  32.97 0.0009362121    1.977    0.494
       221  -8.7358    139.5708     40.0514   6.2582044372e+01   4.5500207812e+01    0.4122619    0.2384637 -36.13  0.001574566    1.685    0.407
       222  -8.0703    160.2395     39.7645   5.8362761408e+01   4.0206036761e+01    0.2564429    0.1783981 -31.22 0.0003318342    1.410    0.291
       223  -8.9472    144.1925     36.4975   6.0297907452e+01   4.4830527585e+01    0.2957316    0.2151485 -46.40 0.0005793652    1.440    0.305
       224  -7.2829      7.3914     37.2083   1.0941391807e+02   6.8356305251e+01    0.1163477   0.07022258 -32.07 0.0006816103    1.610    0.379
       225  -8.9084    118.9606     34.4976   6.5235968260e+01   5.1398426655e+01    0.3612054    0.2005159 -32.77 0.0007731376    1.744    0.427
       226  -8.0299    153.7762     34.8207   5.7821940577e+01   4.2576785023e+01     0.212957    0.1744572 -65.92 0.0004473561    1.355    0.262
       227  -8.2686     76.7129    162.5902   1.1099108371e+02   3.1876311362e+01    0.1925562    0.1781404 -72.32 0.0005246294    1.212    0.175
       228  -8.9988    110.3888     33.1915   6.6921742583e+01   5.3604851609e+01    0.3343638    0.2318948 -47.30  0.000825306    1.609    0.379
       229  -8.1859    197.2535    161.0744   8.4408727098e+01   1.0545826558e+01     0.245347    0.1871781 -52.46 0.0007832232    1.622    0.383
       230  -9.1903    155.5586     27.1483   5.4763616827e+01   4.3100145317e+01    0.4084986    0.1969778  65.32  0.001612956    2.076    0.518
       231  -7.1858    139.4623    157.4214   9.5664115817e+01   2.2433840820e+01    0.1399634    0.1318304  53.74 6.775324e-05    1.010    0.010
       232  -7.9967    238.8673    151.1840   7.4928270530e+01   4.2735429402e+00    0.1872637    0.1379526   5.48 0.0004407263    1.339    0.253
       233  -8.8771    128.3526     25.4194   5.9384470742e+01   5.0328388993e+01    0.4382142    0.2339687 -36.61  0.001494397    1.871    0.466
       234  -8.5303    110.2091     26.2221   6.4026327521e+01   5.4625495249e+01    0.3119861     0.241911  18.53  0.001606462    1.355    0.262
       235  -8.7820    144.2746     25.6945   5.6266919309e+01   4.6229401892e+01     0.257764    0.2156896 -55.05 0.0005164135    1.287    0.223
       236  -9.2101     67.1084    144.1938   1.1072823036e+02   3.7393657037e+01    0.5540404    0.2496318  56.61  0.002305424    2.605    0.616
       237  -9.2882    118.7820     21.4076   5.9883269689e+01   5.3191093793e+01    0.3018475    0.2796593 -78.98 0.0006040008    1.239    0.193
       238  -8.4805    133.5708    146.4417   9.4841891292e+01   2.5822304276e+01     0.520032    0.1429764 -52.37  0.001535142    4.100    0.756
       239  -8.7886     41.0767     20.8114   8.6209506050e+01   6.8400198634e+01     0.211168    0.1686571 -21.56 0.0003399174    1.033    0.032
       240  -8.1927    155.4036     18.1864   5.1575584477e+01   4.4185819063e+01    0.2109051    0.1261505 -37.27 0.0006447277    1.668    0.400
       241  -8.7374    132.8715     17.1836   5.5161635385e+01   5.0159818107e+01    0.2187368    0.1926636 -63.07  0.000545884    1.262    0.207
       242  -8.2991    129.0330     16.1325   5.5496009136e+01   5.1250693738e+01    0.2468042    0.2074196 -39.98 0.0006221302    1.255    0.203
       243  -7.5744    230.1635    138.1720   7.3498538965e+01   7.7995297460e+00    0.1761228    0.1571699 -44.43            0    1.319    0.242
       244  -7.3262    168.3579    136.2198   8.4814902161e+01   2.0825739034e+01    0.1471072     0.110421  20.88 0.0004197826    1.561    0.359
       245  -8.5975    112.2749    133.9527   9.7427304581e+01   3.2558829235e+01    0.3221872    0.2381687  82.02 0.0009896369    1.652    0.395
       246  -9.3791    135.7675    132.2355   9.1285508662e+01   2.8407095847e+01    0.4426432    0.2232822 -41.29   0.00175963    2.108    0.526
       247  -9.2898    132.3397    131.6717   9.1981853960e+01   2.9216293622e+01    0.4247453      0.28121 -89.84  0.001572956    2.546    0.607
       248  -8.6676     83.0063    131.4882   1.0451589563e+02   3.8077035518e+01    0.5744058    0.3097818  78.15  0.002028467    3.533    0.717
       249 -10.6528     70.0808    126.5110   1.0709309726e+02   4.1161392062e+01      0.65547    0.5738599 -45.71    0.0015684    1.291    0.225
       250  -9.7430     98.5365    128.6086   9.9857143558e+01   3.6220257660e+01    0.6159219     0.357453  73.57  0.002222682    2.888    0.654
       251  -9.9240     41.8330    123.0286   1.1431924562e+02   4.5486762314e+01     0.771009    0.3262246 -87.40  0.002799502    3.495    0.714
       252  -8.2909    161.0648    128.3570   8.4554371123e+01   2.3919649572e+01    0.3050826    0.2263041 -50.14  0.001464031    1.399    0.285
       253  -9.9391    117.3970    125.6752   9.4340752568e+01   3.3464593365e+01    0.7946978    0.5154926  81.58  0.002297542    2.493    0.599
       254 -10.1327    128.1836    100.9202   8.5369074560e+01   3.6769033752e+01     0.823528    0.4497494 -30.71  0.002093057    2.351    0.575
       255  -9.5315    110.0510     90.5720   8.7349219910e+01   4.2797175226e+01    0.7969413    0.4762553  19.52  0.002866645    3.037    0.671
       256 -10.4855    139.4985    103.4120   8.3201235315e+01   3.3776036681e+01    0.8278221    0.4196066 -41.04  0.001591177    1.941    0.485
       257 -11.1524    121.2224    108.3725   8.9172042283e+01   3.6586408929e+01     1.682944    0.6982326 -45.78  0.006055729    2.332    0.571
       258 -10.5359    123.2827     91.3185   8.3932235335e+01   3.9885577268e+01     1.125495    0.5973382 -30.00  0.002979541    2.455    0.593
       259 -10.6346    132.1576    120.0114   8.9303515910e+01   3.1782848035e+01    0.8996232    0.5484059  75.37  0.003011435    3.063    0.674
       260 -11.0668    133.3165    109.6894   8.6413894830e+01   3.3778391172e+01    0.9661737    0.4864592 -42.40  0.002476981    1.966    0.491
