#   1 NUMBER                 Running object number                                     
#   2 MAG_AUTO               Kron-like elliptical aperture magnitude                    [mag]
#   3 X_IMAGE                Object position along x                                    [pixel]
#   4 Y_IMAGE                Object position along y                                    [pixel]
#   5 X_WORLD                Barycenter position along world x axis                     [deg]
#   6 Y_WORLD                Barycenter position along world y axis                     [deg]
#   7 A_WORLD                Profile RMS along major axis (world units)                 [deg]
#   8 B_WORLD                Profile RMS along minor axis (world units)                 [deg]
#   9 THETA_WORLD            Position angle (CCW/world-x)                               [deg]
#  10 FWHM_WORLD             FWHM assuming a gaussian core                              [deg]
#  11 ELONGATION             A_IMAGE/B_IMAGE                                           
#  12 ELLIPTICITY            1 - B_IMAGE/A_IMAGE                                       
         1 -11.6464     79.9477     23.4495   7.4119092448e+01   6.1866368342e+01    0.8163537    0.3213458  41.27  0.002984517    2.813    0.645
         2  -9.0657     46.1055     21.0758   8.7338184960e+01   6.8543091421e+01    0.5172704    0.2068907 -39.10  0.002106144    2.330    0.571
         3  -9.4094     27.0167     22.2480   9.8408305386e+01   7.0832090093e+01    0.9668027    0.2789797 -49.67  0.003758094    2.762    0.638
         4  -9.0546     13.6474     18.0598   1.0489493152e+02   7.2982861940e+01    0.4710193    0.2492237 -16.69  0.001694691    2.594    0.614
         5  -9.6481     78.9077     12.7530   6.8938797382e+01   6.3652270569e+01    0.4399847    0.2828545  58.83  0.001371205    1.700    0.412
         6  -9.1165     74.5037     13.4959   7.0884743955e+01   6.4508346473e+01    0.4006328    0.2752905   4.60   0.00148475    1.722    0.419
         7  -9.1644     64.3186     13.7586   7.4955333755e+01   6.6565177415e+01    0.4453918    0.2551259 -17.85  0.001947429    2.008    0.502
         8  -9.6276    133.9765     13.6005   5.5715106062e+01   4.9802396992e+01    0.2653687    0.2370965  17.56  0.000254395    1.153    0.133
         9  -8.7942    124.8667     11.1968   5.6374043856e+01   5.2488956235e+01    0.5163184    0.2641957   4.92  0.001802545    2.896    0.655
        10  -8.3604     87.9021     13.2627   6.6317496395e+01   6.1544188580e+01    0.2764252    0.1743008  12.54 0.0008802409    2.026    0.506
        11  -8.1279     96.6264     12.3074   6.3327292169e+01   5.9585975647e+01    0.3320734     0.170038  32.14 0.0009301268    2.400    0.583
        12  -8.7103    108.3570     11.1264   5.9814347384e+01   5.6798389666e+01    0.2685196    0.1800243  50.60   0.00110463    1.423    0.297
        13  -9.4169     31.3547     10.8884   8.9908926346e+01   7.2526724059e+01    0.3921136    0.2279991  29.12 0.0004999109    1.914    0.478
        14  -8.8861     32.2105      6.1038   8.6467442048e+01   7.3255056440e+01    0.2194294    0.1838721 -15.55 0.0002634002    1.057    0.054
        15  -9.6158     20.2743      8.8285   9.5868196031e+01   7.4239885188e+01    0.3102792    0.2081653 -21.36 0.0007535107    1.535    0.349
        16  -7.5943    142.4562      9.7944   5.2769948108e+01   4.7902004477e+01    0.1975451    0.1419856   2.17 0.0004817568    1.565    0.361
        17  -8.7134     71.8244      9.0611   6.9373581028e+01   6.5683659556e+01    0.1987777    0.1833832 -45.91 0.0004115389    1.244    0.196
        18 -10.1570    119.2562      6.8678   5.5534728839e+01   5.4414772498e+01    0.2814301    0.2415086  17.98 0.0002060035    1.187    0.158
        19  -8.7031     40.9069      6.0704   8.1412822125e+01   7.1950447619e+01    0.3298778    0.1685264 -28.74 0.0009276082    1.927    0.481
        20  -8.1462    156.0086      6.9952   4.9781761727e+01   4.4483421107e+01     0.236582    0.1576179  37.60 0.0004117441    1.626    0.385
        21  -8.0297    100.5788      6.7936   5.9550209054e+01   5.9234288963e+01     0.192775    0.1282908 -34.31  0.000615085    1.532    0.347
        22  -9.5087     46.5093      6.2917   7.8601917255e+01   7.0984524127e+01     0.273351     0.211871  19.61 0.0003242416    1.311    0.237
        23  -9.7820      8.0253      5.4890   1.0295642867e+02   7.6031542160e+01    0.4428483    0.2300605  -0.94   0.00146027    2.630    0.620
        24  -7.6695    179.4301      5.7476   4.6677169300e+01   3.8291703962e+01    0.1888168    0.1368694  -0.05 0.0007054893    1.560    0.359
        25  -8.7639    137.9659      4.8285   5.1455455174e+01   4.9588922030e+01    0.2277372    0.2215001  43.03 0.0003174453    1.021    0.020
        26  -9.0983    131.6776      5.3093   5.2644532564e+01   5.1246253957e+01    0.3015102    0.2425978 -59.16 0.0008458182    1.349    0.259
        27  -8.2203    134.1873      3.1639   5.1344289228e+01   5.0761953250e+01    0.2418032    0.2008254  69.71 0.0002804673    1.172    0.146
        28  -9.1205     92.3178      5.1976   6.0831008712e+01   6.1442332333e+01    0.4221412     0.198286  51.73   0.00178177    1.966    0.491
        29  -9.6981     84.8603      5.4486   6.3057559468e+01   6.3195952373e+01     0.286943    0.2484296 -11.87  0.001634902    1.120    0.107
        30  -8.7978     77.2985      6.6055   6.6070634783e+01   6.4795024292e+01    0.2459817    0.1353986  59.71  0.001107289    1.954    0.488
        31  -8.6568    109.9755      1.7796   5.4996692928e+01   5.7328986485e+01    0.2154469    0.1603046  40.45  0.001095397    1.299    0.230
        32  -8.1656    125.7405      3.8874   5.3027624140e+01   5.2972594156e+01    0.2217594    0.1828464  30.21 0.0005127508    1.230    0.187
        33  -8.5136     57.2859      3.2984   7.1631869444e+01   6.9423126871e+01     0.271697    0.1837507  45.36 0.0009397698    1.508    0.337
        34  -8.1171    143.1374      2.1946   4.9647125258e+01   4.8414705592e+01    0.2127696    0.1821965  40.61 0.0003324277    1.175    0.149
        35  -8.3368    153.4816      3.4734   4.8785519121e+01   4.5485932564e+01    0.1436369    0.1381129  59.65  0.000230107    1.032    0.031
        36  -7.4960      3.3171      1.2935   1.0448885281e+02   7.7219716100e+01    0.1245377   0.07065737 -33.16 0.0002645035    1.603    0.376
        37  -7.4726    220.5172    100.4580   6.8637703155e+01   1.6766916273e+01    0.1368492    0.1216349  -6.44 0.0001026296    1.008    0.008
        38 -10.4533    189.6867    249.5452   1.0054346663e+02   3.6178939880e+00    0.3919675    0.1192264  35.91  0.002039062    2.394    0.582
        39 -10.2962     13.1532     93.7948   1.2184019607e+02   5.5247108634e+01    0.3649548    0.2932749 -26.27  0.001416673    1.590    0.371
        40  -8.6756     43.8686     92.3711   1.1096275995e+02   5.2802757085e+01     0.331868    0.2092641 -20.84  0.001532949    2.578    0.612
        41  -8.0010    109.4963     91.0620   8.9601391758e+01   4.2630243677e+01    0.3846902    0.2054264  25.06  0.001303646    3.333    0.700
        42  -9.7261     23.0248     89.4805   1.1783923790e+02   5.5533809877e+01     0.365992    0.1947497 -33.53  0.001701885    2.688    0.628
        43  -7.9438     96.7517     90.2633   9.3104130738e+01   4.5285334937e+01    0.2966238    0.1880079  17.38  0.001180517    2.589    0.614
        44  -8.3448    243.4886     87.4349   6.2287995885e+01   1.3838318818e+01    0.1316127    0.1128236 -10.87 0.0001335375    1.018    0.018
        45  -7.5695    103.5394     87.0783   9.0214411569e+01   4.4667456592e+01    0.2061052    0.1433158 -48.42 7.784516e-05    1.416    0.294
        46 -10.3036     37.3026     81.3933   1.1124834352e+02   5.6162655143e+01    0.7045598    0.3791141 -28.90  0.002970069    3.016    0.668
        47  -7.9120     66.0493     84.2494   1.0148617677e+02   5.1845469786e+01    0.1870382    0.1812179  67.11 0.0004229249    1.087    0.080
        48  -9.7021      7.5437     77.8985   1.2201780260e+02   5.9422676039e+01    0.6029779    0.2780863 -33.78  0.002758591    3.007    0.667
        49  -8.6701     88.0652     79.1194   9.2710497179e+01   4.9354792720e+01    0.4433379    0.2576331  18.19  0.001386858    3.232    0.691
        50  -7.8593    184.2474     78.0234   6.8686297516e+01   2.7997879019e+01     0.208429    0.1858463 -23.78 0.0005406908    1.077    0.072
        51  -8.6785     49.8052     77.1006   1.0561759853e+02   5.5761811106e+01    0.4604875    0.2576197  10.49  0.001906716    3.024    0.669
        52  -7.6144    104.9699     77.0301   8.6846146542e+01   4.6503288786e+01    0.3005802      0.18756  -0.65 0.0009514866    4.071    0.754
        53 -10.0141     23.4961     74.5061   1.1528266050e+02   5.9117918325e+01    0.9533922    0.3308189 -39.15  0.003149331    4.795    0.791
        54  -8.1810     23.4643     69.4885   1.1437187486e+02   6.0333276123e+01    0.3355699    0.1876399  30.26  0.001462502    1.997    0.499
        55  -8.2894     74.9808     74.0928   9.5645042113e+01   5.2775643924e+01    0.2099562    0.1997304 -34.69 0.0003305508    1.089    0.082
        56  -7.5914    125.9853     84.0150   8.3106089550e+01   4.0583014513e+01    0.2800664    0.1629644  25.38  0.001019725    2.698    0.629
        57  -7.7931    129.9591     68.8637   7.7379207073e+01   4.2569512673e+01    0.2621222    0.1712697  25.76  0.001072844    2.041    0.510
        58 -10.3233    118.0479     65.9620   7.9544717782e+01   4.5871371494e+01    0.2910526     0.251256 -13.02            0    1.264    0.209
        59  -7.8610    106.7333     67.1216   8.3151786515e+01   4.8154571413e+01    0.2887295     0.193436  21.67  0.001211148    2.090    0.522
        60  -8.7663     82.7985     65.1107   9.0139681241e+01   5.3381076410e+01     0.497613     0.313155 -11.41  0.001835742    3.179    0.685
        61  -7.8462     11.4027     61.1574   1.1797814577e+02   6.3217043701e+01    0.3330161    0.1579665  82.51  0.001450094    2.701    0.630
        62  -8.2884     16.0061     64.1643   1.1651341464e+02   6.2187849713e+01     0.277464    0.2149555 -45.30  0.001107634    1.304    0.233
        63  -8.4981     19.5127     60.9896   1.1437419265e+02   6.2693264829e+01    0.2198182    0.1674525 -26.71 0.0006226738    1.526    0.344
        64  -9.4435     62.8221     61.1701   9.6184673211e+01   5.7647015679e+01    0.5455572    0.2883699  25.99  0.002083961    2.500    0.600
        65  -8.5560     58.0273     62.0000   9.8329590612e+01   5.8179493854e+01    0.3763044    0.1684136  39.50  0.001570682    2.396    0.583
        66  -9.1251     26.7503     60.4652   1.1107366213e+02   6.2218589093e+01    0.3425588    0.2622506  -5.42  0.001401564    1.636    0.389
        67  -9.5763     36.8111     59.1687   1.0634635814e+02   6.1532851841e+01    0.4143487     0.286658  -5.99  0.001312786    1.980    0.495
        68  -8.5447     97.6640     57.7156   8.2658982399e+01   5.1956946108e+01    0.6483769    0.3676646 -10.19  0.001786879    5.351    0.813
        69  -8.0546    111.3087     58.5216   7.8850914694e+01   4.8809896631e+01    0.3062169     0.200428  21.26  0.001243579    2.203    0.546
        70  -8.3614    214.1584     55.7338   5.7844542631e+01   2.4028262639e+01    0.2688268    0.1891729 -20.85 0.0006619605    1.348    0.258
        71  -7.8882     72.4612     54.4855   9.0208389819e+01   5.7514974982e+01    0.2685713    0.1733957 -46.46  0.000875146    1.448    0.309
        72  -9.8421     75.1168     50.0840   8.7580465815e+01   5.7955665899e+01    0.3003414    0.2829641   1.72 0.0002898622    1.103    0.094
        73  -7.6691     88.5209     53.5236   8.4107685293e+01   5.4676370349e+01    0.1465127    0.1402685 -37.28 0.0002334944    1.017    0.016
        74  -8.4751    118.5687     51.0202   7.4113189496e+01   4.8473580481e+01     0.281232    0.2194405  50.24  0.000568567    1.293    0.227
        75  -9.1583     45.0761     48.9671   9.9594219160e+01   6.2906882046e+01    0.4112673    0.2677642 -25.10  0.001753223    1.932    0.483
        76  -8.1637    106.5413     49.1121   7.6744457346e+01   5.1624866200e+01    0.3683323    0.2169842  18.34  0.001273514    3.182    0.686
        77  -9.6949     19.3576     36.1750   1.0811785676e+02   6.8526342922e+01    0.6111144    0.4159386 -45.97  0.003051347    1.279    0.218
        78  -9.2399     22.0218     32.0519   1.0525864383e+02   6.9222733799e+01    0.3781604     0.238953 -34.89  0.001057969    1.575    0.365
        79  -8.8889     10.6091     47.2199   1.1562302634e+02   6.6587585007e+01    0.4249766    0.1602899 -62.11  0.001294802    1.999    0.500
        80  -9.0613     13.6671     45.7072   1.1374404816e+02   6.6745889566e+01    0.4328908    0.1949734 -41.59  0.001545815    2.233    0.552
        81  -9.1939     55.8109     43.3942   9.2797092155e+01   6.2608000257e+01    0.8365787    0.4072958 -25.04  0.002571219    4.764    0.790
        82  -8.9587      3.2270     42.4859   1.1837904071e+02   6.8108526555e+01    0.5478113    0.1288854 -60.81  0.002222234    2.717    0.632
        83 -10.9823     83.0793     40.1066   8.0652959705e+01   5.8358358152e+01    0.3893517    0.2808884 -23.08  0.001903772    1.488    0.328
        84  -8.8863     87.5092     37.9528   7.8196415196e+01   5.7825049182e+01    0.2895191    0.2574795  -8.98 0.0006600589    1.136    0.120
        85  -7.7421    114.1537     41.8258   7.1755090127e+01   5.1086166218e+01    0.2069949    0.1764205  12.96 0.0006467983    1.277    0.217
        86  -8.2431     92.4130     37.5225   7.6385176008e+01   5.6840186952e+01    0.4199275    0.2157725 -45.01  0.001150497    2.018    0.504
        87  -7.5357    124.4569     39.5027   6.8214651601e+01   4.8913272885e+01    0.1513594    0.1463131   7.92 3.648664e-05    1.024    0.024
        88  -9.5378     69.2726     36.6350   8.4347904034e+01   6.1693583354e+01    0.5015007    0.3292541  31.53  0.002433429    1.711    0.415
        89  -8.2373     35.5234     37.5147   1.0007595713e+02   6.6619004000e+01    0.2500668    0.1464093 -45.78 0.0007932507    1.494    0.331
        90  -8.2475     38.7353     35.4142   9.7643143616e+01   6.6687016564e+01    0.2179472    0.1360436  20.29 0.0006233582    1.939    0.484
        91  -8.5923     74.1481     34.1387   8.1329502791e+01   6.1235036572e+01    0.2537327    0.1859372 -26.27 0.0006390084    1.371    0.271
        92  -7.4610    106.4976     36.4921   7.1682667796e+01   5.3785918032e+01    0.1521761    0.1404627  10.53  0.000808985    1.092    0.084
        93  -8.1075     55.7748     35.6205   8.9617695667e+01   6.4216077370e+01    0.2481936    0.1732336 -43.47 0.0002857232    1.304    0.233
        94  -9.1418      6.0066     34.0244   1.1493376394e+02   6.9935418106e+01    0.4002842    0.2561818   5.58  0.002369542    1.914    0.477
        95  -7.4775      2.5547     31.5656   1.1629551844e+02   7.0679389355e+01    0.1202682   0.09950088 -67.38 -2.226051e-06    1.067    0.063
        96  -8.8114      1.5292     27.8351   1.1594791245e+02   7.1581947000e+01    0.3884206     0.131213 -62.65  0.001791949    2.126    0.530
        97  -8.5094     42.0511     28.1929   9.2873411352e+01   6.7755414082e+01    0.2012663    0.1640789 -18.86 0.0003199327    1.237    0.192
        98  -7.0963    144.2754     27.7086   5.9438494869e+01   4.5404890375e+01    0.1511099    0.1119899 -59.30 0.0001889748    1.520    0.342
        99  -7.5165    110.3436     26.7905   6.6475179419e+01   5.4316201052e+01      0.20757     0.138348 -14.28 0.0005714384    1.661    0.398
       100  -9.1204    207.0218    249.3367   9.7787157259e+01   1.4157259492e+00    0.1527203   0.09744152  29.67  0.001171164    1.113    0.102
       101  -9.0142     61.7600     26.8897   8.2953950893e+01   6.4868391519e+01    0.2491652     0.211506   2.04 0.0005653612    1.223    0.182
       102  -7.9019    102.3414     25.2923   6.7953130453e+01   5.6485573282e+01    0.1555934    0.1087399  24.40 0.0007027396    1.653    0.395
       103  -8.7221    144.6665     23.2897   5.7679561681e+01   4.5840376912e+01    0.2614546    0.2332348  33.28  0.000316105    1.146    0.127
       104  -7.2717    140.3072     99.3589   8.3823733183e+01   3.4450805035e+01    0.1549553     0.117931   3.62 0.0003937967    1.731    0.422
       105 -10.2388    171.4907    247.3563   1.0324681860e+02   6.2218915882e+00    0.2323581     0.171155  22.05   0.00170879    1.173    0.148
       106  -7.7605    129.0759     22.1873   6.0196724202e+01   5.0121057951e+01    0.2386182     0.189454  34.42 0.0009418199    1.300    0.231
       107  -9.0938     92.4140     20.4725   6.8568306854e+01   5.9523167982e+01    0.2782305    0.2479093  12.58 0.0007403146    1.104    0.094
       108  -8.9221      8.5174     20.3081   1.0915964369e+02   7.2873586493e+01    0.4227548     0.204998  37.57  0.002157305    2.551    0.608
       109  -9.1090    159.0143    249.0097   1.0549424379e+02   7.6914336289e+00    0.1642235    0.1041693  17.11  0.001137214    1.710    0.415
       110  -8.1278    140.4924     19.9805   5.7130166738e+01   4.7346556961e+01    0.2143278    0.1964626  61.78 0.0003173846    1.078    0.072
       111  -8.6349    127.6337     16.8907   5.8274758495e+01   5.1130679083e+01    0.2441357    0.1915399  47.92 0.0003597957    1.243    0.196
       112  -9.6227    166.7649    246.8625   1.0397370406e+02   6.9001548278e+00    0.2126772    0.1326432 -42.93  0.001546225    2.223    0.550
       113 -10.1063    129.4988    237.9070   1.0942350383e+02   1.2947707516e+01    0.1933095    0.1545268  39.86 0.0003836848    1.090    0.083
       114  -9.5048    188.0622    234.4866   9.8978844397e+01   5.3509696461e+00    0.1794909    0.1521001  -6.12   0.00101501    1.359    0.264
       115  -7.4033    245.2982    227.6654   8.9080495061e+01  -1.5297395147e+00   0.08513624   0.07468946  22.29 0.0007031768    1.651    0.394
       116  -8.5387    239.8156    211.0149   8.7413466253e+01   6.4082623891e-01    0.1720869    0.1168818  22.45  0.000420324    1.114    0.103
       117  -9.1224    237.9015    193.1077   8.4828767483e+01   2.6307058142e+00    0.2298086    0.2158473  58.92  0.001725486    1.915    0.478
       118  -8.4231    226.1390    187.9261   8.5802844704e+01   4.8849868087e+00    0.2102212    0.1340166  28.27 0.0004787647    1.291    0.226
       119  -7.6671      7.8663    181.1638   1.2905179004e+02   3.6569419373e+01    0.1294099    0.1116169  88.28 0.0003446633    1.292    0.226
       120  -7.1943    241.5146    178.6073   8.1775574313e+01   3.5932244545e+00    0.1161251   0.08801766  12.19 0.0001326621    1.023    0.023
       121  -8.2275    227.0740    178.1197   8.3947499435e+01   5.8236900829e+00    0.1759685    0.1374811  13.18 0.0003292823    1.007    0.007
       122  -7.7940     80.9086    175.6309   1.1253060245e+02   2.9613371970e+01    0.1657864    0.1299388  51.56  0.001069006    1.078    0.073
       123  -8.5306    215.0631    158.3465   8.2247298907e+01   1.0127298640e+01    0.2112739    0.1607094  -6.88 0.0004474676    1.223    0.182
       124  -7.6621    113.6707     10.6766   5.8415413704e+01   5.5482335442e+01    0.1594498    0.1027606  30.76   0.00070496    1.697    0.411
       125  -8.0394    242.3465    146.3227   7.5523350853e+01   7.0085914620e+00    0.1320432   0.07975126  11.83 0.0007049765    1.739    0.425
       126  -9.2083     67.3878    144.8493   1.1205417228e+02   3.7741865461e+01    0.4251001    0.2452842  60.50  0.002156253    1.794    0.442
       127  -7.4918    139.3602    139.2903   9.3320584335e+01   2.7043648743e+01    0.1416023    0.1064856  10.74 0.0006464907    1.692    0.409
       128  -7.0595    108.7108    137.3033   1.0026267388e+02   3.3000263276e+01    0.1370993    0.1027491  73.78 0.0006985217    1.567    0.362
       129  -7.4482     55.2879    135.3562   1.1403419510e+02   4.1386711596e+01    0.1245422   0.09463131 -41.11 0.0007024445    1.677    0.404
       130  -7.8085      5.0249    134.2018   1.2752653774e+02   4.6486764963e+01    0.1391215   0.08730379  28.44 0.0006675711    1.757    0.431
       131  -7.2823    193.3220    127.3512   7.9583871014e+01   1.8433894082e+01     0.147001   0.09995334  10.45 0.0007048105    1.749    0.428
       132  -7.4739    153.6601    123.7249   8.6761824863e+01   2.7086666756e+01    0.1453411    0.1086343  14.47  0.000682153    1.614    0.380
       133  -7.9765    119.1818    119.2870   9.3955741718e+01   3.4808584758e+01    0.2294355    0.1803071  25.35  0.001177516    1.431    0.301
       134  -7.8662    100.2874    118.7242   9.8817835458e+01   3.8396472445e+01    0.2214269    0.1218392  27.49 0.0008976382    2.398    0.583
       135  -7.9094    142.7235    111.8383   8.6436139146e+01   3.1553230488e+01    0.2407828    0.1576211   6.19 0.0009380724    2.682    0.627
       136  -9.1868      2.1669    109.5737   1.2679337404e+02   5.2246520299e+01    0.3771953     0.108334 -62.90   0.00162018    2.939    0.660
       137  -8.1843    133.8777    106.8821   8.7328971683e+01   3.4365067397e+01    0.3608656    0.2027314 -33.09  0.001419108    2.078    0.519
       138  -8.3342    122.7215    106.5991   9.0069817427e+01   3.6718412827e+01    0.3297843    0.2180324  66.63  0.000677156    1.993    0.498
       139  -7.3829     76.2822    107.3214   1.0335266023e+02   4.4920698123e+01    0.1355948    0.1070022 -29.99 0.0002489749    1.589    0.371
       140  -7.6066    109.2331    106.6398   9.3667670621e+01   3.9364214444e+01    0.2049618    0.1351225  33.30 0.0009392831    1.664    0.399
       141  -9.2456     15.3361    104.8529   1.2228699681e+02   5.2459037014e+01    0.3843701    0.1889087 -28.59   0.00163651    3.755    0.734
       142  -8.8397    215.4709    104.0183   7.0286691605e+01   1.7314331781e+01     0.236399    0.1956501  41.02 0.0001666493    1.250    0.200
       143  -9.6557    247.0748    102.6781   6.5406572391e+01   1.1330405247e+01    0.2892522    0.1744759 -46.96  0.001470163    2.070    0.517
