#   1 NUMBER                 Running object number                                     
#   2 MAG_AUTO               Kron-like elliptical aperture magnitude                    [mag]
#   3 X_IMAGE                Object position along x                                    [pixel]
#   4 Y_IMAGE                Object position along y                                    [pixel]
#   5 X_WORLD                Barycenter position along world x axis                     [deg]
#   6 Y_WORLD                Barycenter position along world y axis                     [deg]
#   7 A_WORLD                Profile RMS along major axis (world units)                 [deg]
#   8 B_WORLD                Profile RMS along minor axis (world units)                 [deg]
#   9 THETA_WORLD            Position angle (CCW/world-x)                               [deg]
#  10 FWHM_WORLD             FWHM assuming a gaussian core                              [deg]
#  11 ELONGATION             A_IMAGE/B_IMAGE                                           
#  12 ELLIPTICITY            1 - B_IMAGE/A_IMAGE                                       
         1 -10.6561     39.1335      8.5180   5.9594395462e+01   6.8587628748e+01    0.5860729    0.2785708 -27.11  0.003104326    1.936    0.483
         2 -12.4608     44.6317     23.0664   6.3626975451e+01   6.5720259349e+01     1.003377    0.7327504 -50.74  0.006314253    1.631    0.387
         3 -11.6967     76.6292     22.7745   5.1378614095e+01   6.1179104472e+01    0.8277096    0.3969277 -26.10  0.003823794    2.099    0.524
         4 -12.0271     83.6063      3.7386   4.0635506489e+01   6.2290709751e+01    0.9291773     0.413358  52.06  0.003592534    2.273    0.560
         5 -11.1946    154.4837     20.5230   3.0224043905e+01   4.4278033698e+01    0.5794856     0.350378 -43.51  0.002628148    1.847    0.459
         6 -11.4553    144.1596      3.8475   2.6260504029e+01   4.8633221284e+01     1.282893    0.4697978  67.15  0.004713509    2.688    0.628
         7 -11.9377    156.1057     11.7070   2.6904973088e+01   4.4811233332e+01    0.8977086    0.5962467 -38.58  0.004420883    1.638    0.389
         8 -13.2238    168.9784     16.4908   2.6334988086e+01   4.0927698539e+01     1.636816     1.166874 -71.05  0.007904389    1.686    0.407
         9 -12.9437    172.1093      3.0233   2.1526471348e+01   4.1447302648e+01     2.362776    0.8410131  73.65  0.008172347    2.971    0.663
        10 -11.4688    248.0849     16.2364   1.6524821728e+01   2.0447543934e+01    0.6091185    0.2471674 -48.09  0.002553064    2.320    0.569
        11 -11.5182    249.2570      5.7363   1.3930919912e+01   2.1337447465e+01    0.9428121    0.3252836 -34.73  0.003941865    2.512    0.602
        12  -9.5502    128.2473     18.2659   3.4851627614e+01   5.1084457283e+01    0.3488393    0.2881017   2.55  0.001132287    1.235    0.190
        13  -9.3225    129.6405     12.8662   3.2486865994e+01   5.1345122510e+01    0.3146715     0.210265  24.45  0.001551548    1.594    0.373
        14 -10.0198    115.8081     16.3974   3.7100555122e+01   5.4191186107e+01    0.4162515    0.3524348 -61.69  0.002342582    1.537    0.349
        15 -10.8469    233.9904      9.8214   1.6273086370e+01   2.4611716483e+01     0.345948    0.2232439  87.10   0.00170708    1.516    0.340
        16 -10.5623    228.5163     15.5369   1.8269388907e+01   2.5351908784e+01       0.4465    0.2084295 -43.54  0.001891752    2.031    0.508
        17 -10.3363     69.7950     13.1957   4.9579951609e+01   6.3628392988e+01    0.2309658    0.1481221 -11.74  0.001149768    1.526    0.345
        18  -9.7713     20.5210     14.5362   7.0694700643e+01   6.9510017299e+01    0.3012569    0.1564125 -26.47  0.001769337    1.795    0.443
        19  -9.2577    104.8443     13.0365   3.8578743571e+01   5.6986536968e+01    0.3216524    0.1918535 -22.73  0.001611267    1.685    0.406
        20 -10.5632    230.2898      7.0141   1.5919901755e+01   2.5838458534e+01    0.5185053     0.237139 -27.86  0.002278985    2.244    0.554
        21  -8.8914    220.3941     11.2502   1.8006072071e+01   2.7898284900e+01    0.1935536    0.1182413 -41.50 0.0006100959    1.596    0.374
        22 -11.3052     78.5382     13.4138   4.6658454425e+01   6.2106683495e+01    0.5287042    0.3621694   7.97  0.002977628    1.477    0.323
        23 -10.5550     61.6118     10.4022   5.1301321430e+01   6.5290385148e+01    0.2750503    0.1838986 -47.67  0.001305134    2.109    0.526
        24 -10.9144     60.8738      2.5596   4.7830899093e+01   6.6374108151e+01    0.4790742     0.297326  22.02   0.00279942    1.554    0.357
        25  -9.7701    225.3316      6.6935   1.6316308897e+01   2.7123310172e+01    0.2178125    0.1746543 -63.18 0.0007969571    1.175    0.149
        26 -10.5773    222.5436      3.9245   1.5874827732e+01   2.8119088518e+01    0.4591285    0.2546961 -24.85  0.002068113    1.964    0.491
        27 -10.6698    130.8836      4.0558   2.8869035693e+01   5.1912367177e+01    0.8566793    0.2304869  50.96  0.003015997    2.877    0.652
        28 -10.9133    121.2241      4.5222   3.1093566483e+01   5.4178550684e+01    0.6244994    0.4435574  58.22  0.002858077    1.339    0.253
        29 -11.6421    108.5298      5.0051   3.4269174192e+01   5.7027068491e+01      1.01203    0.4363197  62.33   0.00417282    2.564    0.610
        30 -11.7942    204.4346      4.8377   1.8006154584e+01   3.2716146674e+01    0.5936607    0.3281884  70.15  0.002768098    1.633    0.388
        31 -11.6285    208.9355      4.4947   1.7417920465e+01   3.1572385087e+01    0.7097726    0.2932938  79.73  0.002706825    2.576    0.612
        32 -11.0549     71.4949      5.7372   4.5533157605e+01   6.4260761157e+01    0.4642821    0.3480413  40.99  0.002470922    1.398    0.285
        33  -9.7807    217.5224      2.0145   1.5868769777e+01   2.9596241220e+01    0.2877899    0.1941932  79.17  0.001457264    1.360    0.265
        34 -10.9334     50.2701     36.8516   6.6688964717e+01   6.2706020139e+01    0.8374228    0.5901583 -81.27  0.004035382    3.268    0.694
        35  -8.4211     17.4834      1.5136   6.6450079846e+01   7.1803209229e+01    0.1099034   0.08181576 -23.57 0.0001758191    1.046    0.044
        36  -8.0384      1.4636      1.5034   7.4700081466e+01   7.2959700419e+01    0.1074784   0.07416076 -32.48 0.0001434781    1.019    0.018
        37  -9.1611    164.9653     53.7585   3.9163143012e+01   3.7031677790e+01    0.2821788    0.2071092  -8.38  0.001275912    1.639    0.390
        38  -8.9630     34.8807     52.6538   7.7583535223e+01   6.1305402529e+01     0.204701    0.1123681  11.09  0.001080861    2.477    0.596
        39  -9.0922    215.5110     50.4845   2.9282435275e+01   2.4239383025e+01     0.285152     0.116874  51.33  0.001034891    2.423    0.587
        40 -10.4272     85.3287     48.3639   5.8396499317e+01   5.5579594932e+01    0.6046567    0.3686667  49.91  0.002954198    1.967    0.492
        41 -11.1342     81.7030     38.3354   5.5906006498e+01   5.7917203956e+01    0.4685717     0.381024 -39.80  0.002767947    1.269    0.212
        42 -10.9714      3.4453     40.9608   8.6493779925e+01   6.5783936805e+01    0.4489268    0.3431295 -76.88  0.002534365    1.434    0.303
        43 -10.0397      6.2685     35.3964   8.3946656551e+01   6.6715697842e+01    0.2400313    0.1918594  41.86  0.001603422    1.744    0.427
        44 -10.6784    185.5609     40.2356   3.1053035489e+01   3.3581083265e+01     0.427594    0.2507919 -54.75  0.001753583    2.044    0.511
        45 -11.0505    202.6148    222.7748   7.0655772896e+01  -1.3394303215e-01    0.2147383    0.1828013 -15.07   0.00146645    1.375    0.273
        46 -11.2207     40.0016     29.1883   6.7932988623e+01   6.5207669943e+01    0.5240934    0.2800134 -44.49   0.00264677    1.583    0.368
        47  -9.7238    211.4952    214.4743   6.7748642389e+01  -6.3388598296e-01    0.1280002    0.1015301  30.70 0.0008100319    1.020    0.019
        48  -9.2598     66.7131     35.8527   6.0173347580e+01   6.0698056369e+01    0.2211421    0.1750495  68.07  0.001237528    2.106    0.525
        49  -9.1155     12.4804     32.5141   8.0555063703e+01   6.6904116108e+01    0.2382535    0.1448252 -56.98   0.00155058    1.388    0.280
        50 -10.1527    198.1729     34.6620   2.7371233055e+01   3.0959887302e+01    0.3924384    0.2375088 -75.31  0.001588529    2.240    0.553
        51  -8.7415     33.3197     35.3065   7.2843375511e+01   6.4777719853e+01    0.1233214   0.07382625 -26.65  0.000401499    1.636    0.389
        52 -10.4439     85.5446     31.4936   5.1967927718e+01   5.8338305240e+01     0.233372    0.2190643 -34.55   0.00134003    1.254    0.203
        53 -10.7373     90.1040     28.5894   4.9334879037e+01   5.7938918385e+01    0.3967927    0.2801728   3.83  0.002103829    1.546    0.353
        54 -10.2497     66.8850     29.3023   5.7539308688e+01   6.1747987328e+01    0.3194854    0.1820246 -21.25  0.001381359    1.887    0.470
        55  -9.9029    227.0437     28.9914   2.1939547640e+01   2.4131907305e+01    0.3808757    0.2153958  69.75  0.001737073    1.730    0.422
        56 -10.0566    242.3868    200.7860   5.9945408192e+01  -4.3498223910e+00    0.2425282    0.1909388  -1.08   0.00156026    1.206    0.171
        57 -12.0186     11.1036    142.4290   9.8942774009e+01   4.3964100774e+01    0.6045084    0.2214605 -81.23  0.003009713    2.348    0.574
        58  -9.1460     53.3851    143.7530   8.9593972308e+01   3.9565152769e+01    0.2246519    0.1374145 -62.86  0.001283807    1.471    0.320
        59 -11.3398    178.7114     23.9299   2.7138265908e+01   3.7493413285e+01    0.5167222    0.3866175  50.70  0.002605224    1.273    0.215
        60  -8.9318     41.1763    141.6083   9.2149126316e+01   4.1393932019e+01    0.1474407    0.1186808  18.68 0.0009645374    1.763    0.433
        61 -13.0020    240.0904    128.3079   4.5255431425e+01   6.2513844773e+00     1.292956     1.111895 -59.40  0.007135788    1.436    0.303
        62 -10.1859      4.8242    124.6231   9.8741284365e+01   4.8187248592e+01    0.2253614    0.1309415  69.15  0.001437836    1.708    0.415
        63 -10.0123    188.9663    116.9934   5.2114020393e+01   1.9837672813e+01    0.3511793    0.2220341  -9.08  0.001318932    2.550    0.608
        64  -9.7902    187.5350     19.6024   2.4459488524e+01   3.5635625500e+01    0.3636095    0.2634725 -80.79  0.001774081    1.534    0.348
        65  -8.9383     58.6789    124.6812   8.5532767970e+01   4.3173614341e+01    0.1253059   0.09180389 -39.51 0.0003623636    1.666    0.400
        66  -8.6724    148.5144    111.5014   5.9733846759e+01   3.0353466961e+01     0.152728    0.1495041  69.78 8.386543e-05    1.009    0.009
        67  -9.0348     97.3422     36.6691   5.0260874835e+01   5.5343207397e+01    0.1338849     0.111332 -71.59  0.000705117    1.749    0.428
        68  -9.4117     94.9904    110.9955   7.3309002515e+01   4.1048038760e+01    0.2173982    0.1594963  83.04 0.0009231934    1.716    0.417
        69  -9.5355     18.0376    128.2487   9.6020044109e+01   4.6437819945e+01    0.2446274   0.09204215 -53.57  0.001195327    2.613    0.617
        70  -8.9258    102.9900     25.9631   4.4381927231e+01   5.5771468358e+01    0.2297411    0.1540736  16.28  0.001133168    1.672    0.402
        71 -11.0785     10.7069    123.9864   9.7302874158e+01   4.7912523778e+01    0.3955816     0.150108 -83.96  0.001872521    2.558    0.609
        72  -9.7715     94.1926     17.3338   4.3412626617e+01   5.8674648996e+01    0.3991576    0.2574197  72.57  0.001811178    2.742    0.635
        73 -10.1699     17.5929    104.8795   9.3345734514e+01   5.1549786568e+01    0.3226623    0.2153911  59.02  0.001806624    1.681    0.405
        74  -9.5422     30.7445    101.7860   8.9315859270e+01   5.1183864456e+01    0.2387063    0.1453801 -49.86  0.001412505    1.547    0.353
        75 -11.8647     41.7752     82.2149   8.2455870827e+01   5.4474776116e+01    0.7414799    0.6918371  33.95  0.005166157    1.287    0.223
        76 -10.1765      2.3531     87.9932   9.5291451796e+01   5.6152141984e+01    0.3361791    0.1805893 -80.17  0.002050349    1.576    0.365
        77  -9.9105    224.3608     22.6101   2.0568636508e+01   2.5590843650e+01    0.2650838    0.2199001 -48.44  0.001477397    1.173    0.147
        78  -8.8987    194.0000     87.5052   4.3307540828e+01   2.3913338857e+01    0.2135471    0.1406409  86.38  0.000541286    2.364    0.577
        79  -8.6680    227.0000     80.9851   3.5712344561e+01   1.6742928241e+01     0.253477   0.08303544 -32.18 0.0008069517    2.974    0.664
        80  -9.2575    144.5771     80.7986   5.2216721304e+01   3.7376157111e+01    0.3053067    0.2211208  48.73  0.001410322    1.371    0.271
        81 -11.6910      4.8928     76.1932   9.2841344101e+01   5.8516934460e+01    0.5973574    0.3957215  68.70  0.003768255    1.858    0.462
        82 -11.3381     17.9707     74.6897   8.8482975927e+01   5.8048514914e+01    0.5279469    0.3636719 -34.67  0.003500332    1.551    0.355
        83 -11.3451     12.0411     71.6056   8.9819061544e+01   5.9079606343e+01    0.4230689    0.3305692 -40.57  0.002642198    1.291    0.225
        84  -8.8219    220.6440     78.2954   3.6032094690e+01   1.8733139987e+01    0.1572095    0.1156947 -70.98 0.0005396091    1.694    0.410
        85  -8.9953    169.9711     76.4687   4.5073183453e+01   3.1953344798e+01    0.3192736    0.2161541 -51.41   0.00137598    1.639    0.390
        86  -8.1963    218.6655     71.3189   3.4484821316e+01   2.0323275444e+01    0.1593467    0.1141578 -67.38 0.0007048911    1.698    0.411
        87  -9.8764     75.6367     68.7091   6.8165313319e+01   5.3216168899e+01    0.4510283    0.3237726  -6.13  0.002333647    1.834    0.455
        88  -9.2919     83.5498     69.0992   6.5765379394e+01   5.1918258484e+01    0.2862486    0.1903766  31.39  0.001457709    1.675    0.403
        89 -10.1063     46.9893     75.9933   7.9401596714e+01   5.5291233166e+01    0.3553841    0.2833785  46.84  0.002263159    1.507    0.336
        90 -10.1990     25.3415     65.5357   8.4188924859e+01   5.9454434557e+01    0.4183596    0.1976452 -55.59  0.002068436    1.604    0.377
        91  -8.8155    232.3249     64.6552   3.0631811945e+01   1.7927250620e+01    0.1583488    0.1069299 -63.05  0.000705044    1.740    0.425
        92  -9.7189     45.7879     62.4195   7.6373983253e+01   5.8267528822e+01    0.1590131    0.1171217   2.49 0.0008785043    1.661    0.398
        93  -9.0269    209.3569     59.6807   3.2790296208e+01   2.4488643266e+01     0.163175     0.113757 -68.73 0.0007045226    1.757    0.431
        94  -9.4223    198.2774     54.0259   3.3005325602e+01   2.8233635345e+01    0.4389857     0.226708 -14.40  0.001531461    2.898    0.655
