#   1 NUMBER                 Running object number                                     
#   2 MAG_AUTO               Kron-like elliptical aperture magnitude                    [mag]
#   3 X_IMAGE                Object position along x                                    [pixel]
#   4 Y_IMAGE                Object position along y                                    [pixel]
#   5 X_WORLD                Barycenter position along world x axis                     [deg]
#   6 Y_WORLD                Barycenter position along world y axis                     [deg]
#   7 A_WORLD                Profile RMS along major axis (world units)                 [deg]
#   8 B_WORLD                Profile RMS along minor axis (world units)                 [deg]
#   9 THETA_WORLD            Position angle (CCW/world-x)                               [deg]
#  10 FWHM_WORLD             FWHM assuming a gaussian core                              [deg]
#  11 ELONGATION             A_IMAGE/B_IMAGE                                           
#  12 ELLIPTICITY            1 - B_IMAGE/A_IMAGE                                       
         1 -14.2398    169.0376     48.8893   7.0118407367e+01   3.6707753308e+01     1.821267      1.16345  19.37  0.005250084    2.047    0.512
         2 -14.3360    182.8751     34.4397   6.3111744581e+01   3.5005046792e+01     1.104322    0.9563061  -3.53  0.004009256    1.221    0.181
         3 -13.5490    187.2250     27.9810   6.0460429613e+01   3.4629411788e+01    0.6270354    0.5558822 -40.81  0.001368111    1.147    0.128
         4 -12.7095    189.6771     14.9747   5.6158864857e+01   3.5368546747e+01    0.3287309    0.2760215 -24.43  0.001044549    1.236    0.191
         5 -11.1262     87.0918     12.7851   7.6359376556e+01   6.1484282295e+01     0.313066    0.2285424  60.66 0.0007210081    1.641    0.391
         6 -10.8294     82.1854     11.3717   7.7330442003e+01   6.2690042447e+01    0.3045214    0.1633511  54.17  0.001320417    2.005    0.501
         7 -13.9023    204.2822      3.9314   5.1360476949e+01   3.2671114572e+01    0.9677805    0.5635028  62.54  0.004334982    1.625    0.385
         8 -11.6610     64.3207      7.2575   8.1997191378e+01   6.6694137461e+01    0.3252757    0.1807723  53.12  0.001545195    2.236    0.553
         9 -12.4155     54.2426      5.5546   8.5496209748e+01   6.8673432201e+01    0.3649263    0.2238514  40.04 0.0009358305    1.668    0.401
        10 -10.5989    163.5016    211.1952   1.0952711834e+02   1.0281824745e+01    0.2026549    0.1260352 -49.70  0.001144856    2.110    0.526
        11 -19.6554     39.9532    159.6638   1.3046610762e+02   3.7352076596e+01     17.63239     5.492806 -77.28   0.07012229    3.468    0.712
        12 -10.5200    167.0727    188.1058   1.0518393139e+02   1.3213338361e+01    0.2510985    0.1918347 -44.98  0.001175097    1.578    0.366
        13 -13.4448    109.6643    211.7598   1.2046320337e+02   1.8440100925e+01    0.8663245    0.3566099  48.84  0.003738476    2.239    0.553
        14 -14.0038    105.0449    199.1356   1.1996381005e+02   2.1303798562e+01    0.8182953    0.4540218 -63.59  0.004432325    2.139    0.533
        15 -11.8764     90.5844    183.9952   1.2130713434e+02   2.6204822685e+01    0.3402677    0.1967824  57.95  0.001665995    1.799    0.444
        16 -12.3721     99.5074    180.4708   1.1884327256e+02   2.5610126400e+01    0.3261279    0.2564071 -38.75  0.001251054    1.574    0.365
        17 -11.9700     93.7279    205.8217   1.2308938768e+02   2.1705021044e+01    0.5514732    0.2807783 -40.15  0.002610705    3.307    0.698
        18 -10.9341    208.5224    178.4956   9.5176315811e+01   7.4472579083e+00    0.3535999    0.2155266   5.66  0.001743554    1.948    0.487
        19 -10.7119    144.5286    179.4781   1.0856008178e+02   1.8550198883e+01     0.135239    0.1175447  33.20 0.0003054125    1.001    0.001
        20 -11.2959     90.0522    204.7528   1.2373992106e+02   2.2395276815e+01    0.3069127    0.1832128  38.81  0.001200551    1.428    0.300
        21 -11.7540    143.9607    172.8089   1.0755766540e+02   1.9842716642e+01    0.4583363    0.2988085  86.62  0.001814798    3.593    0.722
        22 -10.3497     87.3203    202.6871   1.2409611713e+02   2.3134790806e+01    0.2025273    0.1554637  45.91 0.0007432349    1.098    0.089
        23 -11.6706    195.9015    169.8075   9.5952257539e+01   1.0950091802e+01    0.4173818    0.3440712 -25.23  0.001621938    1.293    0.227
        24 -10.6914    193.3920    164.3837   9.5378481639e+01   1.2243364113e+01    0.3426602    0.2884911  27.08  0.001620498    1.091    0.084
        25 -11.0356    146.0007    168.6812   1.0637333504e+02   2.0232784679e+01    0.2010835    0.1664086  34.91 0.0004880669    1.074    0.069
        26 -10.6040    141.9398    158.4774   1.0543271583e+02   2.2868306441e+01    0.2237342    0.1976165 -76.42 0.0004037287    1.390    0.281
        27 -11.0948    119.7463    156.0566   1.1029736589e+02   2.7274075525e+01    0.2796557    0.2203077  55.68  0.001530754    1.299    0.230
        28  -9.1429    179.2679    206.2794   1.0568401658e+02   8.4497205286e+00    0.1213037   0.08416408  12.43 -0.0001541599    1.487    0.327
        29 -10.7363    166.5020    154.6497   9.9083520009e+01   1.8957020262e+01    0.3657151    0.2353828  73.40  0.001340434    3.667    0.727
        30 -12.8536    134.0260    145.5217   1.0480472012e+02   2.6859331411e+01     1.104231    0.3242274 -54.59  0.003033904    5.311    0.812
        31 -10.4470    174.8784    149.1383   9.6094430678e+01   1.8295315972e+01    0.2124674    0.1977345  54.33  0.000621535    1.271    0.213
        32 -12.3540    144.6922    145.9888   1.0231754435e+02   2.4757896066e+01    0.4352427    0.3238561 -87.67  0.002009857    2.176    0.540
        33 -10.5618    158.3186    204.1978   1.0953341026e+02   1.2162507905e+01    0.3182826    0.1767009  60.99  0.001333926    3.377    0.704
        34 -10.0085    163.3235    203.9782   1.0849025770e+02   1.1381613343e+01    0.1666806    0.1486127  19.59  0.000400668    1.118    0.105
        35 -12.5333     99.3184    139.7179   1.1257122529e+02   3.4115645723e+01    0.2797136    0.2603369  32.31 0.0004416616    1.093    0.085
        36 -10.8009    152.0210    151.6807   1.0175765924e+02   2.2272829338e+01    0.2520505    0.2091774 -86.23  0.001312221    1.690    0.408
        37 -12.7201    117.6325    129.8731   1.0575094429e+02   3.3124857565e+01    0.4959093    0.3639089  28.94  0.001716727    1.414    0.293
        38 -11.2080    161.2826    128.4856   9.4517558693e+01   2.4794049444e+01    0.3534715    0.2733764 -75.46  0.001638061    1.975    0.494
        39 -12.6193    135.5741    124.7255   9.9914744477e+01   3.0789670962e+01    0.9437428    0.1984336 -47.92  0.002381415    5.362    0.814
        40 -10.6973    111.6443    119.1265   1.0501669207e+02   3.6536923390e+01    0.2627615     0.207946  30.29 0.0004287815    1.289    0.224
        41 -13.8002     10.8622    206.8409   1.3952524114e+02   3.0695865124e+01    0.4462511    0.2740667  26.92  0.003166911    1.900    0.474
        42 -12.4611    193.4163    192.5426   1.0064733920e+02   8.0501644645e+00    0.6876498    0.4298837 -45.43  0.002896642    2.111    0.526
        43 -10.4867    205.6397    110.1386   8.0626522057e+01   1.8419266865e+01     0.279083    0.2049183  36.51 0.0006688031    1.336    0.252
        44 -10.6399    209.1842    198.2833   9.8646358492e+01   4.6693973906e+00     0.188967    0.1702517 -69.82  0.000895043    1.962    0.490
        45 -11.7943    106.7034    205.9555   1.2041284706e+02   1.9859166176e+01    0.3976745    0.2559091   9.16  0.001996906    2.669    0.625
        46 -10.3557     19.8884    197.8350   1.3741727145e+02   3.1563204285e+01    0.1368351    0.1118204  50.54 0.0006026569    1.218    0.179
        47  -9.6996    139.2955    124.7025   9.8962652587e+01   3.0050510922e+01    0.2127538    0.1226307  40.74 0.0002608912    1.669    0.401
        48 -11.2105    153.9574    195.4594   1.0910145368e+02   1.4253260002e+01    0.2877779    0.1902002  57.87  0.001513105    1.901    0.474
        49 -10.8781     14.7255    201.4794   1.3857848319e+02   3.1339712845e+01    0.1867748     0.108003  30.90 0.0008764891    1.820    0.451
        50 -11.0324    167.9868    112.8493   8.9119157208e+01   2.6261642753e+01    0.4010155    0.3133226 -82.96  0.001467714    2.000    0.500
        51  -9.9760    151.3876     79.8060   8.3777130987e+01   3.6126814854e+01    0.2143826    0.1476609 -21.59 0.0003944158    1.586    0.369
        52 -11.6307    175.2934     73.7233   7.6604280413e+01   3.1364663571e+01    0.3990365    0.3104983 -80.10 0.0007249117    1.784    0.439
        53 -11.5552    170.3450     69.6921   7.6408717732e+01   3.3234855768e+01    0.3041653    0.2311304 -88.99 0.0009459094    1.848    0.459
        54  -9.2158     75.3210     74.2381   1.0491948527e+02   5.2653515550e+01    0.1378732    0.1054838 -10.47 0.0002626723    1.516    0.340
        55 -11.1319     13.6782     59.8246   1.2554773079e+02   6.2274615086e+01    0.2010293    0.1829499 -62.75 0.0004118455    1.132    0.116
        56  -9.4217    168.3030    248.3228   1.1352329634e+02   4.6293003343e+00    0.1112803   0.07241809  15.41 0.0003056081    1.635    0.388
        57 -12.8933     92.7111    194.7651   1.2209808497e+02   2.3856396376e+01    0.6126611    0.4064865  77.86  0.002892795    1.808    0.447
        58 -10.4396    198.7896    222.8156   1.0453800273e+02   3.2185829627e+00    0.1783997    0.1286225  19.84 0.0005134931    1.110    0.099
        59 -14.8275    113.2818    197.0660   1.1795100800e+02   2.0457413853e+01     1.113004    0.8647861  83.72  0.006901413    1.551    0.355
        60 -12.8940    116.9951    213.2631   1.1914656453e+02   1.7126978799e+01    0.5014734    0.2397068  25.42  0.001752083    2.720    0.632
        61 -12.6753    115.2043    209.8064   1.1910700816e+02   1.7964867000e+01    0.3118489    0.2613396  52.24  0.001040743    1.094    0.086
        62 -11.2262     97.2429    213.2751   1.2314416733e+02   1.9925013281e+01    0.2993556    0.1730723  33.20   0.00173235    1.592    0.372
        63 -10.3686     10.8176    213.7415   1.3980425092e+02   2.9476794027e+01    0.1404825   0.08294812  21.90 0.0009407338    2.244    0.554
