#   1 NUMBER                 Running object number                                     
#   2 MAG_AUTO               Kron-like elliptical aperture magnitude                    [mag]
#   3 X_IMAGE                Object position along x                                    [pixel]
#   4 Y_IMAGE                Object position along y                                    [pixel]
#   5 X_WORLD                Barycenter position along world x axis                     [deg]
#   6 Y_WORLD                Barycenter position along world y axis                     [deg]
#   7 A_WORLD                Profile RMS along major axis (world units)                 [deg]
#   8 B_WORLD                Profile RMS along minor axis (world units)                 [deg]
#   9 THETA_WORLD            Position angle (CCW/world-x)                               [deg]
#  10 FWHM_WORLD             FWHM assuming a gaussian core                              [deg]
#  11 ELONGATION             A_IMAGE/B_IMAGE                                           
#  12 ELLIPTICITY            1 - B_IMAGE/A_IMAGE                                       
         1 -13.8924    230.6892     49.7852   2.6285097423e+01   2.3183691283e+01     2.061153    0.9486052 -59.76  0.009231223    2.151    0.535
         2 -12.5952    218.4311     29.3835   2.3031227728e+01   2.8225741855e+01    0.5914013    0.3183107 -54.70  0.002059506    1.544    0.352
         3 -12.5119    162.0252     55.5103   3.6017909987e+01   3.7132978947e+01     1.782603    0.6661637 -46.90  0.006789924    2.651    0.623
         4 -14.4503    203.5284     67.1007   3.2993182733e+01   2.6137906740e+01     1.793231    0.8884076 -59.26  0.008028023    2.226    0.551
         5 -14.1439    216.9580     60.3479   2.9902308096e+01   2.4396813315e+01      2.05414     1.005997 -53.90   0.01014053    1.867    0.464
         6 -13.1589    173.8913     41.6333   3.0571530833e+01   3.6348589695e+01    0.8184214    0.5549492 -16.67  0.001404568    2.090    0.522
         7 -12.9531    161.2737     37.9419   3.1311583561e+01   3.9787583392e+01     1.046175    0.7364779 -88.24  0.005675677    1.413    0.292
         8 -14.2622    189.2011     36.1941   2.7356604282e+01   3.3591630638e+01     2.498258      1.20527  88.79  0.009718086    2.541    0.607
         9 -12.0312     44.1702     23.0955   5.6688380390e+01   6.7851016671e+01     2.240181     1.312352  34.12   0.01199167    1.589    0.371
        10 -12.4206     27.1398     34.8149   7.0828925915e+01   6.8478710300e+01    0.7560096    0.3329915 -31.92  0.001988813    2.676    0.626
        11 -11.9183     30.0902     20.2291   6.2444345961e+01   7.0488343741e+01    0.4918722    0.3758877 -33.61  0.001799578    1.352    0.260
        12 -14.7741     39.0892     57.0756   7.3192175822e+01   6.2646013547e+01      3.38675     1.804344 -44.26   0.01610175    1.781    0.438
        13 -14.1784      3.7697     53.8919   9.0429328884e+01   6.6754192063e+01      2.93994     1.417757 -87.35   0.01129315    4.016    0.751
        14 -14.3032     51.5203     47.8550   6.4087944431e+01   6.2591741460e+01      2.23246     1.332241 -22.96  0.007067493    2.126    0.530
        15 -12.6036     80.8243     22.9486   4.2783592990e+01   6.0647239817e+01    0.6295194    0.3001358  44.22  0.002415356    1.959    0.489
        16 -13.1680     71.4997     23.0216   4.5758908497e+01   6.2638711324e+01     1.558077     1.110315  -8.70   0.00862927    1.661    0.398
        17 -13.6551    117.5466     64.0885   4.7644270366e+01   4.6228957175e+01     2.115074     1.255899  75.17  0.008433384    2.453    0.592
        18 -14.2055    192.3040     59.7934   3.2708037216e+01   2.9629594803e+01      2.92275    0.9274465 -33.79   0.01050328    3.339    0.701
        19 -14.5965     12.1445     35.9787   7.9988958061e+01   6.9865180035e+01     1.566483     1.108085 -44.70  0.004378967    1.290    0.225
        20 -11.6825     76.7772     15.0874   4.0619247656e+01   6.2422481465e+01    0.4215389    0.3118491 -67.66 0.0008472008    1.863    0.463
        21 -12.8849     69.5599      7.0687   3.9154803056e+01   6.4790161014e+01     1.440304    0.9584986  52.72  0.008386625    1.286    0.222
        22 -12.3496    131.3224     44.5990   3.8352251397e+01   4.6052519481e+01     1.138006    0.8822181  76.54   0.00617902    1.262    0.207
        23 -10.9138    160.2169     14.2732   2.4928973584e+01   4.2820540208e+01    0.2813354    0.1638135 -53.79   0.00149803    1.658    0.397
        24 -10.9819    147.4269     25.8053   2.9849075573e+01   4.4596898884e+01    0.6094931     0.395604  25.68  0.002913753    2.476    0.596
        25 -11.2147    163.4256     20.9267   2.6372638904e+01   4.1346282510e+01    0.2803711    0.2134746 -53.11 0.0006855055    1.255    0.203
        26 -11.1593    221.2409     12.2878   1.9220843552e+01   2.9637429638e+01    0.4529251    0.1608942 -51.74  0.002236265    2.236    0.553
        27 -10.2669    201.6016     19.9345   2.2331771407e+01   3.2851552021e+01    0.3855944    0.2614516  27.78  0.002026921    2.825    0.646
        28 -10.3306    121.5139     17.2180   3.1263526931e+01   5.1799818834e+01    0.4203992    0.1793925 -50.12  0.001737452    2.812    0.644
        29 -13.8879     80.1985     59.9500   5.7348546029e+01   5.5118549346e+01     2.111096     1.190706 -52.12  0.009218222    2.059    0.514
        30 -12.2884     91.9489     32.7504   4.3512727350e+01   5.6933471936e+01    0.6839372    0.4208445  15.89   0.00296396    2.630    0.620
        31 -11.1518    139.1480     17.3505   2.8509434949e+01   4.7529093490e+01     0.259445    0.2088849 -46.34 0.0009895229    1.298    0.230
        32 -10.3014    171.7743     12.8408   2.3325869436e+01   4.0275695489e+01    0.2034566    0.1480491 -56.88 0.0003201938    1.256    0.204
        33 -10.2419    134.7201     12.4852   2.7639109937e+01   4.9092627729e+01    0.2765266    0.1904226  50.75  0.001555047    1.492    0.330
        34 -10.7265    179.6437     12.0008   2.2363549110e+01   3.8565275562e+01    0.1985369    0.1594681 -82.45 0.0005029247    1.037    0.036
        35 -10.4601    147.5017     10.7376   2.5421598374e+01   4.6195891867e+01    0.4318452    0.2446401 -64.44  0.001874003    1.867    0.465
        36  -5.9784    141.3579     11.3050   2.6367927520e+01   4.7611553296e+01    0.3227676    0.2111508  68.18  0.001811311    1.342    0.255
        37 -10.9562    115.4246     10.0892   2.9873754034e+01   5.3967834152e+01    0.3871148    0.2971537  -4.17  0.001647037    1.660    0.398
        38 -12.1881     87.2954      2.3928   3.2456658042e+01   6.1254842889e+01    0.4459572    0.2465497  67.85  0.001043945    1.631    0.387
        39 -10.6841     88.2817     11.4221   3.5966618943e+01   6.0222135139e+01     0.309462    0.2183794  68.59  0.001387824    1.346    0.257
        40 -11.1606     84.7609      7.8029   3.5324014364e+01   6.1364139223e+01    0.3063435    0.2019769 -13.91  0.001030656    1.813    0.448
        41 -11.9594    246.0088     10.0152   1.7323643244e+01   2.5151446005e+01    0.2650232    0.1448144 -76.56 0.0007724467    1.612    0.380
        42 -12.1817    241.8580      8.1048   1.7181911851e+01   2.6120763423e+01    0.2814087    0.1773728 -71.92 0.0009241811    1.276    0.216
        43  -9.8421    129.8744     11.2235   2.7944168832e+01   5.0383642842e+01    0.1937489    0.1537778 -77.10 0.0006489247    1.228    0.186
        44 -11.3286     26.3200      9.7325   5.8974988367e+01   7.2520415782e+01    0.2238719    0.1614483  11.16 0.0001915473    1.282    0.220
        45  -8.8917    227.2944      9.3501   1.8243333366e+01   2.8758897819e+01   0.09622769   0.08808123  40.94 0.0007031927    1.678    0.404
        46  -9.2430    168.5366      9.5759   2.2796723265e+01   4.1357941613e+01    0.1267812    0.1025522 -80.84 0.0001796266    1.028    0.027
        47 -11.6850     48.6530      8.0735   4.7082399477e+01   6.8925504195e+01    0.3888489    0.2449917  28.47  0.002206901    1.546    0.353
        48 -10.6628    193.9795      7.4896   2.0085997089e+01   3.5848494043e+01    0.2159806    0.1643782  58.35 0.0007871048    1.565    0.361
        49  -9.2317    132.6033      7.8507   2.6480169028e+01   5.0044530171e+01    0.1536809    0.1121525 -49.35 0.0002671206    1.424    0.298
        50 -10.9817    173.1972      6.5489   2.1577749448e+01   4.0586216059e+01    0.1981464    0.1648827 -58.25  0.000335525    1.163    0.140
        51 -10.8424    109.0808      4.9637   2.9151722224e+01   5.5942141891e+01    0.4134997    0.2968988 -83.12  0.001417281    1.477    0.323
        52 -10.8197    100.6518      6.1254   3.1145081629e+01   5.7837021062e+01     0.318577    0.1935973  57.66 0.0008284103    1.396    0.284
        53 -10.8614      3.3274      6.7184   7.2580737831e+01   7.5785866602e+01    0.2665646     0.174789  10.88   0.00100562    1.375    0.273
        54  -9.6603    212.1964      5.2481   1.8323531229e+01   3.2222471602e+01    0.1710836    0.1032842 -64.28  0.001059989    1.343    0.255
        55 -10.0401    188.7278      3.9954   1.9669076629e+01   3.7350098208e+01    0.1539097    0.1216873 -59.92  0.001033257    1.133    0.118
        56 -10.4459    183.2359      3.7827   2.0043523399e+01   3.8588248020e+01    0.1847193     0.131645 -59.09   0.00038414    1.220    0.180
        57 -10.0170    217.8961      2.7322   1.7448388317e+01   3.1320720795e+01    0.1513193    0.1119616 -68.90 0.0003852217    1.021    0.021
        58 -10.1456    154.2351      2.3161   2.2268169856e+01   4.5390065697e+01    0.2077591    0.1559856  67.34 0.0007170807    1.261    0.207
        59 -11.5745     46.5947      2.2228   4.4787000903e+01   6.9914458538e+01    0.3106197    0.1743151  38.24  0.001728436    1.556    0.357
        60  -9.9140    228.2475      1.9362   1.6708520769e+01   2.9353537123e+01    0.1472923    0.1055575 -57.68            0    1.104    0.094
        61  -9.6855    233.6123      7.4557   1.7503235353e+01   2.7741060643e+01    0.3962822     0.189097 -41.98  0.002363712    1.704    0.413
        62 -12.4608    127.5315     90.6119   5.3025605505e+01   3.8951970279e+01    0.5762718    0.4265223  -5.98  0.001874262    2.060    0.514
        63 -11.4038    247.2263    249.7063   6.1216617507e+01  -9.0059917075e+00    0.3222515    0.1031986  31.25  0.001680602    3.074    0.675
        64 -11.0580    228.9388    249.3137   6.4128488344e+01  -7.1426211160e+00    0.1975961     0.127654 -20.42 0.0004690537    1.303    0.232
        65 -12.3816     36.5274    249.1779   1.0311964924e+02   1.6590454260e+01    0.4105194    0.2437195  36.47  0.002461783    1.410    0.291
        66 -11.5256    107.9799     88.6605   5.7742765804e+01   4.3635144473e+01    0.3542106    0.2446453 -21.30 0.0009732362    1.991    0.498
        67 -11.7671    106.5261     96.4735   6.0392728734e+01   4.2266374009e+01    0.3184782    0.2557029  -7.01  0.000752065    1.624    0.384
        68 -12.2200    105.9224     93.0496   5.9604809763e+01   4.3136729898e+01    0.5356119    0.2939124  38.01  0.001433525    1.955    0.489
        69 -11.3725     73.3637     96.5260   7.1166552994e+01   4.8612151412e+01    0.2850072    0.2581992 -29.24 0.0006292867    1.132    0.117
        70 -11.1624    247.3263     94.6514   3.3713958932e+01   1.3718031247e+01    0.2651026    0.1804033 -46.98 0.0005817818    1.165    0.142
        71 -10.9673    213.8475     94.2700   3.7746015292e+01   1.9750324813e+01    0.2334089    0.1969326 -56.45 0.0007856902    1.053    0.050
        72 -10.0790    207.1140     94.6814   3.8781591596e+01   2.0985905124e+01    0.1818339    0.1699116 -76.23  0.001148669    1.115    0.103
        73 -12.1626    189.0305     93.5519   4.1283349192e+01   2.4840176583e+01    0.3798112    0.3036765 -83.88  0.001050898    1.377    0.274
        74 -11.0983    182.7912     92.4152   4.2043976177e+01   2.6354356845e+01    0.2508048    0.2356063  51.27  0.000792776    1.197    0.165
        75 -12.3846    186.0602     87.9672   4.0430957319e+01   2.6436852673e+01    0.4321387    0.3652399 -16.82   0.00175986    1.454    0.312
        76 -10.6659    177.6973     94.6541   4.3467889781e+01   2.7041249609e+01    0.2438556    0.2240272 -53.63 0.0003912691    1.038    0.037
        77 -11.9499     53.9016     99.9111   7.9210406499e+01   5.0830706725e+01    0.4044854    0.2164904  30.54 0.0009128862    1.942    0.485
        78 -10.6188     68.4276     94.6991   7.2451186062e+01   4.9875566704e+01     0.257407    0.1678474  45.01 0.0005410281    1.610    0.379
        79  -9.4747    219.3445     94.3093   3.7015673465e+01   1.8703821244e+01    0.1228125    0.1014179   0.87 0.0007044643    1.700    0.412
        80 -11.6773     95.8147     89.5941   6.1680012192e+01   4.5970713648e+01    0.5443675    0.3934593  80.94  0.001374624    2.000    0.500
        81 -12.3729    104.0113     84.8516   5.7782041324e+01   4.5275889750e+01    0.8193855     0.481795 -72.69  0.002802228    3.323    0.699
        82 -12.0088    243.4202    242.8161   6.0792728028e+01  -7.7925170527e+00    0.2441223    0.1286082  28.90  0.001576284    1.906    0.475
        83 -11.7834     62.1031     90.3883   7.3637145357e+01   5.1914313807e+01    0.2820199    0.2435509 -58.32  0.000526363    1.162    0.139
        84 -12.5834     90.4306     51.4673   5.0955856118e+01   5.4469186438e+01    0.4749971    0.3439821 -43.80 0.0004973577    1.464    0.317
        85 -12.9358     67.0730     83.0323   6.9660817183e+01   5.2798186563e+01    0.7739702    0.5829203 -87.92  0.002783602    1.874    0.466
        86 -13.5449     55.4716     71.4048   7.0680356200e+01   5.7249133716e+01      1.01808     0.979612 -20.23  0.002404535    1.035    0.034
        87 -11.2117    180.1630    242.8791   7.1989137086e+01  -6.4872647078e-01    0.1742823    0.1537515  21.62 0.0006779949    1.255    0.203
        88 -12.2559     25.1738     43.3350   7.5299754081e+01   6.7116304631e+01    0.8813165    0.5518303 -32.96  0.004793666    1.530    0.346
        89 -11.7542    219.5507    240.1952   6.4361978410e+01  -4.9400201301e+00     0.319416    0.2410271   0.19  0.002305296    1.042    0.041
        90 -10.5281    110.3687    240.7545   8.6263929876e+01   9.0201943373e+00    0.1639249    0.1160837 -44.48 0.0009488247    1.647    0.393
        91 -10.9201     15.9079    238.5956   1.0688390453e+02   2.0865677496e+01     0.193244     0.146708 -78.44 0.0006235144    1.407    0.289
        92 -10.5462    159.9059    219.8148   7.2631345198e+01   5.8751199090e+00    0.1963609     0.174646 -21.67    0.0003537    1.145    0.127
        93 -11.2846    152.8428    124.0802   5.5618457877e+01   2.6524042504e+01    0.2359765    0.2235088  86.38            0    1.103    0.093
        94 -10.2194    204.5212    116.7411   4.4055376947e+01   1.7667862343e+01    0.2252409    0.1942469  55.22 0.0007400605    1.314    0.239
        95  -9.9336    155.8548    115.8224   5.2969572075e+01   2.7612852000e+01    0.2079579    0.1759642 -82.03 0.0004471196    1.335    0.251
        96 -13.3817     75.5652     42.0500   5.2286972845e+01   5.9121444099e+01     0.813924    0.4567871  53.95  0.001303364    1.833    0.454
        97 -12.7652     82.2607     40.3450   4.9372562457e+01   5.7984711050e+01    0.7052805    0.5647081 -49.38  0.002854648    1.409    0.290
        98  -9.7742      2.2893     91.6451   9.8526277685e+01   5.7904304563e+01    0.1327379   0.09174347  67.38 0.0004103742    1.678    0.404
        99  -9.4526     86.0193     89.9844   6.4967337453e+01   4.7816312162e+01    0.1774921     0.174421  35.03 0.0003797815    1.020    0.020
       100 -11.5101     48.6057     85.7181   7.7693822543e+01   5.5003536555e+01    0.3159097    0.2298956 -64.43 0.0009160459    1.438    0.305
       101 -10.0552    166.2673     89.4676   4.4256667694e+01   3.0475919846e+01     0.276984    0.1806726  74.57  0.000837461    1.893    0.472
       102 -11.7733    162.3667     84.3186   4.3664552039e+01   3.2279278382e+01    0.5022634    0.4030294 -88.49  0.002145329    1.355    0.262
       103 -12.0484    205.6993     87.2636   3.7313944015e+01   2.2498092311e+01    0.3430455    0.2545047  10.33  0.001419767    2.302    0.566
       104 -10.9826     90.8908    115.8973   7.0270995443e+01   4.0835353330e+01    0.2362849    0.2330423 -59.46            0    1.017    0.017
       105 -11.8823    237.5884     86.2769   3.3113878033e+01   1.6651015228e+01    0.2776392    0.2166378  85.45 0.0007069313    1.468    0.319
       106 -12.0445      5.6853     84.3766   9.5904929834e+01   5.9513318828e+01    0.4964231     0.149646 -63.34  0.001898507    2.534    0.605
       107  -9.9200    232.1426     84.9699   3.3461848389e+01   1.7822333544e+01    0.3745262    0.1624192 -60.17  0.001487888    3.274    0.695
       108  -9.0475    171.6795    112.7107   4.8950717885e+01   2.4921175788e+01    0.1410631    0.1157042   2.83 0.0003679371    1.601    0.376
       109 -11.4031    133.3920    111.6305   5.7169500526e+01   3.3267149926e+01     0.314145    0.2839612  83.28  0.001273411    1.174    0.148
       110 -12.0718    169.4797     79.7667   4.1184551780e+01   3.1482293586e+01    0.5673078    0.4334104 -70.75   0.00296617    1.376    0.273
       111 -12.0397    114.2045     80.4385   5.3566226518e+01   4.3951384318e+01    0.4416881    0.3698732  49.47 0.0006243399    1.180    0.152
       112  -9.8050    109.5417     81.6960   5.5237588563e+01   4.4728123497e+01    0.1966374    0.1443428 -55.28  0.000337088    1.441    0.306
       113 -11.8142     80.4748     72.1736   6.1394560552e+01   5.2689736371e+01    0.6817954    0.2908428  43.13  0.002597843    2.313    0.568
       114 -10.4125     98.0159     80.9003   5.8399346773e+01   4.7357388179e+01    0.4357863    0.3356269 -14.12  0.001454474    1.676    0.403
       115 -10.4072     95.7156     74.4885   5.7113102015e+01   4.9136043825e+01    0.3263203    0.2834251 -54.82 0.0009938179    1.199    0.166
       116 -12.5046     94.6437     63.6109   5.3886345435e+01   5.1440349556e+01     1.069626    0.5921628 -51.46  0.002856989    2.059    0.514
       117 -11.5014    103.1960     66.7540   5.2377630806e+01   4.8999821383e+01    0.3380314    0.2846841  51.66 0.0005435889    1.153    0.133
       118 -11.5904    104.3789     74.8590   5.4622639357e+01   4.7206642242e+01    0.4476443    0.3666619  14.51 0.0006316564    1.492    0.330
       119 -11.9184     82.6134     79.2046   6.2890008992e+01   5.0816406111e+01    0.4990204    0.2954033  31.48  0.001030284    1.889    0.471
       120 -11.9588     87.7172     73.3970   5.9330245275e+01   5.1005876076e+01    0.4882944    0.3848907 -35.22 0.0004263707    1.321    0.243
       121 -10.8899     96.6092    110.8710   6.7234526724e+01   4.0967576012e+01    0.4197646    0.2209862 -34.69  0.001514061    2.520    0.603
       122 -12.3601     58.6991     60.7192   6.5778763873e+01   5.8947036477e+01    0.6638945    0.5206102 -89.38  0.002251823    1.930    0.482
       123 -12.3817    153.9781     62.2914   3.9274492383e+01   3.7966878349e+01     1.030513    0.7816508 -21.04  0.005288836    1.653    0.395
       124 -11.7951     72.4192     73.5005   6.4718731809e+01   5.3932272856e+01    0.6050091    0.4194568 -69.17  0.002766043    1.957    0.489
       125 -10.9986     67.3914     74.6017   6.6958907286e+01   5.4594308310e+01    0.4356796    0.1404031  33.63  0.001354568    3.640    0.725
       126 -10.0948    217.0690    109.4602   4.0578544465e+01   1.6612070697e+01    0.2547558    0.1546999 -52.73 0.0009704715    1.574    0.365
       127 -10.9426    155.1130     76.8840   4.3079266246e+01   3.5251580658e+01    0.3859212    0.2645131  51.40  0.001373538    1.505    0.336
       128 -10.1749    249.9636     74.1883   2.9418437384e+01   1.6289891259e+01    0.1891188    0.1274567 -56.64 0.0006279355    1.248    0.199
       129 -13.4980    176.7952     70.4354   3.7576384019e+01   3.1404119126e+01     1.372075    0.7181111  68.81   0.00582049    2.148    0.534
       130 -11.4866    164.7919     64.5874   3.8010319435e+01   3.5078901817e+01    0.4820369    0.2967437  68.47  0.001570843    1.678    0.404
       131 -11.2246    100.0827     74.5774   5.5804968517e+01   4.8190621750e+01    0.3681168    0.2952843 -42.28  0.001881683    1.273    0.214
       132 -11.1735    240.1779     69.2410   2.9379995417e+01   1.8709890299e+01    0.3340843    0.1707648 -34.27  0.001753032    1.869    0.465
       133 -10.6372    240.9830     75.7261   3.0609800819e+01   1.7626136137e+01    0.1989185    0.1267644  55.33 0.0003690769    1.933    0.483
       134 -10.0839    250.2863     67.8566   2.8150179861e+01   1.7131374722e+01    0.2009061     0.145625 -29.27  0.001018389    1.546    0.353
       135 -12.3036    161.1760     67.1204   3.9312922021e+01   3.5505871369e+01     0.512902     0.274773 -43.68 0.0002773686    1.784    0.440
       136  -9.6929    243.8188     65.3434   2.8248782920e+01   1.8614020033e+01     0.141655    0.1058747  58.42 0.0009181975    1.671    0.401
       137 -10.8704    247.8838     56.5038   2.6139906502e+01   1.9114598841e+01    0.3299281    0.1806237 -75.43  0.001816255    2.134    0.531
       138 -10.4084    108.7439     56.4155   4.7426551790e+01   4.9559107245e+01    0.3335178    0.1967134 -39.99   0.00109132    1.762    0.433
       139 -11.3274    101.6179     53.4436   4.8358388484e+01   5.1669485219e+01    0.7180716    0.2403358  48.05  0.002123088    2.820    0.645
       140 -11.1066    206.3029     52.4106   2.9292251815e+01   2.7708134127e+01    0.3068875    0.2080192 -60.66  0.001765061    1.313    0.239
       141 -11.3918    127.4933     58.8741   4.3633036795e+01   4.4782787644e+01    0.5298555    0.2976379  41.18  0.002261676    2.059    0.514
       142 -10.7910    249.5092     50.0818   2.4754954938e+01   1.9685507140e+01    0.1953867    0.1566803 -86.93 0.0006485631    1.289    0.224
       143 -12.2493    207.3052     45.0099   2.7501076836e+01   2.8516403313e+01    0.5375153    0.3534845 -72.50  0.001971545    1.459    0.314
       144 -10.9470     65.5011    109.9845   7.7346533206e+01   4.6609530023e+01    0.2374256      0.14326 -56.57  0.001033754    1.594    0.373
       145  -9.0451    101.5365     40.4348   4.3781019590e+01   5.3687657973e+01    0.3308651    0.2683112  21.43  0.001369274    1.433    0.302
       146 -10.5367    100.0846     46.7282   4.6429328850e+01   5.3084489818e+01    0.4827791    0.2595155  50.31  0.002167688    1.730    0.422
       147 -10.2353    103.9560     43.6400   4.4292657213e+01   5.2664636739e+01    0.2788113    0.2210999  65.03  0.001513308    1.236    0.191
       148  -9.3023    241.3024     47.3125   2.4870623445e+01   2.1525961614e+01   0.09970167   0.09224481  -2.88 0.0007018976    1.611    0.379
       149 -10.4126    150.1263     45.8270   3.5270612093e+01   4.1365528470e+01     0.331801    0.3018283   6.56  0.001953638    1.399    0.285
       150 -11.5099    147.4902     38.5446   3.3586716745e+01   4.2994827520e+01    0.4501604    0.3137542 -55.88  0.001009919    1.444    0.307
       151  -9.7749    142.9742     46.0015   3.6569434842e+01   4.3053562112e+01    0.3879318    0.1850874  37.42  0.001364141    3.602    0.722
       152  -9.9223    242.3293     44.0289   2.4135547593e+01   2.1766707508e+01    0.1605935    0.1161038 -52.32 0.0002717359    1.088    0.081
       153 -13.9199      7.6672     67.4674   9.1654012423e+01   6.3438155190e+01     1.313497     0.834673 -18.71  0.005591297    1.666    0.400
       154 -10.5421    248.3206     42.6441   2.3404926625e+01   2.0862218467e+01    0.1993314    0.1373189 -54.80 0.0002177783    1.098    0.089
       155 -10.8098    112.4972     39.7118   4.0808047654e+01   5.1232838778e+01    0.3745641    0.2696986  17.57  0.001278571    1.926    0.481
       156 -10.1297    111.7466     34.9964   3.9345213847e+01   5.2048784249e+01    0.3922745    0.2140848 -23.17  0.001746204    2.309    0.567
       157  -9.4149    118.9985     38.9668   3.9090648243e+01   4.9791521388e+01     0.161245    0.1477371  71.24 0.0003838764    1.002    0.002
       158 -10.8234    233.0160     36.2496   2.3303693584e+01   2.4503070031e+01    0.4546012    0.1413504 -56.54  0.001825383    3.355    0.702
       159  -9.7337    211.1328     38.1538   2.5584414002e+01   2.8621790815e+01    0.1758899    0.1178359 -65.98 0.0004414895    1.310    0.237
       160  -9.9847    135.3027     37.0897   3.5244033951e+01   4.6123063104e+01     0.188537    0.1717022 -63.78 0.0007330011    1.109    0.098
       161 -11.3106    131.9126     33.7785   3.4821168783e+01   4.7370406897e+01    0.2455796    0.2129012  77.65 0.0004124223    1.047    0.045
       162  -9.7828    152.4870     32.8269   3.1148837668e+01   4.2533896328e+01    0.2312981    0.1363373 -26.54  0.001121787    2.005    0.501
       163  -9.7004    206.2097     31.7750   2.4611685425e+01   3.0459723578e+01    0.1489863    0.1427941  82.73  0.000478189    1.321    0.243
       164 -12.1522    141.6439     53.3900   3.9016144441e+01   4.2282555684e+01     1.537294    0.4630527  54.01  0.005287236    3.065    0.674
       165 -10.2348     26.7339    109.0101   9.1549749034e+01   5.1685955459e+01    0.1981678    0.1670982 -67.57 0.0003031026    1.086    0.079
       166 -10.2206    195.7515    106.8672   4.3276042907e+01   2.1116133222e+01     0.335694    0.1606613 -46.91  0.001452581    1.912    0.477
       167 -10.3815    154.2933     20.9329   2.7500883562e+01   4.3507744876e+01     0.254201    0.1800935  56.92  0.001137428    1.436    0.304
       168 -10.3359    155.5724     24.4583   2.8332028903e+01   4.2803828029e+01    0.2294906    0.1482545  61.42 0.0005541592    1.473    0.321
       169 -10.6750    159.4805     23.7645   2.7632674318e+01   4.1955523226e+01    0.3188931    0.2062859 -84.75 0.0009914904    1.534    0.348
       170 -10.6413     91.9219    107.1103   6.7735136657e+01   4.2750456257e+01    0.2287221    0.2040785  82.36 0.0002733649    1.226    0.184
       171 -11.5966    113.1170     27.9547   3.6579773506e+01   5.2611319809e+01    0.4376974    0.2230895  62.69  0.001375774    1.780    0.438
       172  -9.3484    105.3341     28.0663   3.8345761482e+01   5.4441753437e+01    0.3356984    0.1923344 -80.32  0.001313065    3.156    0.683
       173 -11.1103     86.5843     28.6604   4.3430535725e+01   5.8668486399e+01    0.3210512    0.2125409  53.47  0.000761524    1.365    0.267
       174 -10.3048    230.7260     27.6407   2.1722448467e+01   2.6003462539e+01     0.247757    0.1400131  76.91  0.001483887    1.789    0.441
       175 -11.3544    197.1157     26.9480   2.4345873119e+01   3.2998407613e+01    0.2965359    0.2386867  89.35  0.001631949    1.146    0.127
       176  -9.5041    132.5056     28.4385   3.3021828991e+01   4.7887188501e+01    0.1360046    0.1192261  85.74 9.438671e-05    1.040    0.038
       177 -10.7680    123.2352     26.5044   3.4064373112e+01   5.0356102933e+01    0.2364261     0.192591 -47.80 0.0006223449    1.298    0.229
       178 -10.4905    134.6351     25.2375   3.1652221218e+01   4.7748921511e+01    0.3311109    0.1940841  89.54  0.001327274    1.964    0.491
       179  -9.7929    102.4214     24.0824   3.7552237934e+01   5.5599468608e+01    0.1865159    0.1340742 -23.40  0.001013449    1.599    0.375
       180  -9.8990    235.2119     23.4772   2.0570431705e+01   2.5638358553e+01    0.3226419    0.1037604  74.86  0.001231298    3.230    0.690
       181 -10.7619    184.2490    105.8438   4.4991777084e+01   2.3622342245e+01    0.2265259    0.2179897  86.22  0.000359763    1.100    0.091
       182 -11.6627    226.6226     22.5738   2.0979563484e+01   2.7404773702e+01    0.3766205    0.2122691  80.73  0.001917941    1.740    0.425
       183 -10.0445    226.4218     18.2502   2.0106065524e+01   2.7943430929e+01    0.2182453    0.1142588 -57.36 0.0003105548    1.545    0.353
       184 -10.5416    209.7949     22.5535   2.2246029939e+01   3.0816978620e+01    0.2465532     0.137509 -44.14  0.001410117    1.543    0.352
       185  -9.4025    211.2348     18.3618   2.1215079624e+01   3.0999753361e+01   0.09931711   0.09314301   7.73 0.0004399412    1.588    0.370
       186 -11.1221     97.7704     22.1828   3.7933128777e+01   5.6902769407e+01    0.2667526    0.2564088 -62.52  0.000821685    1.144    0.126
       187 -10.0918    242.9979     22.0209   1.9780933721e+01   2.4350901641e+01    0.3149241    0.1839174  64.35  0.001993038    2.006    0.501
       188  -9.7484    138.2617     22.4055   3.0194605971e+01   4.7194218472e+01    0.2659986     0.108059  62.97  0.001137418    2.131    0.531
       189 -10.8242    118.4223     22.1610   3.3506022689e+01   5.2011879551e+01    0.3843163    0.1696509  66.25  0.001530831    2.069    0.517
       190 -10.3389     90.4798     21.7128   3.9580419171e+01   5.8633040308e+01    0.2358044    0.1919799  22.28  0.001101156    1.350    0.259
       191 -10.3657    155.2834    106.3395   5.0751056059e+01   2.9656359885e+01    0.1469636    0.1193587  -5.39 0.0002482076    1.630    0.386
       192  -9.6087    215.1872     19.7099   2.1209163198e+01   3.0031307817e+01    0.1409451    0.1310997 -77.34 0.0009284402    1.294    0.227
       193 -10.7840    129.4949     19.2319   3.0582274954e+01   4.9660597844e+01    0.3493548    0.1618777  57.18 0.0004921182    1.914    0.478
       194 -10.7492    128.1694    106.1785   5.7083614648e+01   3.5560302589e+01    0.2265325    0.2145053   9.10 0.0005370135    1.166    0.143
       195 -10.3819    144.2054    103.1546   5.2397514419e+01   3.2711131967e+01    0.2942671    0.2595811  26.31  0.001194748    1.296    0.228
       196 -11.2999    109.8940    103.3878   6.1308628624e+01   4.0036849149e+01    0.3026253    0.2300984 -42.61 0.0008189338    1.332    0.249
       197 -10.8162     75.3850    102.7624   7.2101214446e+01   4.6776697710e+01    0.2209413    0.1350169 -44.69 0.0009488803    1.645    0.392
       198 -10.0377    139.9935     29.2348   3.2016675011e+01   4.5981316107e+01    0.2130757    0.1621129  89.67 0.0009354381    1.270    0.212
       199 -13.1478    148.0242     83.9412   4.6437440026e+01   3.5603745747e+01     1.419379    0.5274968 -46.08  0.004993135    2.671    0.626
       200  -9.2263    127.5669     15.5229   2.9690870367e+01   5.0514152571e+01    0.1309551    0.1142151  84.08 4.245917e-05    1.029    0.028
       201 -10.0235    102.4740     14.9603   3.4122615123e+01   5.6576515493e+01    0.1681146     0.130796 -27.84 0.0003990808    1.456    0.313
       202  -9.9926    208.1822    101.2041   4.0076760783e+01   1.9676271783e+01     0.281399    0.1720413 -29.72 0.0009658478    1.783    0.439
       203 -13.7886    178.2013     85.7501   4.1189480799e+01   2.8513999292e+01     1.585643    0.8401345  33.80  0.005464216    3.486    0.713
       204  -9.8851     47.5668     13.2482   5.0234285485e+01   6.8540163790e+01    0.2176964    0.1248886  29.72 0.0009796736    1.760    0.432
       205 -14.1993    121.8486     85.5750   5.3045173545e+01   4.1230708272e+01     2.394883     1.634271  -9.08   0.00960772    2.535    0.605
       206 -10.4734    159.5015    249.0014   7.6925767654e+01   1.0362297682e+00    0.1658808    0.1172757 -41.96 0.0007539766    1.598    0.374
       207 -11.6231      2.8822    248.3108   1.0996512911e+02   2.0151581400e+01    0.3585107    0.2233119  82.35   0.00235971    1.455    0.313
       208 -13.4740    138.7367     83.2978   4.8293554547e+01   3.7847256625e+01     1.919194    0.6449369 -34.55  0.003867861    3.976    0.749
       209 -13.3696    196.5733     83.2443   3.7693304526e+01   2.5023069655e+01    0.9340906    0.5575449 -21.93   0.00311549    2.457    0.593
       210 -11.3870    112.8996    246.2995   8.6351460525e+01   7.6646683223e+00    0.3329724    0.1426464 -42.50   0.00147547    3.046    0.672
       211 -12.4557    185.3970     47.5983   3.0608993260e+01   3.2914943951e+01    0.6924319    0.4527656 -75.33  0.001742107    1.585    0.369
       212 -11.1474     13.1362    248.1450   1.0789994867e+02   1.9213247012e+01    0.1639409    0.1511699  59.60  0.001045727    1.263    0.208
       213 -10.9647    214.5771    246.6983   6.6200969737e+01  -5.2657062300e+00    0.2003988   0.09280457 -33.87  0.001126362    2.043    0.511
       214 -12.8138    144.6000     62.4222   4.1088211066e+01   4.0156359105e+01     1.083957     0.741074  82.16   0.00269674    1.691    0.409
       215 -12.7973    173.3776     54.2815   3.3939942257e+01   3.4683565190e+01    0.7232416    0.4412649  63.54  0.002025917    1.620    0.383
       216 -11.4111     11.8523     97.6192   9.5507707781e+01   5.5816213249e+01    0.2696609    0.1979266 -62.15 0.0006526556    1.187    0.158
       217 -11.8634    227.5297    242.6020   6.3364686052e+01  -6.1293030157e+00    0.2312436    0.2033318 -39.11  0.001550976    1.715    0.417
       218 -11.2350    100.7826    101.4634   6.3481143667e+01   4.2329655643e+01     0.321647    0.2152402 -53.94 0.0005557229    1.522    0.343
       219 -10.3271     96.4287    100.7531   6.4627797295e+01   4.3357941327e+01    0.2216336    0.1426737 -38.69  0.000949031    1.668    0.401
       220 -11.7033    151.8768     97.1317   4.9129457909e+01   3.2223119735e+01    0.5259579    0.3468205 -61.83   0.00235463    1.736    0.424
       221 -12.8264     49.0821     94.9300   7.9864974419e+01   5.2718517160e+01     0.728552    0.3442951  46.07 0.0004691004    2.490    0.598
       222 -13.2649     52.5729     88.6911   7.6887752018e+01   5.3744779083e+01    0.6342814    0.4532643 -51.52  0.001782783    1.331    0.249
       223 -10.1823    193.7825     98.8879   4.1765259206e+01   2.2925724472e+01    0.2205222    0.1946173  40.44  0.001289632    1.329    0.248
       224 -11.5842    169.6094     97.4622   4.5639346671e+01   2.8268388778e+01    0.4141865    0.3416548  81.99  0.001491241    1.327    0.246
       225 -11.2911     87.1801     98.1057   6.6868563515e+01   4.5751405176e+01    0.4986219    0.3325459  25.29  0.002184774    1.777    0.437
       226 -11.3527     80.6456     99.0678   6.9318761254e+01   4.6732162599e+01    0.3322597    0.2212261  31.52 0.0007130076    1.594    0.373
       227  -9.7243    231.6468     97.8762   3.6195646365e+01   1.5896185379e+01    0.1763777    0.1312934 -47.52 0.0003346833    1.106    0.096
       228 -10.9383    226.5663     97.2912   3.6712493269e+01   1.6895337316e+01    0.2429972    0.1795037 -19.52  0.001383109    1.689    0.408
       229 -11.0407    200.4870     96.6149   4.0196623403e+01   2.1969570093e+01     0.315724    0.2050175 -48.87 0.0008084713    1.379    0.275
       230 -11.5048    139.3837     97.1806   5.1944448672e+01   3.4986629793e+01    0.4746288    0.2612889  53.63   0.00196525    1.883    0.469
       231 -12.8611    131.0701     96.2527   5.3699035447e+01   3.7017567174e+01    0.5755572    0.4828215  77.13  0.002085746    1.306    0.234
