#   1 NUMBER                 Running object number                                     
#   2 MAG_AUTO               Kron-like elliptical aperture magnitude                    [mag]
#   3 X_IMAGE                Object position along x                                    [pixel]
#   4 Y_IMAGE                Object position along y                                    [pixel]
#   5 X_WORLD                Barycenter position along world x axis                     [deg]
#   6 Y_WORLD                Barycenter position along world y axis                     [deg]
#   7 A_WORLD                Profile RMS along major axis (world units)                 [deg]
#   8 B_WORLD                Profile RMS along minor axis (world units)                 [deg]
#   9 THETA_WORLD            Position angle (CCW/world-x)                               [deg]
#  10 FWHM_WORLD             FWHM assuming a gaussian core                              [deg]
#  11 ELONGATION             A_IMAGE/B_IMAGE                                           
#  12 ELLIPTICITY            1 - B_IMAGE/A_IMAGE                                       
         1 -12.6808    240.0591     87.1728   7.9636853970e+01   1.3691808314e+01     2.015429     1.488426 -61.06   0.01038358    1.492    0.330
         2 -10.0123    235.4116      4.0742   5.9532707025e+01   2.5895755119e+01    0.4106984    0.2437027 -45.09   0.00117058    1.491    0.329
         3  -9.0926     57.1999    249.8184   1.4352642508e+02   1.8096043964e+01     0.172931    0.1339735  69.37 0.0002471065    1.147    0.128
         4  -9.8668    249.8995    239.5552   1.0938332598e+02  -9.3790751188e+00    0.4049932    0.1543181 -31.57  0.002141561    2.857    0.650
         5 -11.4517    245.3099    247.6397   1.1136000475e+02  -9.5541077097e+00    0.8447845    0.4701656  44.84  0.005254908    1.910    0.476
         6 -10.6364    115.7344    240.7449   1.3276468603e+02   1.1409232784e+01    0.3431033    0.2400205  17.67   0.00196124    2.460    0.594
         7  -9.8109     88.1372    240.5078   1.3760498939e+02   1.5521977809e+01    0.2609965    0.1147494  59.38  0.001362479    2.122    0.529
         8  -9.7575    124.8946    237.5696   1.3078663427e+02   1.0497585972e+01    0.1914682    0.1665315 -38.92 0.0009004564    1.603    0.376
         9  -9.5595    130.0523    232.5578   1.2927980212e+02   1.0483736609e+01    0.1967744    0.1779558 -60.91 0.0005395752    1.369    0.270
        10  -9.9447    250.0319    229.2019   1.0770267223e+02  -8.3097444137e+00    0.2795835    0.1713671 -11.90  0.001764413    1.670    0.401
        11  -9.6238     76.2217    229.4109   1.3874866695e+02   1.9111205607e+01    0.1990063    0.1078239  67.44 0.0008523617    1.725    0.420
        12  -8.1920    138.3185    229.3394   1.2737198686e+02   9.6627497093e+00    0.1148899   0.09203982  13.85 0.0003198086    1.710    0.415
        13  -8.3627     35.1044    227.9686   1.4582694010e+02   2.4543541343e+01    0.1628394    0.1165103  72.64 0.0004427921    1.029    0.028
        14  -8.5680     56.2424    219.9648   1.4156981058e+02   2.3486387041e+01    0.1582537    0.1185853  75.83  0.001123388    1.060    0.057
        15  -9.5456     56.1206    214.8327   1.4118403009e+02   2.4473729061e+01    0.1756986    0.1146596  67.74  0.001147139    1.224    0.183
        16  -8.4385    100.8700    214.8908   1.3272915223e+02   1.8159591410e+01    0.1694301    0.1183863  66.07            0    1.276    0.216
        17  -8.4028    249.7200    213.7213   1.0514231841e+02  -6.5251420382e+00    0.1690101   0.09140582 -41.65 0.0009049911    2.427    0.588
        18  -9.8937     66.7483    214.0164   1.3913760484e+02   2.3246409221e+01    0.2335347    0.1159962  54.75  0.001299495    1.675    0.403
        19 -10.3608     54.4937    205.4448   1.4070936863e+02   2.6506360272e+01    0.2605883    0.1651036 -86.16  0.001219665    1.412    0.292
        20  -9.8697    179.3344    199.1396   1.1514417674e+02   7.4360226553e+00    0.2185151    0.1853769  42.36 0.0002558705    1.063    0.059
        21  -6.9949    138.7686    198.9889   1.2314149896e+02   1.4813460985e+01    0.1445663     0.110478 -56.92 0.0008281908    1.464    0.317
        22  -9.3281    248.7060    197.8622   1.0247000586e+02  -4.4433687639e+00    0.2019089     0.137883  -3.57  0.001206074    1.445    0.308
        23 -13.1319    100.2437    192.0318   1.3008608062e+02   2.2688124259e+01      1.14437    0.8531886  44.79  0.006793504    1.302    0.232
        24 -13.1659     93.4470    186.9651   1.3085471010e+02   2.4799109320e+01     1.185233    0.6718146 -49.93  0.005966007    2.118    0.528
        25  -8.4208    238.2387    195.2399   1.0373350975e+02  -2.4005523793e+00    0.1892686   0.09751017  51.55 0.0008889738    2.452    0.592
        26  -8.8608    242.5104    185.4829   1.0116790382e+02  -1.8069707173e+00    0.1274312    0.1080049   6.89 0.0003765782    1.007    0.007
        27 -12.3652    102.3747    179.2170   1.2786626961e+02   2.4992316312e+01    0.6909789     0.559778  20.48  0.003920793    1.697    0.411
        28  -9.3263    247.5294    177.9725   9.8867160136e+01  -1.6330989146e+00    0.1934472    0.1154896 -29.04   0.00103515    1.602    0.376
        29  -7.4816    223.0568    187.9878   1.0500666097e+02   1.2154960197e+00    0.1517394    0.1314872  15.35 0.0009486764    1.006    0.005
        30  -8.7263     86.5146    165.5126   1.2942132317e+02   3.0489262626e+01    0.1361933    0.1161754  80.88 0.0008102771    1.022    0.022
        31  -9.9526     51.1872    198.2743   1.4072917847e+02   2.8355353777e+01     0.201061      0.13408  44.13   0.00127597    1.499    0.333
        32  -9.4317    133.1027    153.3629   1.1650838010e+02   2.5000492181e+01    0.2517552    0.1988611 -42.71  0.001300883    1.383    0.277
        33  -7.9158    153.1476    147.1508   1.1067091757e+02   2.2258672146e+01    0.2038535    0.1727679  89.57  0.001045966    1.336    0.252
        34  -9.6054    124.9298    144.9721   1.1674476807e+02   2.8407743867e+01    0.2668581    0.2222829 -76.79  0.001408394    1.236    0.191
        35  -8.2379    190.0250    135.9218   1.0028473658e+02   1.6514808257e+01    0.2130808    0.2072615  -6.43 0.0003259531    1.014    0.014
        36  -8.0994     32.9349    131.5312   1.3777728399e+02   4.5107731858e+01    0.1572071    0.1036682 -20.62 0.0008088082    2.662    0.624
        37  -8.6529    122.4781    129.9838   1.1414541786e+02   3.2216645255e+01    0.2561936    0.2115122  50.25  4.64139e-05    1.218    0.179
        38 -10.2461    235.9750    127.9415   9.0047412274e+01   8.0520707384e+00    0.2612485    0.2401719  34.51 0.0004447676    1.149    0.129
        39  -7.4895    164.6731    119.7503   1.0170273403e+02   2.5367573657e+01    0.1509105    0.1208193  17.40 0.0001650096    1.543    0.352
        40  -8.0758     46.9415    115.0399   1.3152194350e+02   4.7508925027e+01      0.15521    0.1331044 -76.55 0.0005328578    1.030    0.029
        41  -7.7322    182.4070    113.2341   9.6265332624e+01   2.2549066490e+01    0.2101401    0.1421813 -49.06 0.0003110694    1.523    0.343
        42  -8.6436     24.6920    110.4068   1.3713224516e+02   5.0757276488e+01    0.1906544    0.1243579  73.73 0.0007162946    1.665    0.399
        43  -8.4984    186.3919    108.2556   9.4170418719e+01   2.2555277186e+01     0.214186    0.1411088 -46.80 0.0004710185    1.530    0.347
        44 -12.6507    209.2819     91.2986   8.5464346388e+01   2.0132294984e+01     1.621468    0.9377683 -36.00  0.007013853    1.643    0.391
        45 -11.0688    191.0394     87.7698   8.7765134047e+01   2.5176710986e+01    0.6435229    0.3459202  74.25  0.002226594    2.948    0.661
        46 -10.2391    181.8121     84.1842   8.8521538040e+01   2.8096865845e+01    0.3069501    0.2579128  13.82  0.001495805    1.423    0.297
        47  -8.8655     82.0131    245.9892   1.3911987802e+02   1.5465764250e+01    0.1385915    0.1008484  60.92   0.00077389    1.013    0.013
        48  -7.9863    127.8876     90.8559   1.0272422970e+02   3.9633204689e+01    0.2009524    0.1775379 -81.93  0.001020969    1.250    0.200
        49 -11.8242    217.8853     89.0864   8.3461462255e+01   1.8461983578e+01     1.278834     0.439147 -45.00  0.004198464    2.993    0.666
        50  -8.6175    176.3243     96.6585   9.3108383341e+01   2.7153032229e+01    0.1642592    0.1215873 -73.23 0.0007050975    1.730    0.422
        51  -8.0858    133.9487     73.6323   9.5941339055e+01   4.1691674050e+01    0.2524762    0.1331587  73.80 0.0007037598    4.548    0.780
        52 -11.5028    190.5513     80.5448   8.5844815591e+01   2.6559491109e+01    0.6616729    0.4308251 -70.34  0.002691671    2.137    0.532
        53  -9.3535    153.0020     69.0100   8.9981050316e+01   3.7972417905e+01    0.2310812    0.2256678 -63.37            0    1.023    0.022
        54  -7.8583     40.3008     69.7059   1.2402469285e+02   5.8566006441e+01    0.1184676   0.09482311  86.42 0.0002299274    1.571    0.363
        55 -10.5656    190.5182     65.4107   8.1536098167e+01   2.9091205314e+01    0.4753109    0.2751272 -28.45  0.001988339    1.817    0.450
        56 -12.1483    169.4281     62.0247   8.4386654374e+01   3.5028122383e+01     1.112052    0.7374546 -11.21  0.004669512    2.029    0.507
        57  -9.0334    130.8304     53.8202   9.0147631692e+01   4.5935066286e+01    0.3116538    0.2466338 -87.83 0.0004047115    1.629    0.386
        58  -9.4629    245.7242     52.6542   7.0403189816e+01   1.7524473585e+01    0.2393847    0.2313774  57.35 0.0006234864    1.197    0.164
        59 -10.0419    181.7930     51.9864   7.9065166796e+01   3.3416751714e+01     0.340389     0.240869  10.87  0.001490035    2.008    0.502
        60  -9.0537    171.9980     50.0227   8.0179693076e+01   3.6244083337e+01    0.2220239    0.2176192  85.30            0    1.017    0.016
        61  -7.5941    249.8191     48.3956   6.8924043821e+01   1.7183361298e+01    0.1690707    0.1239478  57.03 0.0003812375    1.525    0.344
        62 -12.4369    223.5834     85.1945   8.1559925855e+01   1.7761127277e+01     1.800639    0.7681418 -51.66  0.006218497    2.953    0.661
        63  -7.9284    187.1949     39.1939   7.4349617442e+01   3.3833434719e+01    0.2096376    0.1933364  37.77   0.00045459    1.184    0.156
        64  -7.5025    159.4403     31.5456   7.6469837390e+01   4.2052707752e+01    0.2562726    0.1455482  -9.60   0.00076368    2.420    0.587
        65 -10.2510    141.0966     30.4309   7.9565740992e+01   4.6859808762e+01    0.2613194     0.236248  -7.25   0.00146226    1.157    0.136
        66  -7.3657    151.8105     25.9316   7.5933923026e+01   4.4706178182e+01    0.1817016    0.1130192 -24.09  0.000286801    1.712    0.416
        67 -10.3230    184.4818     91.9789   9.0179634817e+01   2.6031899530e+01    0.3420165    0.2481671 -58.28  0.001550202    1.531    0.347
