#   1 NUMBER                 Running object number                                     
#   2 MAG_AUTO               Kron-like elliptical aperture magnitude                    [mag]
#   3 X_IMAGE                Object position along x                                    [pixel]
#   4 Y_IMAGE                Object position along y                                    [pixel]
#   5 X_WORLD                Barycenter position along world x axis                     [deg]
#   6 Y_WORLD                Barycenter position along world y axis                     [deg]
#   7 A_WORLD                Profile RMS along major axis (world units)                 [deg]
#   8 B_WORLD                Profile RMS along minor axis (world units)                 [deg]
#   9 THETA_WORLD            Position angle (CCW/world-x)                               [deg]
#  10 FWHM_WORLD             FWHM assuming a gaussian core                              [deg]
#  11 ELONGATION             A_IMAGE/B_IMAGE                                           
#  12 ELLIPTICITY            1 - B_IMAGE/A_IMAGE                                       
         1 -11.8848    101.2610     58.3200   1.0219562424e+02   5.0635989185e+01      1.96441     1.171503   1.87  0.007030399    3.274    0.695
         2 -10.7778    107.8818     32.9733   9.0972254637e+01   5.3317886928e+01     1.241859    0.9397908 -53.94  0.006456192    1.697    0.411
         3  -9.5752     54.7786     18.1341   1.0165857939e+02   6.5039887739e+01    0.6617639    0.3625387  14.55  0.003188229    2.442    0.591
         4 -11.7475    132.2795     38.3981   8.6977451778e+01   4.7061243620e+01     2.008585    0.9188155  -7.45  0.005511558    5.305    0.812
         5 -11.6456    121.8143     38.1331   8.9361749458e+01   4.9525058010e+01     1.831825    0.9723468  -2.20  0.006363598    3.412    0.707
         6 -11.3721    145.8950     37.6779   8.3767001240e+01   4.3865423367e+01     1.734165    0.6666877  43.32  0.006064025    2.767    0.639
         7 -12.8820    109.6006     66.4875   1.0258123616e+02   4.7500992330e+01     2.771046      1.68198  29.18   0.01213939    2.004    0.501
         8 -11.9397     58.4019     69.7971   1.1937312405e+02   5.5331801770e+01     1.627804    0.6749933 -60.71  0.006183462    3.118    0.679
         9 -10.7894    123.5105      9.9651   7.8206637973e+01   5.2470283963e+01    0.3467854    0.2982337  41.68 0.0007683829    1.061    0.057
        10 -12.6784     44.0060     67.2412   1.2350740393e+02   5.7559492486e+01     1.916106     1.073392  40.01    0.0101971    2.171    0.539
        11 -12.6836     71.3807     31.2514   1.0137623089e+02   6.0514300509e+01     1.591366    0.8054527  44.78  0.007667388    2.188    0.543
        12 -12.2193     89.1157     27.4469   9.4073282387e+01   5.7894790851e+01     2.147454    0.8918934 -26.18  0.008781515    2.469    0.595
        13 -12.1523    111.7750     22.2333   8.5724896851e+01   5.3850703589e+01    0.7768447    0.6182771  69.22  0.002604526    1.510    0.338
        14 -12.0940     53.3739     32.7940   1.0851539215e+02   6.2975912545e+01    0.9561626    0.7550079 -28.93  0.005445641    1.087    0.080
        15 -12.0937    130.5556     20.0390   8.0596510217e+01   4.9756551208e+01     1.105641    0.4184513  55.73   0.00429371    2.364    0.577
        16 -12.0477    124.8210     15.6877   8.0151298561e+01   5.1588514555e+01     1.620734    0.4204844  51.97  0.005552612    3.098    0.677
        17 -11.9986    113.7430      8.9440   7.9895790817e+01   5.4834046919e+01     1.066472    0.5733387  42.74  0.003507294    1.697    0.411
        18 -12.5746     40.0011     48.4522   1.1933558343e+02   6.1768417218e+01     1.208596    0.7646232 -45.67  0.007098899    1.297    0.229
        19 -13.0182     99.9795      6.6885   8.2196349528e+01   5.8097345153e+01    0.8127375    0.4491701 -29.75 0.0005135734    1.853    0.460
        20 -11.7165     93.1437      8.6809   8.4837463742e+01   5.9340029835e+01    0.4618487    0.3966017 -11.70 0.0008018446    1.161    0.139
        21 -12.3463    135.5433      5.2321   7.4099632433e+01   5.0004874814e+01     1.536409    0.7281347  73.34  0.006313777    2.440    0.590
        22 -12.1461     89.0729     52.6520   1.0385120913e+02   5.3924678321e+01     2.471985     1.422967  -9.90  0.009594359    2.998    0.666
        23  -9.9834     31.3363     11.5935   1.0828209113e+02   6.9048380720e+01    0.3228099    0.2110096  -7.56  0.001537067    1.482    0.325
        24 -11.2057     28.2450      4.6640   1.0625979151e+02   7.0388788327e+01     1.313437    0.4924401  34.74  0.006612453    2.929    0.659
        25 -11.3777     78.2416      6.9784   8.8335047263e+01   6.2461430074e+01    0.7634887     0.513187  -5.12  0.003660513    1.415    0.293
        26 -12.2451      9.4469     26.7148   1.2454585706e+02   6.8522063059e+01      1.06938    0.3947987  15.61   0.00520772    3.626    0.724
        27 -12.3858     40.8396     16.1262   1.0630479812e+02   6.7238006221e+01     1.182589    0.5457895 -35.34  0.006195592    1.840    0.456
        28 -12.4072     50.6632     10.9885   9.9873907595e+01   6.6618635556e+01    0.4633284    0.2974203  16.99 0.0006494449    1.582    0.368
        29 -12.3702     18.7965     13.9596   1.1515230487e+02   6.9969858543e+01    0.5664331    0.4299323 -32.54  0.004096653    1.123    0.109
        30 -11.4431     13.2543      8.9095   1.1554249894e+02   7.1260463301e+01    0.3198844    0.2695765 -17.02 0.0007796187    1.221    0.181
        31 -11.3470      2.8652     18.7821   1.2474209177e+02   7.0374114636e+01    0.3899536    0.1714615 -48.80  0.001723772    1.651    0.394
        32 -13.0283      4.3391      8.3405   1.1978093093e+02   7.2048137828e+01    0.9821069    0.4951541 -43.29  0.006204756    1.484    0.326
        33 -11.2944     66.7780      5.9320   9.1517142823e+01   6.4651461169e+01    0.7651385    0.3828041  23.92  0.001957851    2.328    0.570
        34 -12.2249     58.2652      3.9420   9.3506298612e+01   6.6304418428e+01    0.8231389    0.3928388  53.90  0.003908991    2.888    0.654
        35 -10.1585    177.5535     19.9839   7.2405928854e+01   3.7923677696e+01    0.3486233     0.265115 -47.34  0.001127689    1.379    0.275
        36  -9.9654    185.0067     14.4187   6.9682383808e+01   3.6581488053e+01    0.4754134      0.40611  35.42  0.002453255    1.240    0.194
        37  -9.9232    179.1332     14.8302   7.0584665958e+01   3.8053319545e+01    0.4083931    0.2933763  76.09  0.001150956    1.378    0.274
        38 -11.6819    184.7841     26.5365   7.3387045625e+01   3.5328914412e+01    0.6830159     0.416772  16.19  0.001059003    2.343    0.573
        39 -10.4561    168.2334     24.8007   7.5353570655e+01   3.9796123820e+01      1.13605    0.6019216  29.70  0.004463117    2.543    0.607
        40 -10.8171    156.0614     14.9672   7.4059718613e+01   4.3963372024e+01     1.146556    0.5332074 -51.33  0.004334503    2.929    0.659
        41 -10.1684    169.8956     13.7706   7.1542630129e+01   4.0540171720e+01    0.4129156    0.2148739 -43.19  0.001144172    2.066    0.516
        42 -10.5322    162.3456     16.1424   7.3450374658e+01   4.2240384527e+01    0.5839881    0.4825487 -50.75   0.00321545    1.311    0.237
        43 -11.4559    164.1011      7.2021   7.0245556081e+01   4.2651639515e+01    0.8648666     0.486021 -22.22  0.003431309    1.885    0.470
        44 -10.9440    147.4217     26.0393   7.9408470694e+01   4.4942459480e+01     1.058923    0.5514652 -18.48  0.004465547    2.124    0.529
        45 -11.1745    148.9003     17.7639   7.6240021129e+01   4.5487612307e+01     1.098292    0.5495859  32.12   0.00437496    2.461    0.594
        46 -10.0394    242.9222     12.7674   6.3187055225e+01   2.2437611759e+01    0.4288497     0.278985 -37.60  0.001784744    1.411    0.291
        47 -10.6024    243.8047     19.4551   6.4729578588e+01   2.1509760478e+01    0.7628569    0.3635198  82.79  0.003368227    2.416    0.586
        48 -10.2322    232.9782     11.6535   6.3773620698e+01   2.4886153883e+01    0.3897955    0.2281068 -49.78  0.001042118    1.613    0.380
        49  -9.6004    231.5353     17.5128   6.5379531476e+01   2.4607402588e+01    0.3741642    0.2183086 -53.45  0.001228534    1.687    0.407
        50  -9.5841    221.6993     10.9697   6.4637743064e+01   2.7676312307e+01    0.4170561    0.1896341 -47.08  0.001702299    2.143    0.533
        51 -10.0358    216.9290     15.1300   6.6205402367e+01   2.8417689772e+01    0.7140415    0.4873331  -7.54  0.003643332    1.802    0.445
        52 -10.3755    212.0000     15.9828   6.6952806067e+01   2.9553075599e+01    0.6244599     0.282482 -23.94  0.002430084    2.308    0.567
        53 -10.5717    201.9441     19.2659   6.9001699543e+01   3.1737311975e+01    0.4823728    0.3501547  51.11  0.001470454    1.398    0.284
        54 -12.1923     70.5812     19.8326   9.6727948836e+01   6.2293598136e+01     1.497382    0.5651425  38.54  0.006337044    2.752    0.637
        55  -8.7892    192.5414     12.2257   6.8096388124e+01   3.4867060995e+01    0.2016863     0.139253 -20.93 0.0006108587    1.557    0.358
        56  -9.6932    189.9902      8.3701   6.7269295612e+01   3.5895822974e+01    0.3190307    0.2090995  53.60 0.0006034153    1.472    0.321
        57 -10.5533    196.0586      4.3141   6.5417708386e+01   3.4727832146e+01    0.6800835    0.5412022 -44.84  0.003894325    1.269    0.212
        58 -11.6080    204.3462      6.6036   6.5188629945e+01   3.2417386790e+01    0.5561758    0.4170604  43.41  0.001211649    1.452    0.311
        59 -11.2829    209.4360      3.7149   6.3893644402e+01   3.1416366142e+01    0.5668885    0.3175584 -88.61  0.001452998    1.931    0.482
        60 -10.7954    247.7096      6.1901   6.1241177888e+01   2.2023631066e+01    0.5676794    0.3801192 -59.41   0.00325072    1.378    0.274
        61 -10.2568    173.3630      8.9126   6.9516754710e+01   4.0116477775e+01    0.2583322    0.2374425 -54.34 0.0005467937    1.140    0.123
        62 -10.6674    175.0825      4.7918   6.8003577882e+01   4.0050697563e+01    0.3971319    0.3546965 -77.43  0.002354662    1.142    0.125
        63  -9.0438    226.6334      9.1069   6.3700640361e+01   2.6667629126e+01    0.4672941    0.2041262 -43.32  0.002074467    2.113    0.527
        64  -9.7053    229.7939      3.1179   6.1921212048e+01   2.6502994401e+01    0.6059389    0.2112084  51.95  0.002347205    3.190    0.687
        65 -10.5304    220.7610      1.9677   6.2397481079e+01   2.8790355279e+01    0.3646578    0.2773107   8.69  0.002046712    1.697    0.411
        66 -10.5752    223.9879      1.4656   6.1992622989e+01   2.8055220704e+01    0.2654952    0.2238284 -65.15 -5.715516e-05    1.091    0.083
        67 -11.9381     28.8509     26.2703   1.1580917505e+02   6.6967614558e+01     1.275496    0.5813105 -33.58  0.004739329    1.955    0.488
        68  -9.3044    157.6373      7.0546   7.1138656365e+01   4.4315216000e+01    0.2702093    0.1878395 -84.08  0.001339031    1.705    0.413
        69  -9.9164    180.3005      7.3827   6.8145148220e+01   3.8474827209e+01    0.6186506    0.2153539 -19.81  0.002248055    3.202    0.688
        70  -8.3543    189.4995      1.4386   6.5299175888e+01   3.6654995340e+01    0.1350338    0.1233831  73.66 9.192672e-05    1.028    0.027
        71  -8.7671    145.8467      1.3127   7.0964297998e+01   4.7782506210e+01    0.1852869    0.1078174  56.99 0.0008931007    1.509    0.337
        72 -11.9074     26.9468     85.5323   1.3335931001e+02   5.5249098854e+01     1.021457    0.7329444 -58.86  0.006579784    1.107    0.097
        73 -11.1388      3.0019     89.0192   1.4120527454e+02   5.6170638161e+01    0.5666496      0.34204 -48.04  0.003392381    1.540    0.351
        74 -11.8651     15.8209     61.7643   1.3199757630e+02   6.1196511553e+01     1.107055    0.5549895 -17.06  0.005440544    3.120    0.680
        75 -10.7563     13.5424     56.7287   1.3162794280e+02   6.2396522455e+01    0.2756087     0.201888  30.29  0.001888654    1.736    0.424
        76 -11.6032     13.1807     88.9592   1.3817796908e+02   5.5542670369e+01    0.4057658    0.2567101 -68.51 0.0006385269    1.237    0.192
        77 -10.8062      9.5838     85.2741   1.3866014894e+02   5.6583527470e+01    0.2777737    0.1399318 -64.57 0.0009007719    1.482    0.325
        78 -10.7917    105.7196    119.5705   1.1830183254e+02   3.7285649142e+01     0.420687    0.2684233  40.45  0.002016653    1.655    0.396
        79  -9.7281     40.7468    116.9536   1.3494684057e+02   4.6966600209e+01    0.4035274    0.2153488  80.52  0.001802581    2.832    0.647
        80  -9.6957     12.7306    117.1470   1.4226724510e+02   4.9382120654e+01     0.222977    0.1776728  45.77 0.0009243871    1.478    0.324
        81  -9.7319     52.1723    116.8155   1.3187761971e+02   4.5754292290e+01    0.3758497    0.2215319  10.97  0.001672172    2.989    0.665
        82 -10.5342     98.0505    114.9482   1.1923796138e+02   3.9630003432e+01    0.3410904    0.2795519  35.80  0.001309764    1.334    0.251
        83 -10.2887    132.4998    111.5937   1.0966028197e+02   3.3830460384e+01    0.6345176    0.4588078 -36.22  0.003049024    1.421    0.296
        84  -9.3268    133.8097    102.8183   1.0704399974e+02   3.5354334978e+01    0.3562692    0.2483281 -45.27  0.001217385    1.408    0.290
        85 -10.7549      3.7735     99.8622   1.4247249342e+02   5.3768298284e+01    0.6301784    0.2070537 -63.86  0.001377999    2.112    0.527
        86  -8.9542    195.1893    112.3761   9.6143682995e+01   1.9672275132e+01    0.2148772    0.1454199  61.93 0.0009547017    1.719    0.418
        87  -9.1279     92.5941    111.1382   1.1981207251e+02   4.1381746351e+01    0.2682001    0.2131771  29.10  0.001451106    1.447    0.309
        88 -10.5010     67.3143    107.7186   1.2598209427e+02   4.5918331145e+01    0.6909366    0.3127814 -45.25  0.002992623    2.226    0.551
        89 -10.0888     73.8780    108.3673   1.2429622990e+02   4.4867902725e+01    0.3553423    0.3158637  39.89  0.001098142    1.259    0.206
        90  -9.4019     35.0058    109.4992   1.3529050885e+02   4.9205740081e+01    0.3209928    0.1995068 -53.49  0.001637879    1.429    0.300
        91  -8.6828     38.5210    107.5217   1.3398817130e+02   4.9307466724e+01    0.1924675    0.1431246 -31.29 0.0007292444    1.655    0.396
        92 -10.3121    105.4997    109.3619   1.1596014351e+02   3.9544566449e+01    0.3452135    0.2803889 -51.78  0.001632958    1.168    0.144
        93  -9.6304    120.3633    108.7989   1.1197334041e+02   3.6862816879e+01    0.2725499    0.2494997  30.99 0.0006981808    1.156    0.135
        94 -10.8385     21.0182    109.4049   1.3907989601e+02   5.0452688870e+01    0.7070525    0.4014628  -2.19  0.003612245    3.268    0.694
        95  -8.4829     97.5021    103.9995   1.1678028183e+02   4.2118305916e+01    0.3015733    0.1710994  58.45  0.001256468    2.389    0.581
        96  -9.3105     76.0216    102.6717   1.2242444252e+02   4.5828325807e+01    0.2605725    0.2348022  76.73  0.001082765    1.210    0.174
        97  -9.2362     81.0468    102.3292   1.2092770393e+02   4.5156148661e+01    0.2765764    0.1935032  30.29 0.0009091347    1.667    0.400
        98 -10.5021     86.8958    100.0971   1.1874532249e+02   4.4733487492e+01    0.5288218    0.3482933 -25.61  0.001287761    2.048    0.512
        99  -9.6371     91.6028     96.8062   1.1659410975e+02   4.4678746452e+01    0.3248189     0.219585 -58.59  0.001010223    1.486    0.327
       100  -9.0766    140.8120    101.1308   1.0488593099e+02   3.4187247448e+01    0.2307941    0.2115789 -74.06 0.0007494921    1.196    0.164
       101 -10.2075    114.6654    100.3076   1.1123955406e+02   3.9762584932e+01    0.4118558    0.2852829 -65.02  0.001897092    1.744    0.427
       102 -10.8963    117.5155     98.4651   1.0999941635e+02   3.9589687881e+01    0.6384025    0.4482427  62.44  0.002385948    1.748    0.428
       103  99.0000      7.8234     50.7732   1.3231392960e+02   6.3977603703e+01    0.4193323    0.3318461  68.90  0.002934127    1.761    0.432
       104  -9.0433    150.9971     99.9981   1.0217857827e+02   3.2145719360e+01    0.1907413    0.1780468 -33.76 0.0006319473    1.056    0.053
       105  -8.9785      9.9666     99.8209   1.4075157483e+02   5.3380681244e+01     0.172331    0.1296653  85.02  0.001076431    1.313    0.238
       106  -9.9198    159.2764     96.4817   9.9328526640e+01   3.0918916639e+01    0.4087068    0.3515856  64.40  0.001409455    1.263    0.209
       107  -9.6838    187.5960     93.2684   9.2547408688e+01   2.4776362557e+01    0.3650006    0.2657057 -46.98  0.001138463    1.432    0.302
       108  -9.0415    206.8053     92.0000   8.8667731281e+01   2.0395817157e+01    0.2581571    0.1620403 -55.83  0.001080597    1.997    0.499
       109  -8.9198    235.4932    249.5021   1.1593981206e+02  -7.2419431229e+00    0.1115489   0.08146004  24.29 0.0008106366    1.010    0.009
       110 -10.4163     57.6052     50.9296   1.1371665805e+02   5.9180033031e+01     1.055351    0.8898475  84.32  0.006298265    1.819    0.450
       111 -11.2223     27.4041     51.6148   1.2508162963e+02   6.2368869432e+01    0.6826379    0.2554787 -36.12  0.002900776    2.995    0.666
       112  -9.4164     17.0088    249.4663   1.5116944220e+02   2.3363917436e+01    0.1374162   0.07252025  46.96 0.0008673665    1.600    0.375
       113  -8.8445     25.5169    248.6963   1.4989551655e+02   2.2608539305e+01     0.155463   0.06850876  43.73 0.0009351429    1.925    0.480
       114  -9.5261     34.7805    245.8411   1.4836718383e+02   2.2067178202e+01    0.2267475   0.08548956 -60.11  0.001295744    3.400    0.706
       115  -9.7394    142.1518    243.6174   1.3068188103e+02   7.8917442692e+00     0.304544    0.1619563  30.55  0.001009214    2.243    0.554
       116  -8.9315    211.0996    240.1341   1.1852902258e+02  -2.5840815548e+00    0.1769992    0.1299696  19.39   0.00122037    1.217    0.178
       117 -12.8912    105.7963     82.7046   1.0870629374e+02   4.5100889219e+01      2.88732     1.519984  54.48   0.01173619    2.395    0.582
       118  -9.3947     12.9719    238.7508   1.5127647334e+02   2.5486899665e+01    0.1169451   0.06534646  47.25  0.000579985    1.568    0.362
       119 -11.8304     74.2253     76.4960   1.1621485542e+02   5.1746939221e+01     1.463837    0.9313607  42.09  0.007519618    1.778    0.437
       120  -8.6582    227.1383    231.8020   1.1460043918e+02  -4.1596903563e+00    0.1633378    0.1077735  21.08 0.0004716182    1.317    0.241
       121  -9.4979     12.2581    232.1337   1.5107654314e+02   2.6652662004e+01    0.2062049   0.07278945  59.17  0.001242873    2.170    0.539
       122  -9.1802    136.6333    224.8237   1.2939275015e+02   1.1544176526e+01    0.1486294    0.1101106 -74.43 0.0005933069    1.681    0.405
       123  -8.5277     38.1637    206.3938   1.4529809745e+02   2.8512160418e+01    0.1448904    0.1048996 -88.52  0.000809167    1.182    0.154
       124  -8.3668    245.3004    204.3208   1.0694835898e+02  -3.9185811223e+00    0.1261832   0.07853786  11.57 0.0002503143    1.625    0.385
       125  -8.8641    234.4968    201.0401   1.0815957259e+02  -1.7540097407e+00    0.1795639    0.1148651 -25.98  0.001042051    1.617    0.382
       126 -10.3143     26.8355    191.9854   1.4626648532e+02   3.2449518146e+01    0.3281184     0.215057 -81.64   0.00230242    1.287    0.223
       127 -11.2925     48.9039     25.4679   1.0719564453e+02   6.4764615222e+01    0.4050739    0.2001669  32.30  0.001274024    2.216    0.549
       128 -11.3269     17.9150    186.4368   1.4750370468e+02   3.4402977782e+01    0.3368523    0.3088407  22.08  0.001465568    1.684    0.406
       129 -10.1326     11.8259    184.5844   1.4849387497e+02   3.5326296349e+01    0.2406425     0.120666 -71.49  0.001089506    1.710    0.415
       130 -10.3992      4.7553    184.6235   1.4977809396e+02   3.5938518234e+01    0.3517351    0.1308556  53.53  0.002021864    2.308    0.567
       131  -9.7644     38.7302    177.3968   1.4279001271e+02   3.4096366264e+01    0.3553401    0.1434751 -64.71  0.001859252    2.196    0.545
       132  -8.6859      1.7449    177.7549   1.4990674713e+02   3.7528250998e+01    0.1516691   0.08890255  73.55  0.001050394    1.368    0.269
       133  -8.6414     79.5917    177.1850   1.3440896649e+02   2.9036430732e+01    0.1718625    0.1065166 -55.63 0.0009530637    1.704    0.413
       134 -10.9508     89.0328     89.5030   1.1539973743e+02   4.6673027329e+01    0.5678921    0.4439859 -18.76  0.002450903    1.504    0.335
       135  -9.6828     82.3911     90.4517   1.1758286622e+02   4.7540974471e+01    0.2933904    0.2518054  39.24  0.001447569    1.285    0.222
       136  -9.1839    194.1485     90.2232   9.0469390631e+01   2.3717727735e+01    0.2789376    0.2120729 -15.37  0.001322824    1.432    0.302
       137  -9.3648     74.7641     88.3793   1.1929647929e+02   4.9145022757e+01    0.4812157    0.3042692 -26.32   0.00226079    2.072    0.517
       138 -10.0867    152.7468     87.0821   9.8116798961e+01   3.4193080684e+01    0.4054029    0.2933528  37.55  0.001055406    1.452    0.311
       139 -10.0313    160.9015     82.7385   9.5028183195e+01   3.3054761419e+01    0.5939776    0.4411802 -58.25  0.002737728    1.581    0.368
       140  -9.6372    217.5904     79.9132   8.3645354709e+01   1.9741492749e+01    0.7522382     0.344079 -13.11  0.002132438    4.665    0.786
       141  -8.7740    135.5276     63.9663   9.5013472608e+01   4.2331427026e+01    0.2458224    0.1819702 -48.89 0.0007371485    1.462    0.316
       142 -10.3393    150.1787     75.1035   9.5113924479e+01   3.6966157678e+01    0.6951194     0.402384 -17.96  0.002657545    2.339    0.572
       143 -10.5863    134.2241     80.5829   1.0057894722e+02   3.9633609022e+01    0.6565183    0.3861887 -31.18  0.002772829    1.781    0.439
       144  -9.8041    132.6103     68.2264   9.7110781625e+01   4.2255592380e+01    0.4789118    0.2928795  61.85  0.001549605    1.995    0.499
       145 -11.2499    141.4259     76.2506   9.7503230891e+01   3.8805665595e+01    0.8527537    0.6639731  78.69  0.004027085    1.667    0.400
       146 -10.0830    139.9087     67.7418   9.5187652799e+01   4.0667185954e+01    0.5665767     0.424915  26.14  0.002269549    1.496    0.331
       147  -9.7867     17.2748     82.3027   1.3576582033e+02   5.6707511169e+01    0.2450571    0.1776768   4.38  0.001609009    1.841    0.457
       148  -8.5728    230.0000     81.9556   8.2276089317e+01   1.6528480663e+01     0.245495   0.07800745 -31.12 0.0008028884    2.946    0.661
       149  -9.6542    143.8575     70.8758   9.5254146686e+01   3.9199253422e+01    0.3125347    0.2409307 -42.94 0.0008427367    1.312    0.238
       150  -9.4818     37.0576     75.3753   1.2791981783e+02   5.6545714723e+01     0.260335    0.1762938 -58.20  0.001196837    1.230    0.187
       151  -8.6544     24.3686     75.2931   1.3208831134e+02   5.7685905538e+01    0.2201568    0.1080768 -39.67  0.001131047    2.062    0.515
       152 -10.2477     20.1835     73.0882   1.3300476708e+02   5.8484558494e+01    0.3920031    0.2640751 -22.12  0.001473862    1.802    0.445
       153  -8.7512    192.5550     73.9997   8.6221251619e+01   2.6762695981e+01     0.241859    0.1457308 -32.44  0.001036183    1.620    0.383
       154  -9.6032    214.9564     71.6293   8.1832442325e+01   2.1627741973e+01    0.3796324    0.2121011 -25.52  0.001104353    1.837    0.456
       155  -8.1732    233.6854     71.6694   7.9093069030e+01   1.7186051384e+01    0.1462366    0.1086432  16.97 0.0007045286    1.679    0.404
       156  -9.2435    155.3568     70.7432   9.2613502827e+01   3.6483084445e+01    0.3968138    0.2371748 -24.95   0.00126312    1.834    0.455
       157 -10.2167    150.9745     67.0218   9.2415587687e+01   3.8170414610e+01    0.5131283    0.3144503  46.43   0.00169869    1.630    0.387
       158  -9.0981    155.6754     66.3489   9.1172998936e+01   3.7144476512e+01    0.2794953    0.2150541  88.72   0.00128523    1.720    0.419
       159  -9.6145     62.8361    167.7677   1.3677603026e+02   3.3247247637e+01    0.2653087    0.1733615  89.26   0.00119174    1.504    0.335
       160 -10.2829    250.2210     67.4597   7.5864085865e+01   1.4041661596e+01     0.629038    0.1962651 -25.86  0.002041954    3.561    0.719
       161  -8.5958    202.4791     68.5060   8.2963496514e+01   2.5154718724e+01    0.1484144    0.1438126 -39.72 0.0008102238    1.018    0.018
       162  -9.7737    175.1834     48.2976   8.1653078516e+01   3.5021630254e+01    0.6891529    0.2880021 -41.49  0.002518799    2.454    0.592
       163 -10.4726    164.6376     57.0405   8.6379563105e+01   3.6410919268e+01    0.5330545    0.4017908   3.69  0.001759754    1.594    0.373
       164  -9.5124    178.3879     60.2901   8.4758720639e+01   3.2450860832e+01    0.3141105    0.2438804 -27.79 0.0006985359    1.291    0.226
       165 -10.9405    174.2938     57.2033   8.4574171537e+01   3.3952915470e+01    0.6476038    0.5062499  49.31   0.00179656    1.267    0.211
       166  -8.7868     66.3561     67.2499   1.1599921127e+02   5.4785920325e+01    0.1852651    0.1144469 -54.83  0.000497836    1.598    0.374
       167  -8.9574    188.5870     64.7943   8.4263969697e+01   2.9190817529e+01    0.3573875    0.2152193  82.24  0.001371773    2.492    0.599
       168  -8.7187     76.0744     46.3155   1.0570316519e+02   5.7271811009e+01    0.2127443    0.1618536 -32.43 0.0007135426    1.177    0.150
       169  -9.8710     76.0592     51.6456   1.0764568393e+02   5.6327176317e+01    0.4507961    0.3594052  75.63  0.001963634    1.998    0.500
       170 -10.5890     72.1796     55.4085   1.1024481145e+02   5.6244160742e+01    0.5627267    0.4067718  65.94  0.001343244    2.246    0.555
       171  -8.9017     77.0000     63.9996   1.1152830011e+02   5.3847115005e+01    0.2809432    0.1730964 -46.26 0.0003751818    1.490    0.329
       172  -9.4341     78.0098     60.6421   1.1010532890e+02   5.4336207025e+01    0.3533307     0.202893  49.21  0.001359504    2.163    0.538
       173  -8.5411     36.4794    168.4858   1.4239936254e+02   3.6169495945e+01    0.1159397    0.0922638  87.80 0.0001193676    1.024    0.023
       174  -9.5073    149.3921     59.8066   9.0454110956e+01   3.9740957221e+01    0.4067483    0.2575021 -50.23  0.001657032    1.815    0.449
       175  -8.8267    219.4866     60.4743   7.8139396505e+01   2.2153089189e+01    0.3435678    0.1490556  64.87  0.001297684    2.544    0.607
       176 -10.0051    222.1049     57.1872   7.6888025362e+01   2.1978486932e+01     0.376499     0.365193  51.47  0.001381615    1.083    0.077
       177 -10.5074    201.2302     57.2607   7.9978406325e+01   2.7126390908e+01    0.6406172     0.418945  10.44   0.00268909    2.224    0.550
       178  -9.4522    184.4785     58.5353   8.3134894104e+01   3.1173099005e+01    0.4833845     0.321525  12.81  0.001794505    2.113    0.527
       179  -9.6917    186.5726     53.1855   8.1173617246e+01   3.1421605709e+01    0.4157656    0.2665446  16.20   0.00119178    2.251    0.556
       180  -9.5681    188.7783     49.1619   7.9605331587e+01   3.1425976707e+01     0.382227    0.2574962 -59.39  0.001210132    1.755    0.430
       181  -9.2341    157.8739     58.8082   8.8315622829e+01   3.7821881892e+01    0.4369079    0.2498326  24.01  0.001592274    2.699    0.629
       182 -10.0967      2.9437     57.5754   1.3568884171e+02   6.2861868001e+01    0.2994964    0.2171182 -74.28  0.001887714    1.323    0.244
       183 -11.0393     30.8231     43.0035   1.2108498615e+02   6.3740369135e+01    0.3339957    0.2767323  60.26  0.001474301    1.807    0.447
       184  -8.4096    152.5428     56.5158   8.8700505457e+01   3.9494167524e+01     0.275497    0.1721774 -56.78 0.0009925895    2.099    0.524
       185 -10.9592    149.4126     51.3863   8.7681969383e+01   4.1049031066e+01     0.536157    0.4387524   2.17  0.001869994    1.333    0.250
       186 -11.6229    141.6182     51.5651   8.9453907489e+01   4.2912612569e+01    0.7882159    0.3971941  50.19  0.001139894    1.928    0.481
       187  -8.7976    192.8193     53.8536   8.0336298887e+01   2.9737684631e+01    0.2097601       0.1976  24.25 0.0003307874    1.101    0.092
       188  -9.7605    157.4716     50.8942   8.5842276023e+01   3.9128199244e+01    0.5300613    0.4113556   6.26  0.002281966    1.487    0.328
       189  -9.7843     67.6424     44.7105   1.0796359347e+02   5.8884056939e+01    0.4983644    0.3603967 -41.83  0.002847293    1.306    0.235
       190  -9.3713    236.9721     48.8954   7.2808207811e+01   1.9549779954e+01    0.2095577    0.1953444 -46.16 0.0004903522    1.012    0.011
       191 -11.6316    164.7446     62.6028   8.8103618068e+01   3.5517529183e+01    0.7799351    0.6400322 -11.08   0.00233495    1.306    0.234
       192 -10.6799     38.0293     27.3338   1.1236852103e+02   6.5805189616e+01    0.3729967    0.2337243  28.55  0.001596001    1.788    0.441
       193  -9.1769      9.4645    167.6719   1.4776377561e+02   3.8899093052e+01    0.1860129     0.150158  81.87  0.001165757    1.126    0.112
       194  -9.2608     13.5797    164.8909   1.4673728289e+02   3.9113840831e+01    0.2001886    0.1372728  56.91   0.00118917    1.386    0.279
       195 -10.5668      2.4426    159.5492   1.4856290096e+02   4.1122923312e+01    0.5336894    0.1909041 -84.38  0.002693501    2.437    0.590
       196 -10.4178     16.7271    158.6747   1.4558327253e+02   4.0125251677e+01    0.3830744    0.2439253 -46.27  0.002422845    2.109    0.526
       197 -11.8492     19.8748    148.2769   1.4395764290e+02   4.2044255352e+01    0.6589534    0.6005808 -45.94  0.004651465    1.468    0.319
       198 -10.5773     34.8280    150.1830   1.4084404447e+02   4.0220658272e+01    0.3849938    0.2643697  62.12  0.001640969    1.415    0.293
       199 -11.1166     21.7723     44.6569   1.2519315093e+02   6.4216523109e+01     1.008504    0.4709952  36.31  0.005369556    2.746    0.636
       200 -10.9237     15.5717     33.9301   1.2432812559e+02   6.6750411500e+01    0.7690785    0.3494417 -49.17  0.003622205    1.649    0.394
       201 -10.7035     39.0058    145.9804   1.3940994568e+02   4.0702549995e+01    0.4431568     0.265481 -73.68  0.001652145    1.409    0.290
       202 -10.9939      8.5708     19.6579   1.2235944574e+02   6.9840958312e+01    0.3673504    0.2295233  16.68  0.002483872    1.862    0.463
       203  -8.7976     10.4243    157.3748   1.4677729716e+02   4.0933018056e+01    0.2121825   0.07985082 -70.87 0.0009622043    2.070    0.517
       204  -9.6445     33.8610    155.8557   1.4167321021e+02   3.9101285292e+01    0.1619785    0.1387899 -71.66 0.0003441466    1.231    0.188
       205  -8.7647     55.4745    155.4654   1.3685196421e+02   3.6785727815e+01     0.122927    0.1035507 -87.69 0.0008090129    1.022    0.022
       206  -8.4258     82.9669    154.7559   1.3051178775e+02   3.3260712802e+01    0.1627527    0.1071362  41.68 0.0008522565    1.568    0.362
       207  -9.0660     52.8261    151.8680   1.3698819872e+02   3.7881547177e+01    0.1776577    0.1547192 -63.43  0.001201086    1.241    0.194
       208  -8.9894     80.4979     46.7943   1.0443102012e+02   5.6449547304e+01    0.2101584    0.1678517  -2.01 0.0004021316    1.277    0.217
       209 -10.0042    206.7907     43.9049   7.5358290416e+01   2.7559897333e+01    0.5143434    0.3864714 -62.17   0.00240238    1.442    0.306
       210 -10.6859    202.4897     37.9298   7.4257233837e+01   2.9415147155e+01    0.4515799    0.3843741  51.12  0.001647694    1.196    0.164
       211 -10.3649    199.7983     31.3490   7.2731803618e+01   3.0908868414e+01    0.3780917    0.2751376 -71.35 0.0002791737    1.541    0.351
       212 -10.0707    194.6341     31.0029   7.3334047377e+01   3.2270794680e+01    0.3714655    0.2775782  -5.99   0.00111241    1.558    0.358
       213 -10.3683    222.2132     48.2920   7.4486473489e+01   2.3158065295e+01    0.5476685    0.3062414 -50.46  0.002413988    1.886    0.470
       214  -8.7354    248.9434     44.7376   7.0412217747e+01   1.7329117059e+01    0.1862728    0.1765929 -87.79  0.001122182    1.107    0.097
       215 -10.0229    232.9194     41.9175   7.1489636199e+01   2.1403860870e+01    0.6345228    0.3703351   9.83  0.002478949    3.132    0.681
       216  -8.3140    200.4136     45.2408   7.6653520093e+01   2.8995109202e+01    0.2124261    0.1267083 -40.59 0.0008744012    1.641    0.391
       217  -8.5317      1.5247     44.4221   1.3318418065e+02   6.5609777675e+01      0.11683   0.07912089 -46.01 0.0002836494    1.139    0.122
       218  -8.8795    215.2239     42.1974   7.3743891602e+01   2.5673178471e+01    0.2508614    0.1399673  27.69 0.0009589775    2.826    0.646
       219  -8.7023    196.5861     41.2224   7.6050577342e+01   3.0496982528e+01    0.2243961    0.1428533 -29.57   0.00103525    1.562    0.360
       220 -10.2675    191.3701     39.6585   7.6366220294e+01   3.2033417947e+01    0.5075427    0.3633938   4.66 0.0007289716    1.760    0.432
       221 -11.0060    162.2390     38.6699   8.0915895264e+01   3.9634200921e+01    0.5635951    0.3082285 -24.76  0.002390075    1.907    0.476
       222  -9.6869    180.5312     39.1148   7.7896110689e+01   3.4889100063e+01    0.4837416    0.3121037 -62.83  0.002029496    1.953    0.488
       223  -9.2105     77.0826     41.2429   1.0344969536e+02   5.7967523860e+01    0.2616909     0.178882  48.76  0.001055007    1.753    0.429
       224  -8.6176     62.6719     41.1091   1.0835476783e+02   6.0253282144e+01    0.2340692    0.1371642  26.40  0.001192146    1.951    0.487
       225  -8.3773      4.7205     41.0582   1.3101833529e+02   6.6099155392e+01    0.1454772    0.1091377 -45.01 0.0008047312    1.048    0.046
       226  -8.3273    229.3039     39.2687   7.1221846274e+01   2.2601783957e+01    0.1338745    0.1043804  31.65 0.0002514629    1.531    0.347
       227  -9.1171    173.6490     39.0624   7.9022559315e+01   3.6665290126e+01    0.2721529    0.2052373 -89.14  0.001215425    1.571    0.363
       228  -9.3058    168.7899     36.4281   7.9016970950e+01   3.8251911205e+01    0.3073248     0.269428 -68.48  0.001512863    1.249    0.199
       229  -9.9361     25.3222     38.1525   1.2167361284e+02   6.5162125265e+01    0.1742628    0.1440926 -20.26 0.0004471048    1.167    0.143
       230 -10.1239    210.4201     32.8603   7.1781378836e+01   2.8038120382e+01    0.4777907    0.2264784 -27.23  0.001599164    2.104    0.525
       231  -9.0915     37.9939     33.7158   1.1490782559e+02   6.4711568315e+01    0.3989329    0.2459496 -11.58  0.002106984    1.924    0.480
       232 -11.0002    237.7869     32.7288   6.8603743158e+01   2.1383948750e+01    0.6636857    0.3570758  66.56  0.003051288    1.893    0.472
       233  -9.8064    246.5163     33.4444   6.7890193151e+01   1.9272684896e+01    0.4487379    0.2302186  42.97  0.001524571    2.545    0.607
       234  -7.8605    222.2838     35.6592   7.1094131167e+01   2.4753248247e+01     0.148986   0.09660921 -57.51 0.0006137643    1.633    0.388
       235 -10.1469     67.4587    148.8525   1.3320186948e+02   3.6708915049e+01    0.3839425    0.2126977 -80.59  0.001861285    2.034    0.508
       236  -9.8305      2.8217    146.5968   1.4749673449e+02   4.3777571411e+01    0.4453391    0.2153263  70.50  0.002533087    2.061    0.515
       237 -10.0370      6.7937    142.8108   1.4631922997e+02   4.4278506785e+01    0.4650942    0.2048239  55.44  0.002582269    2.350    0.574
       238 -10.6853    177.4457     28.7512   7.5162714386e+01   3.6965382504e+01    0.5635195    0.4499811  -8.09  0.001912292    1.379    0.275
       239  -8.9521     27.7007    115.9528   1.3824041799e+02   4.8434006301e+01    0.2102708    0.1226824 -59.25 0.0002771036    1.431    0.301
       240 -10.4656    226.4526     28.7317   6.8787906309e+01   2.4567256069e+01    0.6657447    0.2990857 -46.98  0.002789761    2.205    0.546
       241  -8.9407    166.9119     29.5744   7.7120034371e+01   3.9580618132e+01    0.2825886    0.1266237  57.56   0.00111897    2.045    0.511
       242  -9.6050     19.4071    119.1561   1.4081859506e+02   4.8424096866e+01    0.3672736     0.234057 -57.14  0.002022737    1.409    0.290
       243 -10.6047    154.2346     24.8958   7.7756565607e+01   4.3361084227e+01    0.4082427    0.2805821 -34.80  0.001271178    1.503    0.335
       244  -9.3396    159.4302     24.2230   7.6620593300e+01   4.2117221155e+01    0.3314994    0.2714836  46.82  0.001443982    1.164    0.141
       245 -10.3873     27.1262    126.5133   1.3982060711e+02   4.6139996906e+01    0.7529843    0.3253632 -62.25  0.003910168    1.846    0.458
       246 -10.2441      3.8271    135.3349   1.4631098167e+02   4.6086871445e+01    0.4135693        0.245  84.75    0.0022515    1.464    0.317
       247 -10.4232     19.5512    128.6509   1.4193951878e+02   4.6323225562e+01    0.3264175    0.2588257 -50.80  0.000878215    1.410    0.291
       248  -9.8432      9.0532    134.7031   1.4506140726e+02   4.5839153404e+01    0.2153018    0.1922351 -44.80   0.00103745    1.460    0.315
       249 -11.5892     13.7536    129.6391   1.4344250362e+02   4.6574126121e+01    0.7184345    0.3892987 -85.62  0.004204043    1.618    0.382
       250  -9.4968     60.9730    146.9171   1.3443607894e+02   3.7970034187e+01    0.2815156    0.1333582 -44.13  0.001226448    2.866    0.651
       251  -9.1546    219.8592     25.4106   6.8635222205e+01   2.6564621908e+01    0.2720276    0.1892809 -60.10 0.0008351737    1.476    0.323
       252  -8.9882     97.5037    140.5035   1.2466064988e+02   3.4103944326e+01    0.1373124     0.125046 -88.19 -6.304382e-05    1.031    0.030
       253  -9.4421    241.0572     23.4109   6.5951141400e+01   2.1704206103e+01    0.3783162    0.1711874 -45.94  0.001281651    2.048    0.512
       254  -9.2264     80.9846    139.0184   1.2839721383e+02   3.6991362230e+01    0.2061316    0.1585407 -31.19   0.00063813    1.715    0.417
       255  -9.3783    236.8169     14.5529   6.4151998750e+01   2.3672301568e+01    0.2674127    0.1914343  88.49  0.001494423    1.394    0.283
       256  -9.2786     47.4631    137.5141   1.3631827265e+02   4.1651774300e+01    0.3357197    0.1330288  56.66  0.001341056    3.501    0.714
       257  -8.4584    201.4282     25.4912   7.0837672121e+01   3.1178155053e+01    0.1379353     0.133651 -83.77 0.0001758289    1.018    0.017
       258  -9.0197    193.4118     24.5222   7.1593442035e+01   3.3337446013e+01    0.2521596    0.1620119   9.50 0.0008252948    2.151    0.535
       259  -9.3190    230.7344     21.6324   6.6505466243e+01   2.4345775631e+01    0.5022007    0.2196968 -50.51   0.00181957    2.355    0.575
       260 -10.1743     54.6313    137.5649   1.3458897618e+02   4.0813824016e+01    0.2878651    0.2244411 -63.57  0.001300657    1.178    0.151
       261 -11.2801     55.4170    129.3790   1.3313580658e+02   4.2548122871e+01    0.9989479    0.2321487 -54.53  0.003542672    3.540    0.718
       262  -9.4437    214.2353     20.9723   6.8063971712e+01   2.8457011774e+01    0.3963412    0.2373155 -66.81  0.001476353    1.925    0.481
       263  -9.8435     22.4598    137.1507   1.4221460492e+02   4.4217614656e+01    0.4718335    0.1506478 -57.35  0.002164319    2.678    0.627
       264  -9.7339     64.4082    138.3075   1.3232244691e+02   3.9435352636e+01    0.2254777     0.142587  61.31  0.001196839    1.739    0.425
       265 -10.9099     64.9799    130.5894   1.3092048267e+02   4.1084599418e+01    0.3906541    0.2566669  38.66   0.00216339    1.677    0.404
       266  -9.6504    198.2109     16.7576   6.8731207202e+01   3.2954485032e+01    0.2872375    0.2039831  46.45  0.001094192    1.468    0.319
       267 -10.8039     72.2012    130.0289   1.2899817668e+02   4.0243230314e+01    0.5533177    0.3205874 -61.66  0.001847652    1.563    0.360
       268  -9.7341     75.3975    125.5787   1.2736709888e+02   4.0793202773e+01    0.5666066    0.2570516  55.72  0.002239644    3.050    0.672
       269  -9.4357     95.9598    130.1898   1.2304055994e+02   3.6619227244e+01    0.2749759      0.19603 -47.33  0.001436413    1.405    0.288
       270 -10.0161     34.9992    129.9591   1.3832529886e+02   4.4636712968e+01    0.3032803    0.1586393  55.61  0.001599213    2.156    0.536
       271 -10.5494     38.1638    127.0225   1.3713141667e+02   4.4975198956e+01    0.2956699    0.2236632 -11.79  0.001792519    2.034    0.508
       272 -10.6534     48.2121    125.6176   1.3437222263e+02   4.4223367494e+01    0.3805162    0.2083172 -65.39  0.002019099    1.554    0.356
       273 -11.0636     67.8496    122.5940   1.2876977527e+02   4.2502530153e+01    0.6619533    0.4177206 -35.85  0.003299773    2.051    0.512
       274 -10.0653     67.1255    115.0527   1.2752506142e+02   4.4295943918e+01    0.5047951    0.2157143  44.46  0.001620455    2.582    0.613
       275 -10.1157     92.0364    120.2820   1.2198807471e+02   3.9449881860e+01    0.4244764    0.2895049 -34.37  0.002090149    1.764    0.433
       276 -11.3686     46.4423    102.6426   1.3086401745e+02   4.9581664625e+01     1.423219    0.5566664 -42.91  0.005764968    3.016    0.668
       277 -11.2946      4.7317     80.2750   1.3933415164e+02   5.7960354494e+01    0.8202602    0.2946126 -60.28  0.004224337    1.929    0.481
       278 -10.9480     27.5472    101.9687   1.3613282774e+02   5.1563158375e+01    0.5423028    0.3825749   1.38  0.003317831    2.054    0.513
       279 -11.2980     41.8043     88.9163   1.2945952108e+02   5.3123626576e+01     1.657243    0.3650281 -50.63     0.005865    3.482    0.713
       280 -11.5706     53.2138     87.1408   1.2554692323e+02   5.2260977201e+01     1.471769    0.6705073  17.53  0.005663998    4.092    0.756
       281 -12.4656      5.6488    115.0361   1.4381612282e+02   5.0341680938e+01     1.135915     0.256526 -57.53  0.004848465    3.161    0.684
       282 -11.6464     17.3140    102.5654   1.3909988080e+02   5.2254426467e+01     0.883221    0.4465048  85.15  0.004096431    2.626    0.619
       283 -11.0020     22.0272     96.4291   1.3680042626e+02   5.3247909033e+01    0.4188572    0.3591909 -45.54   0.00173483    1.247    0.198
