#   1 NUMBER                 Running object number                                     
#   2 MAG_AUTO               Kron-like elliptical aperture magnitude                    [mag]
#   3 X_IMAGE                Object position along x                                    [pixel]
#   4 Y_IMAGE                Object position along y                                    [pixel]
#   5 X_WORLD                Barycenter position along world x axis                     [deg]
#   6 Y_WORLD                Barycenter position along world y axis                     [deg]
#   7 A_WORLD                Profile RMS along major axis (world units)                 [deg]
#   8 B_WORLD                Profile RMS along minor axis (world units)                 [deg]
#   9 THETA_WORLD            Position angle (CCW/world-x)                               [deg]
#  10 FWHM_WORLD             FWHM assuming a gaussian core                              [deg]
#  11 ELONGATION             A_IMAGE/B_IMAGE                                           
#  12 ELLIPTICITY            1 - B_IMAGE/A_IMAGE                                       
         1 -15.4299    245.0482     19.9982   3.1233169138e+00   2.3524568658e+01     3.450632    0.9091759 -39.53    0.0151847    3.041    0.671
         2 -13.1494     11.8435     24.0516   5.9088859906e+01   6.9662493064e+01    0.6730854    0.2871147 -24.35  0.003251554    2.644    0.622
         3 -11.5608      1.7359     25.3255   6.4913122892e+01   7.0218003260e+01    0.4268004    0.1269129 -51.89  0.001977924    2.945    0.660
         4 -13.2793      6.2562     11.4648   5.6803450268e+01   7.2034281009e+01    0.8107336    0.3928206 -24.30  0.004724333    1.900    0.474
         5 -12.2374     10.3429      2.1675   5.0086169345e+01   7.2903319387e+01    0.6947385     0.177636  26.98  0.002902857    4.133    0.758
         6 -12.2010     13.7093     12.7628   5.3297955014e+01   7.1171581470e+01    0.3117933    0.1742519 -20.91  0.001579772    1.611    0.379
         7 -12.3436     15.7399      6.9291   4.9476064518e+01   7.1742883079e+01    0.3882722    0.2107083 -11.55  0.002290874    1.892    0.471
         8 -11.2669     26.4926     16.0154   4.8225808973e+01   6.9342686001e+01    0.2538681   0.09334794 -32.58  0.001207762    2.646    0.622
         9 -12.0467     19.8281     14.0752   5.0684244971e+01   7.0360955265e+01    0.3294192    0.1620027 -22.90  0.001812647    2.039    0.510
        10 -12.5425     25.1988      4.0637   4.3199513978e+01   7.0986230773e+01    0.4401357    0.2440729   8.42  0.002569044    1.899    0.473
        11 -10.6834     41.7278      2.4169   3.4878194877e+01   6.8833484232e+01    0.2653664    0.1195332  20.84   0.00122315    2.869    0.651
        12 -10.6521     38.2074    240.5742   8.8036102355e+01   1.8881266175e+01    0.2914479     0.143615  58.44  0.001568601    1.785    0.440
        13 -12.1732    248.7807    225.3934   4.3041991482e+01  -9.1313360386e+00    0.4838856    0.3506942  19.29  0.003221994    1.307    0.235
        14 -12.5723    234.1368    244.6316   4.8852021896e+01  -9.9641888445e+00    0.6901593    0.3063875 -27.23  0.003479598    2.342    0.573
        15 -11.7031    240.0432    239.4789   4.6953116512e+01  -1.0001082308e+01    0.3085403    0.1904453 -21.55   0.00107369    1.465    0.317
        16 -12.0080    243.7661    235.3432   4.5607913915e+01  -9.8964464111e+00    0.3661824    0.2228492 -16.57  0.002111291    1.530    0.346
        17 -11.4232    244.8992    230.4421   4.4579487458e+01  -9.3556325436e+00    0.3509213    0.1765256 -31.60  0.001938318    1.800    0.445
        18 -12.2092    242.9881    245.7794   4.7475144419e+01  -1.1211002854e+01    0.6161472    0.2908039 -20.40  0.003152122    2.363    0.577
        19 -11.6398    247.3542    239.2375   4.5637694901e+01  -1.0867406833e+01    0.3977848    0.2441846 -12.27  0.001665395    1.514    0.339
        20 -11.3359    250.0550    232.8057   4.4092709227e+01  -1.0322658466e+01    0.3848212    0.2037902 -28.23  0.001571351    1.682    0.405
        21 -11.2987    248.8336    250.1278   4.7169199109e+01  -1.2467999605e+01    0.4173034    0.1707113  26.27  0.002173143    2.349    0.574
        22 -11.1455    248.8558    245.1092   4.6349124231e+01  -1.1823933334e+01    0.3419153    0.2046554 -26.66   0.00212106    1.485    0.326
        23 -11.7569    225.6303    248.3310   5.0988725643e+01  -9.3858160431e+00    0.3229883    0.2284818 -16.79  0.001589714    1.285    0.222
        24 -10.8342    202.9449    249.3625   5.5396211398e+01  -6.4902471765e+00    0.2244712    0.1491193  -6.12  0.001221647    1.602    0.376
        25  -9.7646    183.5065    250.4668   5.9351153066e+01  -3.8861658045e+00    0.1262345    0.1028925  15.41 0.0006258272    1.037    0.036
        26 -11.0843    168.3061    250.3997   6.2379124278e+01  -1.6282615718e+00    0.2543105    0.1064796  31.83  0.001138984    2.157    0.536
        27 -10.4355     74.6320    250.2948   8.1595960233e+01   1.2304021904e+01    0.2434344    0.1147133  46.39  0.001224083    1.746    0.427
        28 -11.2102     65.6155    249.2145   8.3304436328e+01   1.3725490880e+01    0.3670005    0.1805038  52.06  0.001926627    1.746    0.427
        29 -10.9660     50.2582    250.1804   8.6405166020e+01   1.5506258273e+01    0.3711686    0.1328537  38.17  0.001759087    2.334    0.572
        30 -11.6596     36.8151    248.6141   8.8872778761e+01   1.7433865332e+01      0.45765    0.2075703  55.69   0.00246094    1.862    0.463
        31 -10.7779     27.2402    248.8299   9.0687163997e+01   1.8482799025e+01    0.3049629     0.153198  58.02  0.001236257    1.634    0.388
        32 -12.6352     12.2300    205.4922   9.0805458543e+01   2.9185481379e+01    0.6976137     0.346273  59.51  0.003662496    1.845    0.458
        33 -13.9570      4.6206    126.4516   8.5438399423e+01   4.8535264548e+01    0.8098643    0.4551226 -68.64  0.004444236    1.423    0.297
        34 -15.0428      4.9060    163.8315   8.9215944846e+01   3.9503241604e+01     1.971328    0.9178423 -82.74  0.009725327    1.886    0.470
        35 -12.7187      3.3270    243.2475   9.4744235771e+01   2.2071392786e+01    0.6015206    0.2755827  79.38   0.00342103    1.939    0.484
        36 -11.4144    214.7332    239.6045   5.1590731935e+01  -6.6890726147e+00    0.2211184    0.1342977 -24.03  0.001078487    1.657    0.396
        37 -10.2528     73.6430    240.3276   8.0846520284e+01   1.4408266917e+01    0.1390732   0.07897356  62.43 0.0006479106    1.781    0.438
        38 -12.6137    226.0608    241.2672   4.9761075266e+01  -8.4564744318e+00    0.3513159    0.2078031 -17.92  0.001790503    1.723    0.420
        39 -11.6014    177.8562    243.9885   5.9497043095e+01  -2.0280413596e+00    0.3088043    0.1664195  12.57  0.001336445    2.743    0.635
        40 -10.2370    164.3211    244.3392   6.2302875683e+01  -2.9194637790e-02    0.1315857   0.09267437   0.37 0.0007050288    1.716    0.417
        41 -11.1861     45.1316    237.1867   8.6403054920e+01   1.8748968483e+01    0.3053169    0.1295365  59.23  0.001426499    2.334    0.572
        42 -11.5839    231.4255    235.0542   4.7750919778e+01  -8.2763823722e+00    0.3681495    0.1885435 -29.91   0.00176483    1.867    0.464
        43 -10.4409     32.8871    236.1479   8.8762524254e+01   2.0403419313e+01    0.2773275    0.1187018  63.81  0.001322714    2.354    0.575
        44 -10.7957    206.9267    234.3938   5.2216988560e+01  -4.8007562296e+00    0.2600941    0.1487113 -21.31  0.001329143    1.987    0.497
        45 -12.0868    236.7789    228.5149   4.5677914427e+01  -8.0364546901e+00    0.3844566    0.2137516 -34.98  0.002178479    1.693    0.409
        46 -11.1346    217.7442    231.5020   4.9672745901e+01  -5.8948614302e+00    0.2618581    0.1311191 -27.15  0.001285258    2.139    0.532
        47 -10.1137     59.6468    231.8237   8.2956367145e+01   1.8038841401e+01    0.2981904   0.08547651  50.71  0.001085415    3.432    0.709
        48 -10.8314     39.8113    230.8563   8.6978445058e+01   2.0706543448e+01    0.3187875    0.1774905  77.86  0.001722187    1.792    0.442
        49 -12.0333     25.6411    228.6147   8.9668422582e+01   2.2782555911e+01    0.5531275    0.2804708  73.19   0.00295059    1.903    0.475
        50 -11.4547     18.6941    221.8064   9.0593829730e+01   2.4966623437e+01    0.3748766    0.2012989  73.96  0.001731679    1.703    0.413
        51 -12.3541     12.0229    217.0513   9.1623840993e+01   2.6658675731e+01    0.5590839    0.2898897  61.71  0.002480699    1.692    0.409
        52 -10.4087     48.6558    230.4616   8.5128234241e+01   1.9722397931e+01     0.300275     0.147701  61.81  0.001480998    2.019    0.505
        53 -10.3573     32.3596    229.3502   8.8373864191e+01   2.1884272167e+01    0.2606338    0.1248883  64.36  0.001320495    2.012    0.503
        54 -10.5325    229.5357    227.2141   4.6758285262e+01  -6.8777951800e+00    0.2838659    0.1077002 -36.95  0.001287485    2.520    0.603
        55 -11.8650    239.1727    219.3782   4.3663354685e+01  -7.0087977289e+00    0.3158382    0.1752756 -27.61  0.001732109    1.662    0.398
        56 -10.3284     43.7182    221.1585   8.5360775027e+01   2.2324674394e+01    0.2575764    0.1070509  47.46  0.001212871    2.092    0.522
        57 -12.1334    248.3904    215.2737   4.1336243919e+01  -7.6173457653e+00    0.5304637    0.2123116 -33.28  0.002519582    2.272    0.560
        58 -10.4145    227.8749    218.7402   4.5581928185e+01  -5.3605114241e+00    0.2961819    0.1431866 -30.44  0.001427525    2.033    0.508
        59 -11.1254     34.9300    217.1133   8.6885024709e+01   2.4238133913e+01    0.2928617    0.1352787  64.39  0.001370577    2.261    0.558
        60 -10.5985     24.1875    217.2818   8.9152629499e+01   2.5376794105e+01    0.3266146    0.1330817  64.57  0.001453116    2.634    0.620
        61 -11.0655     21.6484    211.1396   8.9227131407e+01   2.6997086312e+01    0.3583599    0.1931972 -87.11  0.001949933    1.686    0.407
        62 -10.3811    233.1578    211.7313   4.3371870936e+01  -5.0134051260e+00    0.2522311    0.1404274 -16.87   0.00123412    2.099    0.524
        63 -11.0354     28.7844    211.1848   8.7712294425e+01   2.6235684075e+01    0.3059927    0.1578308  78.05  0.001530663    1.989    0.497
        64 -14.5475      5.7032    141.9697   8.6893314492e+01   4.4715187604e+01     1.257867     0.567507 -80.56  0.005939002    2.010    0.502
        65 -10.6814    246.9696    205.8044   3.9878940764e+01  -6.0053182519e+00    0.2282127    0.1522065 -31.16  0.001169615    1.307    0.235
        66 -10.8185    239.9796    206.9779   4.1300401953e+01  -5.2270088980e+00    0.2565413    0.1542937 -35.00  0.001148836    1.501    0.334
        67 -10.8210     18.7474    201.3478   8.9102192429e+01   2.9493568510e+01    0.2721593     0.143639  87.78  0.001240647    1.773    0.436
        68 -11.8899     16.3311    196.2050   8.9231016501e+01   3.0904427375e+01    0.3258665    0.1673592  52.74  0.001737213    1.811    0.448
        69 -10.4553    250.4888    200.5032   3.8316839931e+01  -5.6681584588e+00    0.2561837      0.10494 -37.97  0.001204278    2.142    0.533
        70 -10.7467    243.5396    199.8048   3.9367570563e+01  -4.6005135380e+00    0.2431958    0.1056058 -34.46  0.001137355    2.072    0.517
        71 -12.2418      6.6201    236.4653   9.3801252907e+01   2.3109954298e+01    0.5462083    0.2777873  66.79   0.00325389    1.639    0.390
        72 -10.8430    246.3622    192.2522   3.7482240211e+01  -3.8007307536e+00    0.2281026    0.1444484 -40.91  0.001284482    1.505    0.336
        73 -12.1628     16.9254    189.5403   8.8559650008e+01   3.2392889689e+01    0.3864797    0.1793492  78.79  0.001588115    2.362    0.577
        74 -11.5449     14.0794    231.7771   9.2133048079e+01   2.3331062697e+01    0.4437439    0.2279171  63.68   0.00220739    1.661    0.398
        75 -11.4382     11.1002    225.7513   9.2347349056e+01   2.4888373382e+01    0.4037314    0.2017037  63.01  0.001509214    1.729    0.422
        76 -10.1363    249.4899    184.0101   3.5407508230e+01  -2.9243325144e+00    0.1988254     0.107651 -37.92  0.001034443    1.600    0.375
        77 -12.1050      4.9356    228.2914   9.3676905957e+01   2.4950714493e+01    0.4676915    0.2405043  69.01  0.001885563    1.651    0.394
        78 -11.8536      2.3071    220.9569   9.3776414697e+01   2.6735387254e+01    0.4444999    0.2063167  89.74  0.001622753    1.885    0.469
        79 -11.4458      3.6083    250.2286   9.5027128100e+01   2.0680939478e+01     0.325592    0.1625083  33.98  0.001799008    2.067    0.516
        80 -12.3604      3.2133    179.8782   9.0924902350e+01   3.5840228390e+01    0.8658081    0.3328005  80.37  0.003519448    3.126    0.680
        81 -10.2154    249.6110    150.7898   2.8918430778e+01   2.5856422242e+00    0.1911031    0.1050239 -46.49 0.0009475548    1.689    0.408
        82 -11.8300     20.3401    249.0893   9.1975465220e+01   1.9185925156e+01    0.4027218    0.1942819  49.25  0.001845619    1.641    0.391
        83  -9.8187    244.4349    148.9514   2.9353958603e+01   3.7433681690e+00    0.2102614    0.1122031 -40.51  0.001026564    1.604    0.376
        84 -12.1466      3.5553    197.2231   9.2079683712e+01   3.1825715785e+01     0.536159    0.2692541  85.20  0.002563658    1.784    0.440
        85 -12.8270      5.5332    191.0512   9.1225636877e+01   3.3062052633e+01     1.102109    0.3874978  75.37   0.00404446    3.966    0.748
        86  -9.3539    250.6415    140.3103   2.6666198097e+01   4.1997616706e+00    0.1287243    0.0961533 -67.69 0.0007042341    1.738    0.424
        87 -10.4290    243.5812    139.3418   2.7535630730e+01   5.5501110575e+00    0.2588076    0.1099353 -43.71  0.001015505    2.046    0.511
        88 -10.0455    248.5389    135.0503   2.5916233511e+01   5.4476137255e+00    0.2100978    0.1112076 -40.28  0.001031038    1.594    0.373
        89 -10.3082    242.4879    134.0079   2.6609211106e+01   6.6646875205e+00    0.2137481    0.1145166 -40.98  0.001033518    1.596    0.373
        90 -12.2829      2.3524    211.1602   9.3205196050e+01   2.8837365819e+01    0.8085088    0.2284061 -82.05  0.003287547    3.325    0.699
        91 -10.6377    248.0150    129.5579   2.4876966677e+01   6.4758973637e+00    0.2654975    0.1598039 -51.21  0.001368696    1.603    0.376
        92 -11.2768    241.7312    125.5268   2.4970455205e+01   8.2704190399e+00    0.3697481    0.1334922 -41.20  0.001480422    2.358    0.576
        93 -11.9457     12.1915    248.9406   9.3443563386e+01   2.0070207519e+01    0.4514633    0.1875893  49.26  0.001776605    1.861    0.463
        94 -10.6936    249.5055    124.0066   2.3532998223e+01   7.1639595330e+00      0.29779    0.1374928 -43.74  0.001187348    1.828    0.453
        95 -11.3850    248.5379    118.7388   2.2593863663e+01   8.2253879839e+00    0.3872776    0.1775639 -46.24  0.001546293    1.896    0.473
        96  -9.7373    227.6778    124.3494   2.6883149905e+01   1.1064608464e+01    0.1427656      0.10156 -68.02 0.0007048828    1.745    0.427
        97 -12.4458     15.9938    240.3615   9.2275497852e+01   2.1379187080e+01    0.6409323    0.2728064  53.99  0.002904716    1.909    0.476
        98  -9.8823    239.3001    120.6646   2.4316792627e+01   9.5525886186e+00    0.1364836   0.09566411 -64.50 0.0007034304    1.657    0.396
        99  -9.8623    243.4398    118.9313   2.3353491183e+01   9.1008802336e+00    0.1934186   0.09554138 -56.49 0.0008067276    2.472    0.596
       100 -13.6746     10.7149    181.9559   8.9360916017e+01   3.4730619239e+01     1.164605    0.3232342 -83.42  0.003830779    4.401    0.773
       101 -10.9264    247.8329    112.5150   2.1415728730e+01   9.4004460337e+00    0.2710703    0.1408453 -51.48 0.0009323402    1.834    0.455
       102 -11.0302    243.8575    109.5671   2.1351479573e+01   1.0618710286e+01    0.2305347    0.1347927 -45.44 0.0007831652    1.460    0.315
       103 -10.7385    248.4673    106.9856   2.0196090154e+01   1.0210910000e+01    0.2285311    0.1685344 -70.93 0.0008348267    1.531    0.347
       104 -11.8876    247.4616    102.9458   1.9499015465e+01   1.1064395695e+01    0.3735513    0.1637751 -52.71  0.001604398    2.342    0.573
       105  -9.8059    236.2900    107.6212   2.2003382548e+01   1.2364560391e+01    0.1422255    0.0928035 -63.50 0.0007018517    1.738    0.425
       106 -11.4156    242.8778    104.7416   2.0481332828e+01   1.1612297332e+01     0.270997    0.1238606 -47.30  0.001169463    1.923    0.480
       107 -11.5200      3.0375    104.7081   8.3035876513e+01   5.3796626846e+01    0.1731502    0.1479776 -56.88    0.0010356    1.069    0.064
       108 -10.8076    238.5987    102.7615   2.0650838106e+01   1.2751131786e+01    0.1960321    0.1069028 -48.44 0.0009476459    1.625    0.384
       109 -10.7929      5.0000     99.9773   8.1654758739e+01   5.4789398909e+01    0.2123388   0.05910965 -68.29 0.0008032541    2.948    0.661
       110 -12.5694    243.1215     88.0179   1.6967180693e+01   1.4317554001e+01    0.6281421    0.3364911 -86.77  0.002435129    3.780    0.735
       111 -11.9804    249.0750     97.9256   1.8261696853e+01   1.1593124298e+01    0.4293748    0.2030236 -58.27  0.001841923    2.566    0.610
       112 -12.4641    243.5144     76.5209   1.4538539061e+01   1.6058402822e+01    0.3246726    0.1713021 -33.59   0.00158315    1.985    0.496
       113 -11.6676    243.4067     82.6918   1.5827093496e+01   1.5112700581e+01    0.3005752    0.1500474 -46.83   0.00125432    1.702    0.412
       114 -11.9829    249.7179     86.5778   1.5867869087e+01   1.3298788748e+01    0.4577163    0.2166822 -31.88  0.002053599    2.389    0.581
       115 -10.9458    246.4966     84.5403   1.5836142221e+01   1.4228443838e+01    0.2183715    0.1792643 -77.62 0.0009428615    1.210    0.174
       116 -11.2184    249.9885     80.4837   1.4599608748e+01   1.4204178170e+01    0.4021446    0.2594847  78.86  0.002246821    1.825    0.452
       117 -12.3839    248.2917     74.2788   1.3534545606e+01   1.5482291811e+01    0.5514326    0.1806039 -44.29  0.002308963    2.482    0.597
       118 -11.7652      1.9160     94.4524   8.1842660705e+01   5.6231247912e+01    0.3289023    0.1330134 -64.81  0.001420137    1.922    0.480
       119 -12.0335    242.4847     92.7709   1.8037113808e+01   1.3668880293e+01    0.2735187     0.166131 -47.35  0.001022195    1.405    0.288
       120 -11.0600    237.0083     90.0413   1.8173066963e+01   1.5173737443e+01    0.2180554    0.1400536 -64.50 0.0008364436    1.672    0.402
       121 -12.3282      6.0088     85.9728   7.8899866891e+01   5.7932262340e+01    0.3248977    0.1326022 -57.36  0.001587874    1.835    0.455
       122 -11.5818      3.2264     76.7761   7.8196949054e+01   6.0118884883e+01    0.3277442   0.06386776 -48.74  0.001254429    3.167    0.684
       123 -11.3997      9.2493     69.3422   7.4190561820e+01   6.1372452940e+01    0.2505537     0.108643 -50.96  0.001269157    1.757    0.431
       124 -13.1178    248.8179     63.6698   1.1338833459e+01   1.6969895269e+01    0.8427631    0.2720375 -46.50  0.003574583    2.540    0.606
       125 -12.5152    212.1795    248.2893   5.3474237669e+01  -7.6020887775e+00    0.4728916    0.2845815   4.15  0.002599107    1.860    0.462
       126 -12.4920      2.7695     50.4262   7.2292596773e+01   6.5602312207e+01     0.577087    0.1931846 -53.72  0.002788092    2.219    0.549
       127 -11.3522     11.1519     57.7225   7.0490184404e+01   6.3643840848e+01    0.2609803    0.1043962 -38.77  0.001251819    2.137    0.532
       128 -11.9576      2.5587     40.8695   6.9665598295e+01   6.7431291651e+01    0.4378418    0.1652945 -53.65  0.002203884    2.152    0.535
       129 -11.6315      8.3870     44.1866   6.7873672959e+01   6.6446948948e+01     0.318864    0.1071552 -51.33  0.001511842    2.330    0.571
       130 -11.5402      2.9277     33.7362   6.7222255664e+01   6.8698384826e+01    0.3361779    0.1343731 -45.18  0.001518615    1.907    0.476
       131 -12.3197     12.1778     37.5251   6.3889502998e+01   6.7380666448e+01    0.3816934    0.1760728 -42.38  0.002095514    1.752    0.429
       132 -11.2698     18.6907     30.8282   5.8263283258e+01   6.7962220745e+01    0.2456395     0.143127 -22.60  0.001450419    1.571    0.364
       133 -11.8002    194.3800    246.0032   5.6527966640e+01  -4.7773316779e+00    0.3268579    0.1879595 -15.08  0.001620632    2.310    0.567
       134 -11.5176    142.7516    247.5482   6.7214522850e+01   2.7424208482e+00    0.2627338    0.1123968  32.57  0.001154979    2.148    0.535
       135 -12.4389      2.0930     59.9479   7.5004849801e+01   6.3736097927e+01    0.5718125    0.1855465 -66.79  0.002307132    3.406    0.706
       136 -11.1357     44.7916    245.0312   8.7077868808e+01   1.7196449414e+01    0.3641443    0.1872797  64.94  0.001591726    1.850    0.460
       137 -11.7429    219.0908    243.8204   5.1464007705e+01  -7.8942026926e+00    0.2253471    0.1565103 -12.19   0.00106146    1.355    0.262
       138 -10.3518     84.5312    244.4841   7.9005642249e+01   1.2058578872e+01    0.1289053     0.104177  57.88 9.927375e-05    1.055    0.052
       139 -11.0682     57.4196    242.1682   8.4338652034e+01   1.6194971551e+01    0.4364243    0.1891937  54.09  0.002105964    2.103    0.525
       140 -10.1658    115.3512    243.6915   7.2457056563e+01   7.6580341152e+00    0.1362966    0.0880973  60.54 0.0007043657    1.714    0.417
       141 -11.7486     29.6114    240.7399   8.9717377087e+01   1.9833363503e+01    0.4441566    0.2266667  65.49    0.0019861    1.767    0.434
       142 -11.7937      7.0206     63.0084   7.3625717458e+01   6.2831430501e+01    0.2522314    0.1427663 -55.88  0.001181742    1.465    0.317
       143 -10.8663    202.8273    240.2657   5.3971870064e+01  -5.1147495728e+00    0.2437979    0.1447488 -12.61  0.001241891    2.085    0.520
