#   1 NUMBER                 Running object number                                     
#   2 MAG_AUTO               Kron-like elliptical aperture magnitude                    [mag]
#   3 X_IMAGE                Object position along x                                    [pixel]
#   4 Y_IMAGE                Object position along y                                    [pixel]
#   5 X_WORLD                Barycenter position along world x axis                     [deg]
#   6 Y_WORLD                Barycenter position along world y axis                     [deg]
#   7 A_WORLD                Profile RMS along major axis (world units)                 [deg]
#   8 B_WORLD                Profile RMS along minor axis (world units)                 [deg]
#   9 THETA_WORLD            Position angle (CCW/world-x)                               [deg]
#  10 FWHM_WORLD             FWHM assuming a gaussian core                              [deg]
#  11 ELONGATION             A_IMAGE/B_IMAGE                                           
#  12 ELLIPTICITY            1 - B_IMAGE/A_IMAGE                                       
         1 -11.2975     44.0706     52.6481   1.2339235479e+02   6.1774357928e+01    0.5603986    0.1313648 -48.97    0.0018508    3.393    0.705
         2 -12.8341      5.0613     38.9627   1.3854970262e+02   6.8121296644e+01    0.7443818    0.1408976 -66.53  0.002644269    3.490    0.713
         3 -11.4443     27.5304     29.7810   1.2349833464e+02   6.8602389935e+01    0.5179776    0.1066795 -44.89  0.001655235    4.029    0.752
         4 -10.1102     50.6654     28.0034   1.1078888544e+02   6.6119421909e+01    0.2360037   0.08971266 -30.17 0.0007052181    4.388    0.772
         5  -9.5222    126.4744    220.6030   1.3038458979e+02   1.6055079468e+01    0.1121701   0.08717943  35.65 0.0001176377    1.021    0.020
         6 -10.8536    164.1051    225.8083   1.2406229881e+02   1.0308781549e+01    0.3595563    0.1786837  37.92  0.002144122    1.601    0.375
         7 -10.2297    185.8404    213.8737   1.1857567904e+02   8.7880170798e+00    0.1808028    0.1487944 -24.41  0.001245593    1.421    0.296
         8 -10.6243    217.6579    209.5161   1.1245705846e+02   4.8838500671e+00    0.1800766    0.0961886 -28.55  0.001096596    1.983    0.496
         9 -10.0771    193.0000    210.0307   1.1674943048e+02   8.2461835691e+00    0.1606317   0.06290659 -36.86 0.0008000125    2.926    0.658
        10 -10.3503    205.8197    206.6868   1.1401352657e+02   6.8359534512e+00    0.1948009   0.08104075 -31.54  0.001009314    2.638    0.621
        11 -10.0492    124.0483    205.9062   1.2916342968e+02   1.8578610309e+01    0.1625663    0.1258932  48.82            0    1.228    0.185
        12 -10.2637    198.4828    203.4822   1.1478772673e+02   8.2529941350e+00    0.2095689    0.1089377 -33.94  0.001201362    2.137    0.532
        13 -10.7022    185.9187    203.3208   1.1700122406e+02   1.0084738941e+01    0.2449272    0.1634172 -30.09  0.001575337    1.663    0.399
        14 -11.1292    164.5290    201.1499   1.2064235993e+02   1.3498793047e+01    0.3892485    0.2000031 -39.17  0.002150556    2.260    0.557
        15 -10.4178     88.9162    199.3251   1.3556219276e+02   2.4289719057e+01    0.1952299    0.1156267  49.85  0.001175559    1.504    0.335
        16 -10.1613    172.5260    195.5366   1.1828405512e+02   1.3090885618e+01    0.1211519   0.09824978  21.94 0.0008089645    1.007    0.007
        17 -10.2863     66.7942    195.1790   1.3978159650e+02   2.7666802506e+01    0.2084846   0.08829672  60.66 0.0009616393    2.925    0.658
        18  -9.3861    209.4811    194.5091   1.1142811869e+02   7.7376584571e+00    0.1205567   0.09139077  13.06 0.0001155589    1.032    0.031
        19 -10.7278     43.8432    193.5563   1.4444658947e+02   3.0412549575e+01      0.22443   0.09977508  61.86  0.001198151    2.265    0.559
        20 -10.2893    162.0154    193.2888   1.1995439003e+02   1.4989360280e+01    0.2387306    0.1702383 -51.24  0.001468528    1.838    0.456
        21  -9.8074    206.0000    190.9299   1.1143487861e+02   8.6810414692e+00    0.1753311   0.06373866 -34.34 0.0008014325    2.935    0.659
        22 -10.1312    172.7500    190.8038   1.1750079489e+02   1.3716776431e+01    0.2145745    0.1575512 -68.68   0.00118689    2.601    0.615
        23 -10.0846     87.4869    189.5009   1.3484091627e+02   2.6201587303e+01    0.1180542   0.09900094  51.66 5.097276e-05    1.038    0.036
        24 -10.8834     94.8980    186.7944   1.3294224577e+02   2.5729379478e+01    0.3120631    0.1703404  77.51   0.00137817    3.420    0.708
        25 -10.2687    120.6386    186.1201   1.2733717183e+02   2.2280583656e+01    0.2972539    0.1188962 -66.84 0.0009531087    6.365    0.843
        26 -11.1512     55.1195    186.9132   1.4156991753e+02   3.0482935731e+01    0.2698003    0.1227739  60.52  0.001374944    2.351    0.575
        27 -10.6721     34.4117    187.2068   1.4600891752e+02   3.2508703661e+01    0.1553536    0.0874515  81.83  0.000953736    1.738    0.425
        28  -9.9629    165.0075    185.6497   1.1817620766e+02   1.5651181358e+01    0.2315583     0.130961 -52.74  0.001183652    2.502    0.600
        29 -10.1203    109.6478    186.3294   1.2970857716e+02   2.3807122801e+01     0.127085   0.08368126  61.31 0.0007047236    1.772    0.436
        30 -10.1771     74.4851    183.9892   1.3708879808e+02   2.8826294486e+01    0.1646538   0.08963673  77.76 0.0008103707    2.562    0.610
        31  -9.8941    203.6340    183.2019   1.1052779217e+02   1.0002349435e+01    0.1671286    0.1023087 -18.52 0.0009532663    1.690    0.408
        32 -10.7912    174.2089    181.6388   1.1572288594e+02   1.4799476604e+01    0.3672639    0.1899001 -31.36  0.001870464    2.195    0.544
        33 -10.4899     44.6453    182.3324   1.4348208348e+02   3.2445061040e+01    0.1912363    0.1040559  60.97  0.001119561    1.720    0.419
        34 -10.4029     27.0000    182.0341   1.4727209434e+02   3.4170057066e+01    0.1701861   0.05557171 -77.62 0.0008064433    2.970    0.663
        35  -9.9649    147.3498    180.0353   1.2083829248e+02   1.9268609914e+01    0.1819566    0.1075139 -72.46 0.0007046817    4.407    0.773
        36 -10.7994     59.9685    177.0070   1.3964016115e+02   3.1852028611e+01    0.2032428      0.11552  61.51  0.001141855    1.774    0.436
        37 -10.4278    183.1049    174.6379   1.1280042505e+02   1.4389737122e+01    0.3026855    0.1717151 -27.65  0.001594274    1.919    0.479
        38  -9.9060    106.3340    175.6711   1.2903082053e+02   2.6187884209e+01    0.1289401   0.08779716  63.41 0.0007051947    1.722    0.419
        39  -9.9556     34.6519    173.3378   1.4504066812e+02   3.5177291386e+01    0.1261351   0.06526244  60.17 0.0001284004    1.784    0.440
        40 -10.4984      2.4333    171.6660   1.5203854908e+02   3.8142239101e+01    0.3004115   0.08362056  88.66  0.001302564    3.606    0.723
        41 -10.6357     44.6043    171.7974   1.4267066394e+02   3.4518378396e+01    0.1633973   0.09657323  86.71 0.0009526498    1.723    0.420
        42 -11.0555     77.0494    175.6859   1.3563981368e+02   3.0094366861e+01    0.3277291    0.1281517  50.54  0.001450438    2.637    0.621
        43 -10.3345    121.9993    170.0019   1.2471396696e+02   2.4911291311e+01    0.2058991    0.1476299  64.66 0.0009901194    1.745    0.427
        44 -11.0541     54.8330    169.3458   1.4009895070e+02   3.3939223133e+01    0.2809604    0.1451445  85.64   0.00141212    2.368    0.578
        45  -9.7199    205.6262    168.8002   1.0756329455e+02   1.1560822433e+01    0.1678696    0.1107096 -38.21 0.0009534236    1.755    0.430
        46 -11.1342     12.5577    175.2324   1.5001397946e+02   3.6692534814e+01     0.254914   0.08860982 -78.15  0.001307685    2.612    0.617
        47 -10.3400    139.8311    165.5471   1.2005908648e+02   2.2892516049e+01    0.2367284    0.1715232  77.87  0.001199142    2.289    0.563
        48 -10.1469     99.1852    166.3984   1.2938189710e+02   2.8952790969e+01    0.1880416    0.1020278  45.31  0.000949245    1.713    0.416
        49 -10.2083    192.4922    164.2417   1.0910645869e+02   1.4336021767e+01    0.2981838    0.1203804 -32.97  0.001301481    2.605    0.616
        50 -10.7441     79.7910    163.7199   1.3359681800e+02   3.2109768521e+01    0.3977604    0.2000705  75.03  0.001534377    3.873    0.742
        51  -9.7988     19.3100    165.6579   1.4801562379e+02   3.8065833215e+01    0.1219924   0.06375249  61.75 0.0005424209    1.695    0.410
        52 -10.5530     37.5836    163.7426   1.4364860134e+02   3.6845156564e+01     0.217422   0.09837347 -70.74  0.001147161    2.092    0.522
        53 -10.7306    212.8158    162.6364   1.0511481186e+02   1.1209835698e+01    0.2264251    0.0891347 -29.69 0.0009962757    2.562    0.610
        54 -10.2722    205.1685    161.4624   1.0624160928e+02   1.2618580499e+01    0.2366221   0.08829135 -31.02  0.000992813    2.764    0.638
        55  -9.9345    177.4816    159.9983   1.1119107014e+02   1.7495854348e+01     0.170918    0.1159362 -61.78 0.0008101548    2.636    0.621
        56 -10.3418     92.7590    160.1708   1.3002332496e+02   3.1081140719e+01    0.2202924    0.1210221  66.72 0.0009502791    2.795    0.642
        57  -9.9391     31.3092    159.9660   1.4484094189e+02   3.8210418610e+01     0.193153   0.07004634  78.40 0.0007044554    4.269    0.766
        58 -10.6181      8.0950    158.7559   1.5021442913e+02   4.0338119816e+01    0.2939004    0.1029374  77.35  0.001334433    3.004    0.667
        59 -10.4979     22.6682    158.5404   1.4679231273e+02   3.9255953200e+01     0.203646   0.09310238 -79.82  0.001094624    2.007    0.502
        60 -10.3918    196.5114    156.7908   1.0690614677e+02   1.4720910211e+01    0.2969382    0.1199681 -37.62  0.001287758    2.569    0.611
        61 -10.5902    105.8555    158.1204   1.2659206353e+02   2.9594375386e+01    0.2086805    0.1686326  64.16  0.001241259    1.328    0.247
        62 -10.8004    119.8936    155.7823   1.2290132741e+02   2.7881749389e+01    0.2453686    0.1758036  87.77  0.001239842    2.117    0.528
        63 -11.1549     49.3332    154.4920   1.3997331265e+02   3.7605264391e+01    0.3549204     0.188141  76.60  0.001766208    2.242    0.554
        64 -10.6188     82.0478    154.7088   1.3186918918e+02   3.3654137540e+01    0.3001721    0.1546537  62.01  0.001309714    2.656    0.623
        65  -9.9314    204.6501    154.1710   1.0488995420e+02   1.3704501615e+01    0.1847728    0.1095941 -20.24 0.0009502972    1.713    0.416
        66 -10.8238    133.4899    153.3385   1.1932907351e+02   2.6124387677e+01    0.2951413    0.1890457  67.05  0.001320893    2.572    0.611
        67 -10.8893     67.8681    153.5416   1.3524387288e+02   3.5704800638e+01    0.2557721    0.1567839  85.85  0.001224527    1.965    0.491
        68  -9.8283    189.4070    149.6164   1.0680031551e+02   1.7000955696e+01    0.2463845    0.1110619 -48.16 0.0009576832    3.317    0.699
        69 -11.2079     28.2985    148.6067   1.4469436452e+02   4.0887420474e+01    0.4089906    0.1469645  84.68  0.001551407    3.947    0.747
        70 -10.5855    200.1133    147.0711   1.0426094659e+02   1.5489580644e+01     0.393227    0.1773623 -26.96  0.001716299    2.355    0.575
        71 -11.7624     39.1534    145.9309   1.4170001579e+02   4.0476834338e+01    0.5374158    0.2057522 -77.34  0.002399835    2.636    0.621
        72 -11.8009    149.1894    145.1713   1.1422443425e+02   2.4902496478e+01    0.4467105    0.3127144  84.01  0.001930029    2.978    0.664
        73 -12.3257     55.6610    144.0238   1.3720841404e+02   3.9178254716e+01    0.6312463    0.2942515 -82.23  0.002801938    2.616    0.618
        74 -11.4576    107.1116    145.0601   1.2413981375e+02   3.2009903836e+01    0.4305738    0.2422308  67.80  0.001664468    3.347    0.701
        75 -10.7306     12.8019    144.0344   1.4825669666e+02   4.3108755619e+01    0.3830673    0.1031745 -74.44  0.001642351    3.069    0.674
        76 -11.5187    125.2428    143.0860   1.1935249967e+02   2.9451431971e+01    0.3832474    0.2474269 -74.90  0.001706867    2.548    0.608
        77 -10.8862     87.8649    143.5257   1.2875392217e+02   3.5199033589e+01    0.2633743    0.1734996 -84.82  0.001157518    1.940    0.484
        78  -9.5185    194.3303    143.6661   1.0462247524e+02   1.7012880507e+01    0.1226185    0.1100653 -78.19 0.0005876994    1.725    0.420
        79 -10.7438      2.0000    139.0558   1.5068760774e+02   4.4914369309e+01    0.3132608   0.05384987 -80.74  0.001052349    4.943    0.798
        80 -11.0700     22.8329    135.1554   1.4500780865e+02   4.4298534836e+01    0.6765897    0.2410471 -78.71  0.003032411    2.586    0.613
        81 -10.3096    197.5451    135.7100   1.0230096940e+02   1.7609586373e+01    0.4049916    0.1270947 -32.76  0.001454503    3.205    0.688
        82 -11.0347     39.2015    133.8330   1.4044737291e+02   4.3158231326e+01    0.5312333    0.1653591 -63.87  0.002240673    2.730    0.634
        83 -10.4270    179.3224    133.1488   1.0525995168e+02   2.1404948340e+01    0.3435167    0.1081114 -45.12  0.001090719    4.127    0.758
        84 -11.6878    132.1799    131.4149   1.1533294518e+02   3.0513271018e+01    0.4475619    0.2541973 -63.96  0.001804029    2.780    0.640
        85 -10.7406    112.8479    133.1279   1.2048814826e+02   3.3524455037e+01    0.2171635    0.1883839  74.00  0.001236338    1.310    0.236
        86 -10.9946    143.0302    131.5542   1.1278741052e+02   2.8508435850e+01     0.268454    0.2035769 -61.42  0.001340126    1.660    0.397
        87 -12.0909     83.0708    131.1810   1.2799619585e+02   3.8544777203e+01    0.4197861    0.2763354 -73.31   0.00206154    1.687    0.407
        88  -9.7526    204.6853    130.3225   9.9796021791e+01   1.7080709976e+01    0.1242079    0.1090057 -62.10 0.0007041196    1.660    0.398
        89 -11.1067    153.0037    129.1957   1.0998297186e+02   2.7076415594e+01    0.3947787    0.2388456 -58.82  0.001691333    2.441    0.590
        90 -11.3288     72.8454    128.2899   1.3033582592e+02   4.0585803268e+01    0.4317276    0.1929039 -69.11  0.001788051    2.542    0.607
        91  -9.8145    192.6368    129.1886   1.0176318050e+02   1.9507068692e+01    0.2016144    0.1207033 -21.76 0.0009560596    1.727    0.421
        92 -10.3469    168.4065    129.2354   1.0663100589e+02   2.4130454240e+01    0.1990761    0.1296247 -46.92 0.0009560251    1.751    0.429
        93 -12.3954     98.3741    126.0319   1.2289300113e+02   3.7373704018e+01    0.7398679    0.3259116 -62.95  0.002815736    2.880    0.653
        94 -11.2333     12.5425    124.5018   1.4696040101e+02   4.7461651745e+01    0.7878784    0.1312171 -68.13  0.002858667    3.935    0.746
        95 -11.6962    117.7246    124.9291   1.1755718119e+02   3.4377614104e+01     0.435155    0.3030598  80.89  0.001939182    2.365    0.577
        96 -11.9510     59.1336    123.5698   1.3349132577e+02   4.3372679585e+01      0.65273    0.3181852  89.18  0.002433718    3.538    0.717
        97 -12.0439     42.8454    120.0363   1.3775336246e+02   4.5964459116e+01    0.9524192    0.3704629 -87.33  0.003128076    4.547    0.780
        98 -10.5042    179.5482    123.7764   1.0307139437e+02   2.2880448840e+01    0.2719298    0.1329925 -31.16  0.001148266    2.079    0.519
        99 -11.3364     27.5416    121.1689   1.4237828799e+02   4.7097672800e+01    0.7073292    0.2650148  74.31  0.002320884    4.957    0.798
       100  -9.5074    188.3296    123.6452   1.0130879552e+02   2.1190444868e+01    0.1345983     0.112954 -69.72 0.0007045589    1.780    0.438
       101 -10.9852    158.8104    121.3493   1.0688015208e+02   2.7364536712e+01    0.2695453    0.1974989 -61.97  0.001295262    1.906    0.475
       102 -10.0654    172.5006    121.0151   1.0386171217e+02   2.4722406111e+01    0.1999517    0.1201395 -56.91 0.0008105045    2.639    0.621
       103 -12.3165    141.6552    118.4408   1.1013865799e+02   3.1247634780e+01    0.6270533    0.3054753 -52.98  0.002429379    2.593    0.614
       104 -11.2827     70.8253    118.8691   1.2931539006e+02   4.2987819497e+01    0.4010846    0.1793058 -68.43  0.001632262    2.513    0.602
       105 -11.6959    130.8447    118.1339   1.1270780586e+02   3.3368685534e+01    0.4029548    0.2630297 -67.21  0.001744369    2.294    0.564
       106 -10.9594      2.0834    114.4883   1.4921008902e+02   5.0391320934e+01    0.5586157    0.1541074 -89.28  0.002067171    3.799    0.737
       107 -10.1483    193.0000    114.9610   9.8348105112e+01   2.1619414073e+01    0.2350825   0.07565927 -33.51 0.0008082819    2.983    0.665
       108 -10.3366    185.6247    114.8454   9.9728733137e+01   2.3112815699e+01    0.2079653    0.1242993 -41.41 0.0009576569    1.764    0.433
       109 -11.9208    108.6608    111.9055   1.1707334624e+02   3.8693348605e+01    0.7493792    0.2996341 -54.94  0.002710381    2.816    0.645
       110 -11.9852     92.2558    109.6966   1.2121604306e+02   4.1930191108e+01    0.9799986    0.2746335 -55.03  0.003105704    3.649    0.726
       111 -11.9918     78.4691    111.2884   1.2562311391e+02   4.3666613590e+01    0.6574115    0.3177231 -73.61  0.002404977    3.209    0.688
       112 -11.8274    122.0318    111.4756   1.1338426595e+02   3.6361216787e+01      0.48819    0.2115987 -45.58  0.001896557    2.302    0.566
       113 -10.6410    174.5709    111.2835   1.0105799833e+02   2.5935451134e+01    0.2842533    0.1308881 -40.21  0.001140395    2.187    0.543
       114 -11.2625    159.1316    111.6888   1.0445828602e+02   2.9020833212e+01    0.2605833    0.1978894 -45.24  0.001131135    1.412    0.292
       115 -11.8143     66.2720    108.5956   1.2880802527e+02   4.5956501317e+01    0.5732596    0.2375934 -66.53   0.00224913    2.602    0.616
       116 -11.1215     14.1914    109.0221   1.4514675484e+02   5.0925438772e+01     0.477555    0.2216485 -78.47  0.002422742    1.839    0.456
       117 -11.1478    133.1335    108.7197   1.0985884958e+02   3.4790568788e+01    0.2656336    0.2029194 -52.91  0.001333729    1.426    0.299
       118 -10.0905    189.0000    106.9987   9.7129681557e+01   2.3662951232e+01    0.2385373    0.0770886 -33.37 0.0008053727    2.963    0.662
       119 -12.0161    139.6242    103.5002   1.0691165443e+02   3.4510220347e+01    0.4784724    0.2467328 -45.79  0.001969384    2.004    0.501
       120 -12.3182     44.5380     99.2597   1.3409596106e+02   5.0699903902e+01     1.018618    0.4398454 -75.47  0.004150201    2.588    0.614
       121 -11.8704     21.6401     98.7450   1.4164232858e+02   5.2839986776e+01     1.034911    0.3878284 -84.41  0.004095398    3.006    0.667
       122 -10.7615    166.5852    103.7808   1.0081085211e+02   2.8862553511e+01    0.2102392    0.1331093 -44.25 0.0009538662    1.681    0.405
       123 -12.2882    150.0154    101.4933   1.0390005261e+02   3.2745653226e+01    0.6469575    0.2108623 -41.51  0.002137003    3.044    0.672
       124 -10.9655      6.6198    100.3951   1.4672155471e+02   5.3415853867e+01    0.4675043    0.0892704 -70.57  0.001711042    3.512    0.715
       125 -10.6411    175.3952    101.2207   9.8306923082e+01   2.7433302062e+01    0.2118948    0.1298807 -41.96 0.0009552277    1.693    0.409
       126 -11.6530     81.7739     99.2918   1.2202451550e+02   4.5915553769e+01    0.4799353    0.1923523 -61.31  0.001719508    2.894    0.655
       127 -12.7022    107.9985     95.9702   1.1332339192e+02   4.2209340925e+01    0.8103172    0.3620348 -49.38  0.003144131    2.235    0.553
       128 -11.4504     95.1397     94.4055   1.1671067818e+02   4.4841632569e+01     0.712154    0.2723742 -42.13   0.00251461    2.789    0.642
       129 -12.4242     63.5742     92.3097   1.2634178244e+02   5.0122936830e+01     1.055021     0.345476 -55.33  0.003913884    2.655    0.623
       130 -11.1863    159.6322    100.0600   1.0133641550e+02   3.0978414224e+01    0.3439596    0.1362897 -37.19  0.001248154    2.470    0.595
       131 -10.8779    164.6010     93.2283   9.8397760287e+01   3.1095046270e+01    0.2182161    0.1372973 -22.79 0.0009591637    1.695    0.410
       132 -11.8437    138.4158     90.8335   1.0375663646e+02   3.7175461494e+01    0.4661085    0.2487093 -42.64  0.001932239    1.865    0.464
       133 -12.7777    124.7011     87.8631   1.0643830326e+02   4.0613937263e+01    0.8057868    0.3592705 -34.31  0.002928216    2.493    0.599
       134 -11.0064     34.8824     86.4615   1.3520426212e+02   5.4711482363e+01    0.8572727    0.2152537 -62.32  0.003118698    3.010    0.668
       135 -11.2204      4.6844     88.5177   1.4623597496e+02   5.6332847972e+01     0.483333    0.1324894 -60.59  0.002036208    2.722    0.633
       136 -12.2364    128.6031    100.3764   1.0886752742e+02   3.7337868381e+01    0.5431729    0.2712133 -38.68  0.002196983    2.030    0.507
       137 -11.9076     86.0801     86.1210   1.1736395016e+02   4.8205923203e+01    0.4732969    0.2737276 -66.21  0.001870917    2.253    0.556
       138 -11.3905     47.7121     83.7214   1.3001501635e+02   5.4079172540e+01    0.4513221     0.265919  87.48  0.001974591    2.475    0.596
       139 -10.8847     48.5165     78.1565   1.2847886673e+02   5.5315364425e+01    0.4066548    0.2269277 -25.61  0.001722348    2.700    0.630
       140 -12.0532    104.4663     80.8323   1.1011464998e+02   4.6067735080e+01    0.7675016    0.2703854 -45.24   0.00262971    2.735    0.634
       141 -10.8425    158.3975     82.2419   9.6603387001e+01   3.4342949290e+01     0.220295    0.1343377 -42.50 0.0009558743    1.677    0.404
       142 -10.4323     74.2070     79.2205   1.1945687555e+02   5.1648160773e+01    0.5046549    0.1668118 -59.71  0.001516024    4.004    0.750
       143 -10.7205     23.9018     79.8353   1.3811515375e+02   5.7223195008e+01    0.4185559    0.1926626 -83.87  0.001811035    2.449    0.592
       144 -11.7907     26.4044     72.7059   1.3587221085e+02   5.8750992989e+01     0.780332    0.2797164 -34.41   0.00251274    4.996    0.800
       145 -11.1314    119.4042     78.7403   1.0516264290e+02   4.3509122399e+01    0.4478853    0.1816204 -39.03  0.001600996    2.435    0.589
       146 -11.9580     62.6811     70.3697   1.2113765568e+02   5.5349676817e+01     1.212716     0.098761 -51.22   0.00271738    6.948    0.856
       147 -10.2654    167.6762     76.6617   9.2999052871e+01   3.3156253951e+01    0.1591567     0.112352  13.13 0.0007051061    1.720    0.419
       148 -10.0887    157.6366     75.6921   9.4808902672e+01   3.5620128939e+01    0.1611053    0.1131072  16.45  0.000703897    1.744    0.427
       149 -11.3306    127.4106     74.6169   1.0170858478e+02   4.2601779221e+01    0.3950729    0.2158209 -45.91  0.001616377    1.901    0.474
       150 -11.1717    128.3267     70.3435   1.0009627857e+02   4.3195624510e+01    0.3260227    0.2254925  11.66  0.001402251    1.951    0.487
       151 -11.2521    140.4919     73.4948   9.8048754190e+01   3.9907528011e+01    0.3327345    0.1463654 -35.01  0.001226461    2.224    0.550
       152 -10.0550    151.3217     72.3309   9.5162338538e+01   3.7636883108e+01    0.1596673    0.1150918  12.16 0.0007049365    1.697    0.411
       153 -11.5766    140.5602     82.2374   1.0072031816e+02   3.8314479963e+01    0.3792025    0.1460905 -35.41  0.001302918    2.613    0.617
       154 -11.3181     94.6529     68.1345   1.0920749631e+02   5.0573936184e+01    0.7304385    0.1652995 -47.09  0.001959478    4.493    0.777
       155 -11.3800     51.0741     68.7635   1.2515603163e+02   5.7231035911e+01    0.5249549     0.195584 -66.07   0.00177892    3.438    0.709
       156 -11.3074     17.6262     63.6037   1.3774142237e+02   6.1577967912e+01    0.5104715   0.06326924 -56.57   0.00167429    3.867    0.741
       157 -11.0633    146.8125     66.3985   9.4292286379e+01   3.9679462352e+01    0.4854322     0.180021 -27.94  0.001538847    3.118    0.679
       158 -11.7194     82.0065     72.2901   1.1475270959e+02   5.1944468150e+01    0.3743443    0.2097304 -56.86  0.001608603    1.912    0.477
       159 -10.7088    121.5951     63.8811   9.9736807768e+01   4.5866577986e+01    0.4569754    0.1997952 -28.70  0.001565004    2.738    0.635
       160 -10.8508    150.2225     79.2530   9.7538218590e+01   3.6698975810e+01    0.2868084    0.1844251 -30.47  0.001284986    1.531    0.347
       161 -11.3807    109.9967     61.4302   1.0217230244e+02   4.8829438159e+01    0.4920917    0.2408099 -26.28  0.001754838    2.658    0.624
       162 -11.1228     73.0850     56.5066   1.1279502308e+02   5.6831115368e+01    0.8904478    0.1951807 -45.29  0.002541001    4.148    0.759
       163 -10.8241     25.6590     55.6733   1.3249409089e+02   6.2881659811e+01    0.2862569    0.1178349 -33.06  0.001096201    3.331    0.700
       164 -10.9180    100.4385     54.8086   1.0270168309e+02   5.2074658555e+01    0.3473084    0.2380453 -19.70  0.001330093    1.651    0.394
       165 -11.0472    166.2779    248.1393   1.2632617338e+02   7.3991598832e+00    0.1987283    0.1101479  27.11  0.001335399    1.430    0.301
       166 -12.4129      7.5978     53.2299   1.4023026910e+02   6.4637978125e+01    0.7376064    0.0908768 -63.71  0.002487237    3.764    0.734
       167 -10.7890     91.8960     47.6539   1.0275005862e+02   5.5150168082e+01    0.6296222   0.08535471 -39.56  0.001339315    7.091    0.859
       168 -10.5057     63.1119     48.9991   1.1400387940e+02   6.0005327007e+01    0.3301749    0.1626021 -36.36  0.001374135    2.098    0.523
       169  -9.9409    130.3112     46.3093   9.1198919905e+01   4.6843154477e+01    0.1570842    0.1133967  17.30 0.0002577441    1.623    0.384
       170 -11.0828     16.7753     42.1566   1.3327395374e+02   6.6707878069e+01    0.4961824   0.08188187 -57.91  0.001718964    3.403    0.706
       171 -11.6802    159.9864    238.3483   1.2629851991e+02   9.3257886176e+00    0.1974726    0.1614267 -35.53  0.001298341    1.577    0.366
       172 -10.8373     53.5994     50.2703   1.1845204260e+02   6.1106736496e+01    0.5561311    0.1258089 -53.27  0.001642929    4.155    0.759
       173  -9.9594    144.7176    231.1039   1.2818368672e+02   1.2215973766e+01    0.2177709   0.09534241 -45.52  0.001233657    2.892    0.654
       174 -10.0277     83.9890     40.4857   1.0257215113e+02   5.8032115318e+01    0.2049786    0.1198263  20.90 0.0006097676    2.476    0.596
       175  -9.2385     44.2652     25.6848   1.1284918284e+02   6.7480309493e+01    0.1211362    0.1040652 -69.54 0.0003391386    1.546    0.353
       176 -11.6623     12.7002     21.6511   1.2902433951e+02   7.1601162308e+01    0.2488859    0.1915697 -72.01  0.001555957    1.412    0.292
       177  -9.4672     58.5850     22.4835   1.0442308471e+02   6.5872739704e+01    0.1396979    0.1178824 -14.99  6.89283e-05    1.053    0.051
