#   1 NUMBER                 Running object number                                     
#   2 MAG_AUTO               Kron-like elliptical aperture magnitude                    [mag]
#   3 X_IMAGE                Object position along x                                    [pixel]
#   4 Y_IMAGE                Object position along y                                    [pixel]
#   5 X_WORLD                Barycenter position along world x axis                     [deg]
#   6 Y_WORLD                Barycenter position along world y axis                     [deg]
#   7 A_WORLD                Profile RMS along major axis (world units)                 [deg]
#   8 B_WORLD                Profile RMS along minor axis (world units)                 [deg]
#   9 THETA_WORLD            Position angle (CCW/world-x)                               [deg]
#  10 FWHM_WORLD             FWHM assuming a gaussian core                              [deg]
#  11 ELONGATION             A_IMAGE/B_IMAGE                                           
#  12 ELLIPTICITY            1 - B_IMAGE/A_IMAGE                                       
         1 -13.7176      4.0444     34.4763   1.0774056967e+02   6.8380383272e+01     1.405967    0.4583773 -56.90  0.006848616    2.262    0.558
         2 -15.4193     16.6207      8.6378   9.1099023975e+01   7.2048977660e+01     4.607938     1.392941  22.43   0.01964319    4.117    0.757
         3 -10.6405    118.2996     14.1734   5.5936603205e+01   5.3792915917e+01    0.4263007    0.1465181  44.76  0.001576626    2.697    0.629
         4 -13.1232    235.2645      6.2255   3.7689146358e+01   2.5384531543e+01    0.8810827    0.4415665 -60.11   0.00432197    1.908    0.476
         5 -10.1779    194.1868      7.4012   4.1749640160e+01   3.5252828034e+01    0.1891221    0.1173392  88.38 0.0004528286    1.582    0.368
         6 -12.9393    104.6924      3.1510   5.4597247284e+01   5.7982978553e+01    0.8436469    0.3607897  56.47  0.003774723    2.008    0.502
         7 -11.6464    200.7271      2.4875   3.9764783860e+01   3.4091389313e+01     0.310403    0.1513006  65.61  0.001455148    1.832    0.454
         8 -10.6350    141.7694    204.9158   1.0165223066e+02   1.2024011212e+01    0.2192375    0.1693382  45.76 0.0004192171    1.133    0.117
         9 -20.0378    167.6216    120.7421   7.8663422430e+01   2.3852514864e+01     14.79695     4.762857 -41.48   0.04512757    3.089    0.676
        10 -10.9502     67.1148    145.3673   1.0974549025e+02   3.7299682568e+01    0.9168532     0.537066 -49.17  0.002345763    1.799    0.444
        11 -10.2374     54.9157    150.5624   1.1364149100e+02   3.7635668595e+01     2.228705    0.8500964 -81.74  0.006915814    4.632    0.784
        12 -11.5400     60.9371    150.9650   1.1217733638e+02   3.6782039297e+01    0.3147333    0.2467451 -73.64 0.0003276621    1.133    0.118
        13 -12.8928     48.5912    164.1698   1.1690352527e+02   3.5208107070e+01    0.7664189    0.4255451 -88.19  0.003859624    1.824    0.452
        14 -13.0187     39.8153    158.2492   1.1830282086e+02   3.7570588407e+01     0.699815    0.4602924 -89.96  0.003464344    1.361    0.265
        15 -11.6191    232.7477    161.8285   7.5176757465e+01   2.4380736733e+00    0.4413331    0.2677805  21.94  0.001429042    1.946    0.486
        16 -11.7442     78.0775    167.7783   1.1037535110e+02   3.0474448995e+01     0.603525    0.4468918 -19.56  0.003022392    2.290    0.563
        17 -12.7127     71.1022    161.6657   1.1118606818e+02   3.2890947464e+01     1.017305    0.4018948  50.00  0.004092093    2.647    0.622
        18 -10.0018    247.8803    160.6789   7.2307437817e+01  -1.1660730102e-01    0.1795567    0.1576068   7.39 0.0006208244    1.089    0.082
        19 -11.8758    125.8242    157.9446   9.7133669889e+01   2.4630493675e+01    0.6273342     0.386975  87.92  0.000962912    3.003    0.667
        20 -10.6983    222.2970    158.9797   7.6464874971e+01   4.8820431755e+00    0.1995156    0.1704833 -16.58 0.0003321992    1.091    0.083
        21 -10.1882     77.5503    154.2155   1.0847020246e+02   3.3715925920e+01    0.2757226     0.129813 -68.31   0.00114885    2.170    0.539
        22 -12.1913    230.7848    166.3159   7.6483516097e+01   2.0852314471e+00     0.439379    0.3054189  -6.62  0.001117266    1.566    0.361
        23 -13.3804    119.2268    176.5328   1.0205522635e+02   2.1765771906e+01     0.825937    0.5715207 -78.46  0.003966159    1.736    0.424
        24 -12.9485    110.3949    173.0198   1.0352470797e+02   2.4090588544e+01    0.7782602    0.5353347  62.48   0.00280447    1.520    0.342
        25 -10.6882    118.8887    150.0115   9.7273215159e+01   2.7737511611e+01    0.2222113    0.2130893 -88.85 0.0004289467    1.022    0.021
        26 -12.0889    124.2820    204.8190   1.0530853357e+02   1.5091490412e+01     0.323524    0.2182183  55.73 0.0007148905    1.388    0.280
        27 -11.6761    191.6966    192.8736   8.9304482510e+01   5.0058278567e+00    0.8606595    0.4388954 -62.06  0.002545238    6.208    0.839
        28 -12.1369    238.5570    125.1748   6.5958957057e+01   7.3164900281e+00    0.3803152    0.2120469  65.46  0.001543956    2.814    0.645
        29 -10.0090     94.0550    128.2924   9.9314394566e+01   3.7303965348e+01    0.1928384    0.1787143 -80.15  0.000426098    1.030    0.030
        30 -10.3623    225.1471    101.5799   6.2482699515e+01   1.4150584374e+01    0.2406527    0.1832292 -43.41 0.0004074048    1.243    0.195
        31 -10.6985     98.0199     98.9807   9.1126302583e+01   4.3492221325e+01       0.2332    0.2163252 -44.40 0.0006958385    1.023    0.023
        32 -12.2146     89.1783     98.0688   9.3562488722e+01   4.5261180200e+01    0.3307865    0.2871009  70.73 0.0005224796    1.326    0.246
        33  -9.9940     82.4558     96.4544   9.5223175585e+01   4.6747311798e+01    0.1456612    0.1334238 -45.10 0.0001850191    1.021    0.021
        34 -11.6491     78.1376     93.0808   9.5703208725e+01   4.8206815396e+01     0.373184    0.2624513 -38.38   0.00102223    1.407    0.289
        35  -9.6947    250.7881     76.0677   5.2556544423e+01   1.2643251840e+01    0.1825972    0.0986818 -36.27  0.000423372    1.616    0.381
        36 -11.6784    125.5693    172.8572   9.9955993868e+01   2.1406243186e+01    0.3214772    0.2766147  13.25 0.0003932512    1.426    0.299
        37 -10.7499    126.1217     73.8774   7.5514758069e+01   4.3030655497e+01    0.2600374    0.2216188  27.01 0.0002675852    1.227    0.185
        38 -10.6997    129.4887     71.5195   7.3853707542e+01   4.2708325463e+01    0.2642616    0.2062481  25.83 0.0001163306    1.421    0.296
        39 -12.1951    142.9996     72.1821   7.0636122940e+01   3.9384713819e+01      0.32873    0.2529702  33.25 0.0004954734    1.394    0.283
        40 -12.1094     82.3049    171.7488   1.0993878264e+02   2.8939032278e+01    0.5115489     0.368629  88.15  0.002516615    1.405    0.288
        41 -16.1241    118.4507    122.6801   9.1376816780e+01   3.4130750478e+01     3.065439     2.002795 -64.63   0.01319719    1.768    0.434
        42 -10.8614    213.4532    191.9510   8.4886294301e+01   1.1932937385e+00    0.2450862    0.1654253  22.89 0.0003532465    1.453    0.312
        43 -10.7361    131.2003     66.1522   7.1649313729e+01   4.3299286738e+01    0.2348126    0.2110282  12.54 0.0007419972    1.159    0.137
        44 -11.9181    231.2876     63.4883   5.2005606008e+01   1.8894991375e+01    0.5628107    0.3024513 -69.07  0.001913908    2.820    0.645
        45 -12.7915    222.3587     57.0361   5.1551371895e+01   2.1968072548e+01    0.8787668     0.344319 -50.04  0.003139679    2.804    0.643
        46 -13.1878    147.4250    174.4823   9.5254516900e+01   1.6919432573e+01    0.5829813    0.5216854  13.78  0.002082265    1.238    0.192
        47 -13.6944    133.0595    184.0704   1.0018410930e+02   1.7669630504e+01     1.379955    0.8109152  69.37  0.005611172    2.627    0.619
        48 -13.3250    108.5642    181.4880   1.0529748243e+02   2.2556254313e+01    0.7957379    0.4127487  66.29  0.003060549    2.909    0.656
        49 -11.0403    133.1300    172.7907   9.8196182654e+01   2.0010268303e+01    0.2889225    0.1984059  63.07 0.0004771253    1.641    0.391
        50 -14.5409     91.5797    216.9999   1.1356400496e+02   1.7993469717e+01     1.561691     1.269027 -12.92  0.009273727    2.137    0.532
        51 -11.6410     28.4739     35.5305   9.6653999167e+01   6.6406728375e+01    0.3360639    0.1834884  36.25  0.001840213    2.300    0.565
        52 -12.9106    109.6632    211.6665   1.0927093718e+02   1.6202312303e+01    0.7229198      0.42703  71.92  0.003520903    2.154    0.536
        53 -13.8969     92.3525    175.9352   1.0819382254e+02   2.6443202191e+01     1.318752     1.140819 -86.48  0.007888555    1.089    0.082
        54 -14.6160     69.9990    195.2687   1.1562853492e+02   2.5529836854e+01     1.893712    0.5586522  48.93  0.007357512    3.099    0.677
        55 -15.1489     59.2140    191.5753   1.1752459932e+02   2.7763041635e+01     3.730181     1.351426  59.45   0.01424484    3.468    0.712
