#   1 NUMBER                 Running object number                                     
#   2 MAG_AUTO               Kron-like elliptical aperture magnitude                    [mag]
#   3 X_IMAGE                Object position along x                                    [pixel]
#   4 Y_IMAGE                Object position along y                                    [pixel]
#   5 X_WORLD                Barycenter position along world x axis                     [deg]
#   6 Y_WORLD                Barycenter position along world y axis                     [deg]
#   7 A_WORLD                Profile RMS along major axis (world units)                 [deg]
#   8 B_WORLD                Profile RMS along minor axis (world units)                 [deg]
#   9 THETA_WORLD            Position angle (CCW/world-x)                               [deg]
#  10 FWHM_WORLD             FWHM assuming a gaussian core                              [deg]
#  11 ELONGATION             A_IMAGE/B_IMAGE                                           
#  12 ELLIPTICITY            1 - B_IMAGE/A_IMAGE                                       
         1 -14.4928    158.2297     50.5250   2.9026536832e+02   6.2710144029e+00   0.07628403   0.05563324 -41.72  0.005188114    1.413    0.292
         2 -14.4972    169.9356     34.6072   2.9003678167e+02   6.3869161738e+00   0.04943182   0.04292149 -49.18  0.003735954    1.133    0.118
         3 -13.3843    173.6100     27.1754   2.8995045567e+02   6.4513693887e+00   0.02587225    0.0205406 -41.23  0.001339486    1.286    0.222
         4 -12.2683    189.5201     14.5562   2.8969361934e+02   6.5046517320e+00   0.01618166     0.013264 -80.85  0.001151523    1.296    0.228
         5 -13.8272    185.2378      3.9163   2.8967874763e+02   6.6521979256e+00   0.05014864   0.03141279  20.76  0.004072898    1.720    0.419
         6 -11.6013    181.9417    233.6706   2.9108658710e+02   4.0174533603e+00    0.0124327   0.01136811 -14.85  0.001510613    1.153    0.133
         7 -19.2649     70.5186    243.5011   2.9241278426e+02   4.5464892031e+00    0.3698119    0.3627673  21.64   0.04383903    1.041    0.039
         8 -14.0765    193.8680    193.7460   2.9071352989e+02   4.4099866213e+00   0.06214963   0.03871094  82.23  0.004072608    2.308    0.567
         9 -10.4320    211.2008    201.8160   2.9056443640e+02   4.2164377644e+00  0.009858002  0.008826215  69.89 0.0006055805    1.185    0.156
        10 -10.9287    177.7128    189.3538   2.9087119243e+02   4.5541938881e+00   0.01215537  0.008995131  31.33  0.000660193    1.362    0.266
        11 -11.3602    178.0351    197.0090   2.9091306747e+02   4.4638377466e+00   0.01787037   0.01166778  59.07  0.001235305    1.844    0.458
        12 -11.7118    180.2346    193.5292   2.9086734078e+02   4.4913455000e+00   0.02492719   0.01557472  89.44  0.001914265    2.182    0.542
        13 -10.9604    136.3654    197.3846   2.9138956967e+02   4.7002675355e+00   0.01627631   0.01096613  70.19  0.001404297    1.909    0.476
        14 -11.0806    169.8259    195.1507   2.9099542596e+02   4.5327796809e+00   0.01022224  0.008783898  72.24 0.0007576374    1.265    0.209
        15 -11.2872    158.1546    193.4385   2.9111807278e+02   4.6200310018e+00   0.01276171  0.009983089  85.19 0.0003503621    1.467    0.318
        16 -10.0854     18.1848    231.2094   2.9293599765e+02   4.9896360657e+00  0.008854329  0.007760194 -34.83  0.000331732    1.175    0.149
        17 -10.3453    220.5096    229.0728   2.9062079423e+02   3.8476102532e+00   0.01592958  0.006843809 -72.31  0.001210876    2.977    0.664
        18 -10.2574    182.2337    189.2278   2.9081900097e+02   4.5295061096e+00  0.009096751  0.007519885  67.35 0.0004935493    1.334    0.251
        19 -10.9209      2.8098    226.9564   2.9308598764e+02   5.1271257492e+00   0.01492544  0.009159945 -21.03  0.001366547    2.277    0.561
        20  99.0000      8.3487    223.8858   2.9300474452e+02   5.1308624118e+00   0.01255812  0.008192752 -13.10 0.0005141146    2.086    0.521
        21 -12.3051    207.5910    183.7673   2.9049803351e+02   4.4459060880e+00   0.01818485   0.01733035  76.49  0.001074184    1.078    0.072
        22 -12.5082    210.5022    181.5234   2.9045156020e+02   4.4549855031e+00   0.02260358   0.01421766 -48.83  0.001965614    1.566    0.361
        23 -19.2217     54.8159     95.5596   2.9171372285e+02   6.3480776425e+00    0.8674124   0.05798836 -63.00   0.02806117   15.771    0.937
        24 -10.9057     17.7575    180.6521   2.9264168737e+02   5.5770881002e+00   0.00862937  0.007908662  -5.58  0.001051381    1.153    0.132
        25  -9.7204      1.5163    179.3484   2.9281913852e+02   5.6854404759e+00   0.00651771  0.006014857 -18.32 0.0001729623    1.133    0.118
        26 -11.3801    197.6791    176.1443   2.9056538641e+02   4.5913695660e+00   0.02109909    0.0142297 -87.19    0.0015222    1.826    0.452
        27 -10.3164    157.6257    178.3332   2.9103424898e+02   4.7977298068e+00   0.01033057  0.007461915  64.42 0.0006465132    1.634    0.388
        28 -10.3738    145.2955    178.5379   2.9117585258e+02   4.8666169763e+00  0.008968678  0.006478297   7.77 0.0009446202    1.601    0.375
        29 -12.8238    203.8676    199.1099   2.9063171926e+02   4.2901425665e+00   0.02565065   0.01656709 -26.00  0.002512198    1.958    0.489
        30 -10.8998    121.1711    217.7488   2.9168348663e+02   4.5524585643e+00     0.022082   0.01236534  70.58  0.001797334    2.949    0.661
        31 -12.8861    138.0723    171.3559   2.9121539259e+02   4.9913891148e+00   0.04358593    0.0184116  35.66  0.003736754    2.284    0.562
        32 -11.6253    145.7392    169.1689   2.9111506960e+02   4.9723801162e+00   0.02331544   0.01103115 -71.36  0.001949091    2.472    0.595
        33 -11.3365    141.8682    167.3314   2.9114822173e+02   5.0159925503e+00   0.02049679   0.01090201  32.41  0.001946465    1.854    0.461
        34 -11.7435    126.2574    172.3221   2.9135570835e+02   5.0484520285e+00   0.01460657    0.0122702 -69.81  0.001531239    1.194    0.163
        35  -9.3296     24.3670    172.2779   2.9251670996e+02   5.6359966604e+00  0.006883366   0.00490845 -23.36 0.0001767244    1.680    0.405
        36 -11.1524    226.7104    168.4838   2.9018955012e+02   4.5117932978e+00   0.02721198   0.01367555  84.54  0.001717809    4.976    0.799
        37  -9.8555    207.7152    168.3277   2.9040465406e+02   4.6236050795e+00  0.006856828  0.006396147 -36.36 0.0002263018    1.082    0.076
        38 -10.2162     12.3936    168.3173   2.9262977052e+02   5.7506149012e+00   0.01152483  0.005912467   5.15 0.0008792266    3.211    0.689
        39 -11.1404    229.8619    165.8587   2.9013806899e+02   4.5238645922e+00  0.009408766  0.007793211  66.23 0.0006758177    1.327    0.247
        40  -9.9508    135.9666    219.2244   2.9152383265e+02   4.4500122140e+00  0.008698979  0.008593609 -17.57  0.001103949    1.028    0.027
        41 -10.2634     25.4997    165.4746   2.9246346544e+02   5.7081958347e+00   0.01319034  0.006577232  25.17  0.001184784    2.091    0.522
        42  -9.8928    130.3826    161.6972   2.9124552941e+02   5.1474877867e+00   0.01029505   0.00730656  66.88 0.0006177753    1.706    0.414
        43 -10.3098    170.0972    205.0963   2.9105148261e+02   4.4162318879e+00  0.009746213  0.009256688 -78.96 0.0004334877    1.058    0.055
        44 -11.2846     23.4207    156.5712   2.9243438027e+02   5.8231469656e+00   0.02448025   0.01498187  48.97  0.001167866    1.794    0.443
        45 -11.8047     27.6725    156.6804   2.9238653490e+02   5.7974421080e+00   0.01327468   0.01235311  60.23  0.001386271    1.111    0.100
        46 -12.5891     13.0750    248.2037   2.9309460605e+02   4.8223381865e+00   0.02155552   0.01404294 -77.30  0.002121099    1.732    0.423
        47 -10.9881    201.0235    164.9113   2.9046042676e+02   4.7018264174e+00    0.0256206   0.01408348  69.64  0.002040274    3.092    0.677
        48  -9.6950     16.8029    151.4279   2.9247936294e+02   5.9206755224e+00  0.009564185  0.006415958   7.22 0.0009577208    1.800    0.444
        49 -12.8956    133.8301    145.3898   2.9110921435e+02   5.3161172716e+00   0.05145007   0.01761551 -71.12  0.003270444    4.326    0.769
        50 -10.9193    174.4762    148.4946   2.9066476247e+02   5.0452031050e+00   0.01592714   0.01248231 -81.45  0.001110817    1.383    0.277
        51 -12.1712    144.4585    146.1463   2.9099263243e+02   5.2459490679e+00   0.02158765   0.01433718  81.00  0.002109637    2.007    0.502
        52 -10.8735    165.7107    207.3539   2.9111481547e+02   4.4154824939e+00   0.01441033   0.01338474 -55.96  0.001222461    1.053    0.050
        53 -10.3617    128.0748    143.4604   2.9116330670e+02   5.3716746912e+00  0.009834381  0.006433226  28.37 0.0004586669    1.548    0.354
        54 -12.4869    115.2572    139.1972   2.9128400766e+02   5.4949907597e+00    0.0264298   0.01482907 -46.70  0.002545032    1.797    0.443
        55 -12.8691    105.2282    139.5979   2.9140070809e+02   5.5482530074e+00   0.02219858    0.0132375  37.07 0.0007922563    1.672    0.402
        56 -10.3906    144.3080    139.3355   2.9095379117e+02   5.3255512214e+00   0.00699771  0.004822498 -30.83 0.0007042093    1.675    0.403
        57 -12.1661    106.0064    130.7789   2.9133936067e+02   5.6457283810e+00   0.01882142    0.0153919 -81.58  0.001305292    1.303    0.232
        58 -11.6555    108.4828    125.9886   2.9128261635e+02   5.6868156412e+00   0.01566447   0.01212213 -30.42  0.000699263    1.417    0.294
        59 -12.1558    119.4747    129.9888   2.9118112565e+02   5.5770971680e+00   0.01809789   0.01706442 -83.99  0.001294488    1.076    0.071
        60 -12.3942      3.5644    130.1337   2.9250410326e+02   6.2430309530e+00   0.02176735   0.01233483 -82.13  0.001928624    2.354    0.575
        61 -11.4414    160.3949    128.3406   2.9070502975e+02   5.3596036641e+00   0.02045655   0.01493138 -54.31  0.002262654    1.326    0.246
        62 -11.5112    136.0000    129.0000   2.9098689742e+02   5.4930477012e+00   0.01613821  0.009129734 -67.29  0.001540831    1.822    0.451
        63 -12.5910    135.7485    122.6247   2.9095178713e+02   5.5681925588e+00   0.02910202   0.01610372 -79.13  0.002576649    2.327    0.570
        64 -12.9265    125.6364    126.8419   2.9109215612e+02   5.5778821041e+00   0.03365668   0.01935906  66.69  0.002906974    2.601    0.615
        65 -11.2260     99.5400    126.8143   2.9138949309e+02   5.7288881607e+00   0.01218719  0.009293201  27.30 0.0007109584    1.336    0.251
        66 -12.4429     16.6765    249.6689   2.9306225416e+02   4.7847039793e+00   0.01290813   0.01051533 -30.43  0.001486261    1.318    0.242
        67 -11.1610    113.5180    118.9287   2.9118317632e+02   5.7393564598e+00   0.01393175   0.01019856  40.52  0.000335573    1.387    0.279
        68 -12.0951     24.6554    118.1196   2.9219208158e+02   6.2607967717e+00   0.02175617   0.01419788  73.54  0.001200991    2.065    0.516
        69 -11.6469    169.7244    115.4975   2.9052219536e+02   5.4540268039e+00   0.02643338   0.01493657  69.60  0.002191507    2.846    0.649
        70 -11.8046      6.3763    111.7891   2.9236313373e+02   6.4390398861e+00   0.03294486   0.01312196  18.91   0.00244688    3.265    0.694
        71 -10.1397    143.8289    128.2381   2.9089314879e+02   5.4565972387e+00  0.009479994  0.008526986  63.40 0.0003702532    1.169    0.144
        72 -12.1897     95.7272    110.2291   2.9133425035e+02   5.9426281525e+00   0.01828267   0.01405676 -13.46  0.001308686    1.530    0.346
        73 -11.2774    134.5281    104.5107   2.9085775215e+02   5.7845980147e+00   0.02402551   0.00667684 -64.19  0.001587238    3.752    0.733
        74 -10.7615    205.4702    110.1584   2.9008331670e+02   5.3086528636e+00   0.01388521  0.009897228  11.54 0.0009238567    1.590    0.371
        75 -11.1672    164.6871    204.3422   2.9110855900e+02   4.4562161326e+00   0.01800807   0.01119116  79.89  0.001272038    2.332    0.571
        76 -11.4596     96.6512     80.2258   2.9114497459e+02   6.2840550814e+00   0.02469323  0.008636274  35.29  0.001602011    2.687    0.628
        77 -10.9817    200.4417    248.7281   2.9096572355e+02   3.7365034857e+00    0.0125816  0.006530982 -67.77  0.001134658    2.026    0.506
        78 -11.7786     31.3231    207.3205   2.9264500197e+02   5.1905638434e+00   0.02661406   0.01380741   0.14  0.001983279    3.568    0.720
        79 -10.3489     24.4225    206.9008   2.9272114601e+02   5.2350787852e+00   0.01031652  0.006388742 -67.05  0.001026529    1.639    0.390
        80 -11.1138     14.1880     58.9385   2.9195976150e+02   7.0050746675e+00   0.01641105   0.01163432 -30.74   0.00173803    1.603    0.376
        81 -10.8360    134.8865     30.1764   2.9041001669e+02   6.6410500205e+00     0.010294  0.008572196  57.56  0.000806437    1.284    0.221
        82  99.0000      2.5845    244.5365   2.9319239769e+02   4.9249897096e+00  0.006695869  0.006027665 -36.18 0.0003771038    1.132    0.116
