#   1 NUMBER                 Running object number                                     
#   2 MAG_AUTO               Kron-like elliptical aperture magnitude                    [mag]
#   3 X_IMAGE                Object position along x                                    [pixel]
#   4 Y_IMAGE                Object position along y                                    [pixel]
#   5 X_WORLD                Barycenter position along world x axis                     [deg]
#   6 Y_WORLD                Barycenter position along world y axis                     [deg]
#   7 A_WORLD                Profile RMS along major axis (world units)                 [deg]
#   8 B_WORLD                Profile RMS along minor axis (world units)                 [deg]
#   9 THETA_WORLD            Position angle (CCW/world-x)                               [deg]
#  10 FWHM_WORLD             FWHM assuming a gaussian core                              [deg]
#  11 ELONGATION             A_IMAGE/B_IMAGE                                           
#  12 ELLIPTICITY            1 - B_IMAGE/A_IMAGE                                       
         1 -12.6893     41.8178     42.5205   1.0753927484e+02   6.2673496404e+01    0.5225318    0.3051837   4.79  0.002062032    2.036    0.509
         2 -14.4261      5.7555     22.5292   1.1554423433e+02   6.9130781466e+01     1.256135    0.5953228 -37.97  0.007156772    1.613    0.380
         3 -14.1540     14.0926     16.7653   1.0946936198e+02   6.9309817794e+01    0.7929792    0.5349988  20.25  0.005148774    1.533    0.348
         4 -13.2287     30.7991      6.2441   9.7513171061e+01   6.8894026099e+01     1.291729    0.6004831  -0.72  0.005750263    3.706    0.730
         5 -11.9043     63.8483     17.4005   8.9749073358e+01   6.3020609359e+01    0.4546936    0.2279465  43.37  0.002374231    1.880    0.468
         6 -13.2959    104.4504      3.8092   7.3270769536e+01   5.6713654514e+01    0.9527352    0.5256377  65.97  0.005054056    1.881    0.468
         7 -12.8543     73.3768      2.5296   8.0702730018e+01   6.2838581095e+01    0.4377378    0.2978918 -12.97  0.002860714    1.510    0.338
         8 -12.3943     75.4624     13.5186   8.4471713722e+01   6.1464088302e+01    0.3732416     0.300205  36.43  0.001238682    1.162    0.139
         9 -13.8374     86.5031      3.7521   7.7561120805e+01   6.0308500531e+01     1.234883    0.5647702  46.38  0.006534513    1.764    0.433
        10 -12.6580     95.8980      3.3119   7.5055581781e+01   5.8500200152e+01    0.5830019      0.42633  16.68  0.002922325    1.365    0.267
        11 -12.5339     82.1252     14.0712   8.2719111186e+01   6.0204330538e+01    0.3686254    0.2681715  36.69   0.00100465    1.169    0.145
        12 -12.9832     87.0778     11.3768   8.0306250448e+01   5.9532553882e+01    0.6292456     0.358954  63.99  0.002325999    2.233    0.552
        13 -12.0537    115.5137      9.8144   7.2946977747e+01   5.3864974742e+01    0.3588958    0.2978106   8.40  0.002341884    1.299    0.230
        14 -12.4614    123.0664     10.3744   7.1596757762e+01   5.2163789711e+01    0.4566582    0.2575774  55.28   0.00151094    1.475    0.322
        15 -10.9711    129.3992      5.1759   6.8755574135e+01   5.1199487702e+01    0.2997123    0.0851269  51.43  0.001199759    2.692    0.629
        16 -10.0669    138.6554      5.6973   6.7318676116e+01   4.9059379713e+01    0.1340425   0.07952698  40.94  0.000549191    1.684    0.406
        17 -10.7198     22.3366      2.3767   9.9439029936e+01   7.0292999076e+01    0.2005929    0.1144071 -29.35  0.001353393    1.622    0.383
        18 -13.8925    195.9715    149.8849   9.4840374852e+01   1.1800386469e+01     1.332898     1.101002 -66.28  0.006695348    1.357    0.263
        19 -15.0139    202.2734    127.9743   8.8510214932e+01   1.4904258922e+01      2.35132     1.923516  10.40   0.01154642    1.569    0.363
        20 -11.9943    221.1574    156.4808   9.1376609857e+01   5.3159158967e+00    0.5025389     0.375704  23.51  0.002519097    1.577    0.366
        21 -12.7352     58.7346    145.2191   1.2767170379e+02   3.8865065835e+01    0.6230281    0.4697114  78.05  0.002714815    1.454    0.312
        22 -14.1059     51.1442    143.3539   1.2937629587e+02   4.0254198359e+01     1.011966    0.6249054  49.99  0.001945705    1.811    0.448
        23 -13.0119    171.3496    157.9871   1.0193832296e+02   1.5330926584e+01    0.6400822    0.3426714  47.04  0.002560893    1.896    0.473
        24 -13.8236    214.4500    140.1072   8.8995435599e+01   9.8675492782e+00     1.413617    0.9161044  24.89  0.006046879    2.193    0.544
        25 -15.7507    149.2177    123.5720   9.8966774792e+01   2.7790449992e+01     3.596427     2.535705  37.65   0.01606333    1.529    0.346
        26 -12.0682     27.9267    125.8716   1.3284861831e+02   4.6842995426e+01    0.2790647    0.2010058  51.98  0.001579374    1.629    0.386
        27 -12.1274    132.2014    103.4550   9.7963285535e+01   3.5889749089e+01    0.3036875    0.2831178  21.88 0.0007111252    1.134    0.118
        28 -11.4585    121.9746    127.4207   1.0681180423e+02   3.2701782176e+01    0.3514633    0.2960254  43.81  0.001599666    1.225    0.184
        29 -13.1724     34.7334    135.7648   1.3254876320e+02   4.3864336383e+01    0.4216032    0.2275108  31.83  0.002164531    2.155    0.536
        30 -12.9673    142.7691     98.9962   9.4094514662e+01   3.4476197579e+01    0.5263917    0.3307764 -56.29  0.002212316    1.807    0.447
        31 -11.5123     43.8945     98.5970   1.2283036571e+02   5.1560528277e+01    0.2943665    0.2072799   1.72  0.001631777    1.777    0.437
        32 -12.2222    189.0920     94.7348   8.2902745379e+01   2.4447439424e+01    0.3976536    0.3042204  76.26  0.001157531    1.438    0.305
        33 -10.9882     54.9762     94.8654   1.1838587813e+02   5.1119745859e+01    0.2769511    0.2212927 -19.20  0.001168247    1.323    0.244
        34 -12.2833     40.5216     82.7349   1.2014786498e+02   5.5332626847e+01    0.5148982    0.2143384 -38.62  0.002246994    2.374    0.579
        35 -11.6423      5.4999     84.0218   1.3230355454e+02   5.7828524664e+01    0.1895058   0.09183947 -61.80  0.001040689    1.613    0.380
        36 -13.3211     29.9918     81.9237   1.2355533936e+02   5.6505183583e+01    0.3679738    0.2874057  42.95  0.002342083    1.633    0.388
        37 -11.8474      1.7900     76.2884   1.3203047455e+02   5.9638979947e+01    0.3368387   0.09616565 -55.46  0.001580555    2.272    0.560
        38 -11.1339     66.6673     76.6439   1.0960527569e+02   5.3375111495e+01    0.2424266    0.1413634 -36.87  0.001191819    1.610    0.379
        39 -10.0175    250.3641     74.2452   6.8678112972e+01   1.4207545691e+01    0.1853614    0.1051004 -49.37 0.0005400433    1.525    0.344
        40 -10.4720    144.6614     73.8940   8.6554232433e+01   3.8812039628e+01    0.2001702    0.1863308 -46.02 0.0004216611    1.101    0.092
        41 -11.5733    120.3692     73.4428   9.2436170171e+01   4.4319921074e+01    0.2781648    0.2313347  18.36 0.0007580171    1.302    0.232
        42 -12.5116     96.7740     71.8196   9.8581993744e+01   4.9334648912e+01    0.5813263     0.308783  33.15    0.0015407    2.074    0.518
        43 -14.0361     38.2855     70.1919   1.1759700478e+02   5.8102322030e+01     1.022408    0.4864044  25.01  0.005121757    2.366    0.577
        44 -13.1714     59.4736     70.8252   1.1031067376e+02   5.5496117679e+01    0.5181968    0.3987378  66.97  0.002814942    2.108    0.526
        45 -11.4515     76.6377     70.8546   1.0456702649e+02   5.2987364481e+01    0.2893908    0.1943928 -20.44  0.001167065    1.648    0.393
        46 -10.4701    133.3080     71.3198   8.8496802285e+01   4.1858138868e+01    0.1493223    0.1141928  13.67  0.000703293    1.639    0.390
        47 -11.6345     83.3946     67.5314   1.0135022889e+02   5.2490346953e+01    0.3978967    0.2399821 -33.08  0.001950743    1.635    0.389
        48 -12.6908     48.5733     67.7299   1.1320299929e+02   5.7453414447e+01    0.4068167     0.274443  29.00  0.002277481    1.616    0.381
        49 -10.4571    214.4810     62.0018   7.0631104999e+01   2.4080521856e+01    0.2132783    0.1323974 -38.77  0.001037087    1.611    0.379
        50 -12.5678     55.4241     67.0384   1.1057112094e+02   5.6743803870e+01    0.3132134    0.2474765  39.03 0.0009062183    1.497    0.332
        51 -12.3178    125.5418     57.4262   8.6162553756e+01   4.5878431754e+01    0.2942389     0.241199  44.02 0.0001380415    1.157    0.136
        52 -10.0433    174.9352     56.4589   7.5482598519e+01   3.4404554944e+01    0.2166613    0.1344817  63.31 0.0007775072    1.543    0.352
        53 -10.1297    137.1965     55.6351   8.2842854861e+01   4.3525084930e+01    0.2062345    0.1741623  50.75 0.0003644265    1.117    0.105
        54 -10.8692    133.2368     53.6758   8.3153145511e+01   4.4725318096e+01    0.2585315    0.2072447  48.80 0.0008064365    1.172    0.146
        55 -11.6443    210.9209     54.2042   6.9284134367e+01   2.6102723131e+01    0.2120903    0.2008065 -60.96 0.0003219569    1.168    0.144
        56 -12.3426     67.4978     53.6963   1.0204660612e+02   5.7426502316e+01    0.4019626    0.3405248  69.96   0.00238357    1.849    0.459
        57 -11.7920    145.5970     50.8936   7.9575650991e+01   4.2273178359e+01    0.3404613    0.2679682  62.05 0.0009857599    1.220    0.181
        58 -12.1196     79.8587     48.1876   9.6031068868e+01   5.6317837768e+01    0.3594018    0.2287204 -26.94 0.0006408336    1.559    0.358
        59 -10.8422     92.9488     52.9591   9.3604065570e+01   5.3243903381e+01    0.2012576    0.1789348  14.45 0.0004438417    1.032    0.031
        60 -12.7565     42.4033     47.7082   1.0911274948e+02   6.1757101793e+01     0.351311    0.2540403  13.53 0.0008501824    1.373    0.272
        61 -12.2342    193.9327    248.8526   1.1429566127e+02  -6.1246804028e+00     0.272635    0.1906342  41.09  0.001616721    1.306    0.234
        62 -12.1932    187.7445    232.7477   1.1289730679e+02  -2.5257420984e+00     0.250907    0.1525141  35.63  0.001297208    1.482    0.325
        63 -11.0038    205.3403    229.3274   1.0885214487e+02  -4.9357610162e+00    0.1370976   0.09413634   4.77            0    1.735    0.424
        64  -9.9405    197.0624     41.0000   6.8013604242e+01   3.1269809001e+01    0.2161214   0.07170632  64.50 0.0007828301    2.808    0.644
        65 -12.6745     70.1026     35.2993   9.4590394589e+01   5.9802758959e+01    0.4238253    0.3078663  14.67  0.001605629    1.305    0.233
        66 -10.4956     32.8128     37.6159   1.0935971729e+02   6.4445662540e+01    0.1489592    0.1019636  31.51 0.0009509346    1.678    0.404
        67 -11.7001     82.5227     33.9401   9.0083449448e+01   5.7866564993e+01     0.348575    0.2530405  11.96  0.001013461    1.379    0.275
        68 -12.0903     79.6467     30.3101   8.9632429335e+01   5.8839651506e+01    0.3157356    0.2754643   1.34  0.001378405    1.082    0.076
        69 -10.8116    176.4456     33.4465   6.9088996016e+01   3.7212697783e+01    0.2246633    0.1948451  75.08 7.861725e-05    1.028    0.028
        70 -10.0500     30.6147     34.1986   1.0901735772e+02   6.5204886502e+01    0.1624389   0.08635332 -31.67 0.0003986616    1.609    0.379
        71  -9.9996    147.9971     33.7656   7.4011416990e+01   4.3988557346e+01    0.1766603     0.103858  60.17 0.0002867973    1.532    0.347
        72 -11.0183    141.0369     31.5106   7.4677033771e+01   4.5890551656e+01     0.191275    0.1784526 -53.65   0.00118717    1.184    0.155
        73 -12.4255      2.6995     46.3598   1.2456679370e+02   6.5370109254e+01    0.8251837     0.260134 -53.48  0.004105451    2.367    0.577
        74 -11.1571    192.4867    217.4982   1.0931242609e+02  -7.2626654824e-01    0.1361762    0.1232832  19.19 0.0001595292    1.006    0.006
        75 -11.7104    156.9350     43.9297   7.5284545073e+01   4.0553981707e+01    0.2364661    0.2135801  50.79 0.0004730341    1.090    0.083
        76 -12.5666     83.5382     22.7609   8.5616643361e+01   5.9031362067e+01    0.3636888    0.3001934  37.39 0.0008277618    1.153    0.133
        77 -10.1712    102.5515     43.4791   8.7612931429e+01   5.2783809627e+01    0.1336301    0.1202217  19.92 0.0001251128    1.005    0.005
        78 -11.4603    200.8318    210.6952   1.0639416229e+02  -1.0038261971e+00    0.3438004    0.2585216 -87.45  0.001650692    2.389    0.581
        79 -11.0147     53.4794    201.5107   1.3669537391e+02   2.6123020092e+01        0.131    0.1064731  84.16  0.000810237    1.004    0.004
        80 -11.1277     41.4771    199.9957   1.3904658536e+02   2.7962026292e+01    0.1970411    0.1063097 -73.53 0.0008173594    1.609    0.378
        81 -11.7232    210.3357    198.3098   1.0214409846e+02  -4.8985465434e-01    0.2795148     0.228206  23.56  0.001570823    1.195    0.163
        82 -12.0610     71.0284    198.2900   1.3253231648e+02   2.4457652476e+01     0.196695    0.1657288  67.94  0.001187346    1.094    0.086
        83 -11.8556    187.0588    195.0354   1.0623575373e+02   4.4515837340e+00    0.3661763    0.3264836  81.52  0.001790835    1.365    0.268
        84 -11.8366     33.9839    177.4561   1.3825475493e+02   3.4017225782e+01    0.2659704    0.2238669  -9.62  0.001669011    1.807    0.447
        85 -12.2573    202.3088    170.6452   9.8107102176e+01   6.2858070697e+00    0.5613371    0.3569779  61.87  0.002414217    2.147    0.534
        86  -9.3622    207.6270     12.3073   5.9993493959e+01   3.2291995370e+01    0.1378489   0.07964507 -72.34 0.0007032106    1.768    0.434
        87 -10.1547    241.0000    170.9823   9.0854499675e+01  -1.0686902566e+00    0.2340494   0.07150856 -40.17 0.0008074535    2.977    0.664
        88 -11.6784      3.4804    171.0285   1.4428387780e+02   3.8364538302e+01    0.2821603    0.1740545  19.35   0.00170375    2.354    0.575
        89 -12.9783    211.9391    165.6221   9.5117182836e+01   5.3647375256e+00    0.6993737    0.4751579   5.52  0.003032609    2.215    0.549
        90 -12.9459    191.0953    158.8645   9.7860202693e+01   1.0970534294e+01    0.7571161    0.5344801  85.54  0.003150635    2.309    0.567
