#   1 NUMBER                 Running object number                                     
#   2 MAG_AUTO               Kron-like elliptical aperture magnitude                    [mag]
#   3 X_IMAGE                Object position along x                                    [pixel]
#   4 Y_IMAGE                Object position along y                                    [pixel]
#   5 X_WORLD                Barycenter position along world x axis                     [deg]
#   6 Y_WORLD                Barycenter position along world y axis                     [deg]
#   7 A_WORLD                Profile RMS along major axis (world units)                 [deg]
#   8 B_WORLD                Profile RMS along minor axis (world units)                 [deg]
#   9 THETA_WORLD            Position angle (CCW/world-x)                               [deg]
#  10 FWHM_WORLD             FWHM assuming a gaussian core                              [deg]
#  11 ELONGATION             A_IMAGE/B_IMAGE                                           
#  12 ELLIPTICITY            1 - B_IMAGE/A_IMAGE                                       
         1 -14.8377      6.5686    134.1690   1.1374990103e+02   4.6642987571e+01     3.461438     1.324829 -81.64   0.01139692    2.721    0.633
         2 -12.9920      5.3978     53.1682   9.9666027185e+01   6.5261411856e+01     1.168086    0.4424155 -53.69  0.005061402    2.074    0.518
         3 -13.5904     13.5896     41.5803   9.2164811276e+01   6.6889146992e+01     1.152328    0.8915052  26.70  0.005188416    1.504    0.335
         4 -12.9723    234.3363     31.5366   3.4178096202e+01   2.4067961316e+01    0.9551901    0.6176687  85.01  0.005913286    1.453    0.312
         5 -13.3805    218.3509     38.4687   3.7107693946e+01   2.6503350557e+01     1.574527    0.9257517 -80.08  0.008398159    1.784    0.439
         6 -11.9050     28.5215     30.4896   8.0644057849e+01   6.7281374427e+01     0.621602     0.485662 -31.74   0.00342919    1.268    0.212
         7 -13.0098     50.2247     28.5938   7.0123130326e+01   6.4562582755e+01    0.9966347    0.9791571 -15.86   0.00701537    1.408    0.290
         8 -12.1543     61.5568     25.3817   6.4359553897e+01   6.3090278762e+01    0.8670962    0.5076943  29.00   0.00463933    1.644    0.392
         9 -12.0772    125.1111     17.8146   4.4514339974e+01   5.0483419205e+01    0.6477907    0.3966829  13.42  0.003122191    2.491    0.599
        10 -12.3763     81.3316     35.2463   6.1507624005e+01   5.8106169175e+01    0.9498847    0.6792561 -41.57  0.005317173    1.621    0.383
        11 -12.6641    148.4307     10.9495   3.8685254489e+01   4.5650950810e+01    0.8169328    0.5323891 -33.37  0.003897106    1.727    0.421
        12 -12.8421    127.0960      6.3120   4.0543684292e+01   5.1080583115e+01    0.8205787    0.5151445  71.23  0.004603601    1.400    0.286
        13 -10.4399     99.1354      6.1023   4.5780310166e+01   5.7467440281e+01    0.2076426    0.1470771  40.25  0.001251239    1.283    0.221
        14 -10.5543    174.0221      4.5561   3.3909165071e+01   4.0261601487e+01    0.2417594    0.1483968 -54.89  0.001387328    1.624    0.384
        15  -9.7753      1.7273      1.9790   8.2302672051e+01   7.4157291340e+01    0.1545195    0.1114624 -15.57  0.001053608    1.092    0.085
        16 -10.5873     62.6835    223.1980   1.0904403422e+02   1.9333512375e+01    0.3216944     0.204681  71.36  0.001234723    1.632    0.387
        17 -12.9386     56.8630    214.7172   1.0949298735e+02   2.1972305656e+01     1.156441    0.6409357  83.48  0.005451086    2.152    0.535
        18 -11.2906     40.2985    213.1452   1.1309444051e+02   2.4369778210e+01    0.6174417    0.2897888  64.58  0.002779898    2.358    0.576
        19 -14.3889     12.5548    203.4185   1.1848530226e+02   2.9516490858e+01     2.118998     1.218381 -83.19   0.01203491    1.521    0.343
        20 -12.6335     27.4487    191.2446   1.1407988927e+02   3.0871491517e+01     1.187762    0.5642744 -81.88  0.005556326    2.046    0.511
        21 -13.4978      9.7360    122.0713   1.1126593931e+02   4.9392620983e+01     1.445556    0.8833855 -73.18  0.007360423    1.416    0.294
        22 -11.7616    132.4997    247.6445   9.6660493701e+01   4.2507649740e+00    0.2719254    0.2399943  61.96  0.001137133    1.263    0.208
        23 -13.6694     15.9142    130.5537   1.1047430391e+02   4.6853916357e+01      1.37682    0.6660227 -63.40  0.006654139    1.692    0.409
        24 -11.2728     41.7164    180.0269   1.0938499419e+02   3.2018329098e+01    0.2713034    0.2382896 -46.37 0.0005007424    1.314    0.239
        25 -11.4215     49.7060    173.4489   1.0649290826e+02   3.2692476275e+01     0.251908    0.2442255 -55.80 0.0004322165    1.171    0.146
        26  -9.8324     71.5008    209.2105   1.0547970639e+02   2.1245348045e+01    0.2560855     0.179654  39.51  0.001247768    1.345    0.257
        27 -10.4130     62.8184    163.3409   1.0148522375e+02   3.3527723808e+01    0.2439544    0.2179565 -58.97    0.0003396    1.121    0.108
        28 -13.2240     47.1699    157.1000   1.0494747922e+02   3.7099178702e+01     1.336236    0.6106173 -73.75  0.005395614    2.297    0.565
        29 -11.7316     73.1888    156.9137   9.7512490663e+01   3.3673642852e+01    0.6921968    0.4704136  32.80   0.00333687    1.538    0.350
        30  -8.8692    132.4290    158.5920   8.1748892594e+01   2.2951940419e+01    0.1516547    0.1458914  70.48 0.0002976184    1.073    0.068
        31 -12.1266     46.6751    198.3744   1.1017865607e+02   2.7015854378e+01    0.7323262    0.4872139  42.92  0.002966818    1.428    0.300
        32 -11.7661     68.9899    143.7548   9.6371849222e+01   3.7607057109e+01    0.6041731    0.3965537  87.18  0.001872615    2.048    0.512
        33 -11.0624     65.4956    141.4979   9.7000022339e+01   3.8675721882e+01    0.4762706    0.3178357 -76.18   0.00153849    1.644    0.392
        34 -11.6772     94.9867    136.0121   8.7082400463e+01   3.5355779131e+01    0.4859256    0.4683034   3.56  0.002644595    1.094    0.086
        35 -10.5050     88.5044    143.5369   9.0570384774e+01   3.4613532604e+01     0.288863    0.2659327 -23.49 0.0009011985    1.178    0.151
        36 -11.6950     92.8874    140.7429   8.8714512289e+01   3.4560439363e+01    0.6313025    0.4035033  35.77  0.001779148    1.605    0.377
        37 -12.6962    241.2601    137.4106   5.5104028291e+01   6.3989467693e+00    0.8002363    0.4631813 -25.48  0.003879579    1.978    0.495
        38 -11.4251     76.0248    141.5684   9.3853909807e+01   3.7107310290e+01    0.3269235    0.2784433 -54.31 0.0003353023    1.131    0.116
        39 -12.0474     32.0333    138.8721   1.0672072891e+02   4.3352813822e+01    0.5163271    0.4279497 -31.67  0.002080419    1.354    0.262
        40 -10.4106    105.2802    131.1690   8.3005856480e+01   3.4652062190e+01     0.396476    0.3276333  18.81  0.001945146    1.359    0.264
        41 -11.0032     65.8488    125.8213   9.3792987170e+01   4.2551126705e+01    0.4778145    0.3265469 -60.17  0.002310099    1.399    0.285
        42 -12.1895     89.7041    127.8511   8.6825123594e+01   3.8267825688e+01    0.6488561    0.3668599 -53.15 0.0004484861    1.716    0.417
        43 -12.8200     35.6917    116.2841   1.0180518534e+02   4.8617988026e+01     1.046482    0.5963375 -48.14  0.005084553    1.599    0.375
        44  -9.1720    102.5786    119.7450   8.1055354525e+01   3.7864997325e+01    0.1976987    0.1479744 -61.30 0.0002650346    1.428    0.300
        45 -11.2587     25.5247    111.6870   1.0442666558e+02   5.0704589863e+01    0.4187081    0.2457132 -54.85  0.002146347    1.447    0.309
        46 -10.4363     24.0393    105.1922   1.0376440825e+02   5.2401367831e+01    0.4552768    0.2588885 -76.74  0.001910212    1.924    0.480
        47 -10.4536     53.0110    109.0108   9.4396856236e+01   4.8401914658e+01     0.410498    0.3028967  66.32   0.00204983    1.766    0.434
        48 -10.4823     52.8900    105.1201   9.3552903284e+01   4.9346720325e+01    0.3209096    0.2748327 -80.75  0.001249548    1.314    0.239
        49 -10.4975     73.4771    107.3562   8.7072733259e+01   4.5864813554e+01    0.3479364    0.2240217 -25.42  0.001501537    1.984    0.496
        50 -10.0345     28.9894    105.4736   1.0206534457e+02   5.1895150034e+01    0.1873303    0.1335652  19.19 0.0009433397    1.577    0.366
        51 -11.5500     37.2296    103.1276   9.8653096599e+01   5.1645407099e+01    0.3570188    0.3292409 -80.62   0.00219061    1.175    0.149
        52 -13.0985    242.0778     95.2929   4.6367275128e+01   1.3307905487e+01     1.010223    0.5030866 -55.06   0.00475853    2.050    0.512
        53 -10.6380     52.4501     91.3086   9.0325409609e+01   5.2604465518e+01    0.3618128     0.280214 -62.82  0.001955601    1.373    0.272
        54 -12.6113     33.8357     76.7995   9.3671464727e+01   5.7994402777e+01     1.402303    0.8688574 -57.19  0.006901094    1.561    0.359
        55 -10.4208     10.8050     78.4885   1.0343653939e+02   5.9573231208e+01    0.3429449    0.2314892 -36.85  0.001690694    1.311    0.237
        56 -11.4060     53.6598     75.8771   8.5587166929e+01   5.5791659126e+01     0.360651    0.2982926  89.11  0.001971529    1.751    0.429
        57 -10.3420     10.1595     72.6450   1.0240947196e+02   6.0898094424e+01    0.2901631    0.2018269 -12.27  0.001753555    1.498    0.332
        58 -10.3180     49.5054     68.6752   8.5025079349e+01   5.7826855017e+01    0.2840498    0.2101715 -23.76  0.001576846    1.317    0.241
        59  -8.6316     14.7979    247.9817   1.2078399612e+02   1.9810836923e+01    0.1330259   0.07720868 -83.94 0.0003613974    1.596    0.373
        60 -12.2135     14.6406     50.4328   9.4507694663e+01   6.5143395606e+01    0.5518665    0.4690703 -51.93  0.002546479    1.296    0.229
        61  -9.9495    249.6782    247.6574   7.3957578803e+01  -1.1806970115e+01    0.1201137   0.06867121  -5.00 0.0007050315    1.726    0.421
        62 -11.3054     57.0176     50.0577   7.5760913951e+01   6.0194279217e+01    0.7749602    0.4333082  42.49  0.003837248    1.901    0.474
        63 -11.6610     44.9997     45.4870   7.9007391673e+01   6.2734632595e+01    0.9574862    0.3400149  29.76  0.003825709    3.028    0.670
        64  -9.8203     59.5467    246.0214   1.1184286611e+02   1.4986934610e+01    0.2128901     0.115473 -80.75  0.000759564    2.049    0.512
        65 -12.3389    213.5457     47.4199   3.9573433053e+01   2.6339668114e+01    0.6052368    0.4095282  82.77  0.003157581    1.445    0.308
        66 -10.6445     57.7556    240.4007   1.1172808244e+02   1.6350090883e+01    0.3316268    0.3056802 -51.92  0.001605436    1.399    0.285
        67 -14.8021    111.3123    230.1124   9.8953547464e+01   1.0814867978e+01     3.591411     1.007917  38.49   0.01289525    2.969    0.663
        68 -11.2880     85.8438    223.8571   1.0390106758e+02   1.5955146192e+01    0.4349982    0.3630244 -81.72  0.001395339    1.252    0.201
        69 -13.0893     74.6131    232.9635   1.0741526597e+02   1.5633078200e+01    0.9579079    0.5935143  69.99   0.00487986    1.777    0.437
        70 -13.6054     85.2677    231.5724   1.0492326192e+02   1.4415812938e+01     1.275351     0.662015  53.29  0.006097555    1.895    0.472
        71 -10.2553     67.9335    240.3385   1.0958348240e+02   1.5027182477e+01    0.2875193    0.2000819  49.53 0.0009473823    1.210    0.174
        72 -10.5971     39.0599    237.7550   1.1537716580e+02   1.9195528358e+01    0.4576351    0.1911817  43.38  0.002304324    1.950    0.487
        73 -11.3186     46.0201    234.6327   1.1369320197e+02   1.9011774010e+01    0.4190756    0.2752988  70.20  0.001418599    1.398    0.285
        74 -10.5403     29.6072    229.8470   1.1673843809e+02   2.1933912068e+01    0.5100249     0.212806  57.02  0.002449647    2.216    0.549
        75 -10.4865     63.0104    230.3754   1.0968453958e+02   1.7749054171e+01    0.3877898    0.2033223  46.02   0.00173404    1.638    0.390
