#   1 NUMBER                 Running object number                                     
#   2 MAG_AUTO               Kron-like elliptical aperture magnitude                    [mag]
#   3 X_IMAGE                Object position along x                                    [pixel]
#   4 Y_IMAGE                Object position along y                                    [pixel]
#   5 X_WORLD                Barycenter position along world x axis                     [deg]
#   6 Y_WORLD                Barycenter position along world y axis                     [deg]
#   7 A_WORLD                Profile RMS along major axis (world units)                 [deg]
#   8 B_WORLD                Profile RMS along minor axis (world units)                 [deg]
#   9 THETA_WORLD            Position angle (CCW/world-x)                               [deg]
#  10 FWHM_WORLD             FWHM assuming a gaussian core                              [deg]
#  11 ELONGATION             A_IMAGE/B_IMAGE                                           
#  12 ELLIPTICITY            1 - B_IMAGE/A_IMAGE                                       
         1  -8.4759     93.2928     14.3051   8.0168060229e+01   5.8014859651e+01    0.1279282   0.08048504  25.94 0.0002281064    1.577    0.366
         2  -9.6760    248.7708    230.7491   1.0106761840e+02  -1.2023419562e+01    0.3663087    0.2898826 -22.29   0.00243943    1.221    0.181
         3  -9.3708    233.8272    247.2211   1.0661876254e+02  -1.2124383299e+01    0.4954987    0.3024783  45.54  0.002535188    1.921    0.480
         4 -11.3718    242.6601    245.8310   1.0478601351e+02  -1.3204376798e+01    0.7456369    0.4201602 -39.37   0.00385538    1.992    0.498
         5 -10.8340    248.5115    241.9999   1.0308593252e+02  -1.3517404280e+01    0.6715047    0.3737204 -36.57  0.003867156    1.877    0.467
         6  -8.6311    225.2997    246.4323   1.0805455153e+02  -1.0755196319e+01    0.2181863    0.1476499 -35.19  0.001324694    1.609    0.379
         7  -7.9462    131.4928    244.4588   1.2605676981e+02   5.1015398318e+00    0.1311952    0.1103528  51.78 0.0003835661    1.008    0.008
         8  -8.8682    146.4902    242.0928   1.2273689646e+02   2.9653447336e+00    0.3014824    0.1321966 -52.40  0.001344908    2.659    0.624
         9  -8.1922    214.3742    241.3188   1.0924800441e+02  -8.3388133561e+00    0.1504444    0.1176087 -42.18  0.000591727    1.532    0.347
        10  -8.0931    219.5176    239.9558   1.0804540237e+02  -8.9468078205e+00    0.1700067    0.1188834 -34.04 0.0006880066    1.527    0.345
        11  -9.4850    232.0357    237.6532   1.0531650346e+02  -1.0534988280e+01    0.3522779     0.306407  71.61  0.002228611    1.929    0.482
        12  -8.4975    195.3913    238.7312   1.1247822905e+02  -4.8539979805e+00    0.2272605    0.1250969 -46.90  0.001135586    2.152    0.535
        13  -9.2960    203.9649    235.0852   1.1019688584e+02  -5.7058873373e+00    0.3498574    0.2594415 -59.86   0.00195809    1.965    0.491
        14  -8.3848     49.5193    236.4606   1.4103845360e+02   1.9194975051e+01    0.1216315   0.09325163  74.16 0.0001194139    1.007    0.007
        15  -9.5617    216.2681    234.0531   1.0765089900e+02  -7.5532575597e+00    0.3123645    0.2791591 -85.64  0.001618247    1.741    0.426
        16  -8.2525     77.4705    235.5108   1.3565985643e+02   1.5502517291e+01    0.1284139    0.1022566  69.96 9.281471e-05    1.014    0.014
        17  -9.0082    194.9362    232.3868   1.1151111106e+02  -3.7568461207e+00    0.2949789     0.284169 -22.95  0.001943949    1.200    0.167
        18  -9.5046    173.5812    230.9225   1.1555228437e+02   2.0189193232e-01    0.3415169    0.2224571 -14.36  0.001591987    2.419    0.587
        19  -9.0949    157.5018    230.6908   1.1880400812e+02   3.0956398615e+00    0.2527184      0.21613  54.11 0.0007659217    1.128    0.114
        20  -8.0913     43.3570    231.3302   1.4174332194e+02   2.1029293090e+01    0.1068106   0.09092534 -46.43 0.0007043863    1.788    0.441
        21  -9.0863    236.8034    229.4876   1.0300527124e+02  -1.0079196962e+01    0.2771168    0.2260271  55.11  0.001708914    1.772    0.436
        22  -9.0459    231.1767    228.0648   1.0379001475e+02  -9.0069103054e+00    0.2504918     0.161827 -18.15  0.001385856    1.628    0.386
        23  -9.1893    223.2503    227.0421   1.0509388303e+02  -7.6019339455e+00    0.2657561     0.224553 -44.64  0.001080189    1.457    0.314
        24  -8.6344    149.8713    226.3335   1.1970641861e+02   5.2708098093e+00    0.2291569    0.1920529 -79.06  0.001321828    1.394    0.283
        25  -8.8760    199.9321    224.6009   1.0918179238e+02  -3.3274054398e+00    0.2779215    0.2296544 -34.58  0.001381296    1.299    0.230
        26  -8.3686    161.5100    226.4803   1.1731068264e+02   3.1521399657e+00    0.1369904    0.1217795  42.66 0.0002140452    1.014    0.014
        27  -9.5715    241.2645    214.2838   9.9416442441e+01  -8.4865256899e+00    0.3701797    0.2650136 -15.33  0.002171785    1.343    0.255
        28  -8.9966    245.9667    225.4538   1.0061838152e+02  -1.0863404199e+01    0.2423596    0.1911029  53.39  0.001475867    1.854    0.461
        29  -9.5905    239.2481    221.4426   1.0110578422e+02  -9.2622290089e+00    0.4251623    0.3790451   8.69  0.001920687    1.139    0.122
        30  -9.8153    215.5662    223.7398   1.0597117856e+02  -5.8324195469e+00     0.425506    0.3228652   3.80  0.002475744    1.344    0.256
        31  -8.6213    207.4669    225.5016   1.0785681560e+02  -4.7610652900e+00    0.2127353    0.1267323 -37.35 0.0008871304    1.776    0.437
        32  -9.2111    185.8837    229.7304   1.1286870958e+02  -1.7529087150e+00     0.312713     0.194063 -53.46   0.00147206    2.017    0.504
        33 -11.3158    209.2891    192.5540   1.0131729985e+02   6.2691327158e-01    0.6765094    0.5179574 -60.39  0.003511311    1.670    0.401
        34 -11.2363    226.1237    218.9655   1.0309050800e+02  -6.8076827011e+00      0.73022    0.6315417 -71.82  0.003479033    1.780    0.438
        35  -9.6441    236.4742    207.0410   9.8928376773e+01  -6.5882737675e+00    0.5133087    0.2349079 -40.52  0.002352215    2.167    0.538
        36 -10.4947    228.3705    202.3128   9.9531919253e+01  -4.4701565049e+00      1.04269    0.3970099 -29.21  0.003610036    3.694    0.729
        37 -10.8133    231.4939    186.6172   9.5852717240e+01  -2.3217984316e+00    0.7495399    0.4876501 -30.58  0.003849103    1.484    0.326
        38 -11.3203    224.8109    193.0393   9.8392256505e+01  -2.2677483754e+00    0.7562501    0.5044436 -54.75  0.003248747    1.924    0.480
        39 -10.7281    248.6582    215.7591   9.8360372600e+01  -9.8394590342e+00    0.7593502    0.4016705 -47.37  0.003705877    2.413    0.586
        40 -11.9971    246.5031    189.7769   9.3760439842e+01  -5.4059102712e+00     1.591637    0.6488202 -48.22  0.006219557    3.065    0.674
        41 -10.4757    250.0081    180.3347   9.1264302949e+01  -4.4083585439e+00    0.7788153    0.2255734 -39.65  0.002800702    3.135    0.681
        42 -10.7004    246.5080    204.4093   9.6605561754e+01  -7.7689445246e+00    0.7198623    0.5320778  68.10  0.003729565    2.544    0.607
        43 -11.7664    237.1562    193.8506   9.6247988748e+01  -4.5336575036e+00     1.582537    0.6233658 -37.86  0.006552899    2.420    0.587
        44  -9.1406    191.9246    220.0589   1.0998534028e+02  -1.1515055124e+00    0.2716011    0.2286175 -34.08  0.001124304    1.269    0.212
        45  -9.8185    211.1263    218.2920   1.0584932127e+02  -4.1992986347e+00    0.3844181    0.2609186 -33.34  0.002091259    1.517    0.341
        46  -9.5811    232.7249    214.0136   1.0093679620e+02  -7.0932869790e+00    0.3851273    0.2542456 -32.73  0.001768095    1.475    0.322
        47  -8.4030    168.8252    215.2470   1.1391006618e+02   3.9202211738e+00    0.3400005    0.1025304 -45.07  0.001145463    3.636    0.725
        48  -8.9272    131.5965    211.2037   1.2123019232e+02   1.1597013082e+01    0.2535104    0.1290702 -43.33  0.001059687    2.401    0.583
        49  -9.4035    185.5610    212.8160   1.0999254221e+02   1.2898855614e+00    0.3328219    0.2540742 -31.22   0.00137269    1.417    0.294
        50 -11.2844    215.4223    209.1760   1.0332328891e+02  -3.4084583625e+00    0.5410051    0.4363028 -11.85  0.002262098    1.235    0.190
        51 -10.5798    196.6529    204.7278   1.0622419803e+02   7.3139214737e-01    0.3978055    0.2789694  52.02  0.001159393    1.579    0.366
        52 -10.9528    205.2819    205.8214   1.0468962128e+02  -1.0356702469e+00    0.6650027    0.3322032 -24.04  0.002509509    3.131    0.681
        53  -8.3280    143.5144    212.4973   1.1885092983e+02   9.1490850440e+00    0.1421829     0.128309  55.94  0.000149684    1.025    0.024
        54  -9.6439    175.1315    208.9078   1.1146356678e+02   3.9538078599e+00     0.520035    0.2772374 -57.34   0.00218198    2.455    0.593
        55  -7.9268    147.3323    210.2838   1.1765815465e+02   8.8924358994e+00    0.1383143    0.1113675   7.14 0.0005852775    1.615    0.381
        56  -8.4320    162.0322    209.5293   1.1435911745e+02   6.2924121906e+00    0.2245282    0.1311246  40.40  0.001029298    1.589    0.371
        57  -9.9577    211.3796    201.7796   1.0270679374e+02  -1.4149428508e+00    0.3808338    0.2622679 -42.75  0.001448221    1.513    0.339
        58  -7.2239    126.9627    206.4756   1.2149611002e+02   1.3438298064e+01    0.2270108    0.1316528  41.77 0.0007406916    1.618    0.382
        59  -9.6053    219.9276    201.9859   1.0107874695e+02  -2.9626889424e+00    0.4588106    0.2754351  57.76  0.002040465    2.520    0.603
        60  -9.5823    191.8941    208.7382   1.0794596909e+02   8.7362938517e-01     0.298725    0.2047559 -41.43  0.001244037    1.538    0.350
        61  -8.3468    184.4785    201.4865   1.0812947765e+02   3.6119664228e+00    0.1419512    0.1327108  22.85 2.889328e-05    1.007    0.007
        62 -10.2964    202.6102    197.9152   1.0370993337e+02   8.7983695643e-01    0.5064238    0.3284316 -66.21  0.002184609    2.588    0.614
        63  -8.8174    141.1668    197.8367   1.1688586993e+02   1.2655988660e+01    0.1983247    0.1762273   9.02 0.0006089302    1.341    0.254
        64  -8.6314    178.4853    199.4528   1.0901104107e+02   5.1479647582e+00    0.2209409    0.1294942  49.51 0.0009793608    1.749    0.428
        65  -9.2206    216.0098    187.4781   9.8976784367e+01   3.1336804169e-01    0.2149019    0.1351545  41.58  0.001006086    1.606    0.378
        66  -8.9370    176.2975    197.3146   1.0907328412e+02   5.9904097033e+00     0.144322    0.1125587   0.05 0.0002943299    1.606    0.377
        67 -10.5209    216.9565    194.2620   1.0014617032e+02  -1.0828559630e+00    0.4845523    0.3621918 -19.82  0.002596144    1.388    0.280
        68  -8.0559    211.6504    176.3025   9.7542258743e+01   3.2187842255e+00    0.1411228    0.1165739  89.84 0.0007039683    1.696    0.410
        69  -7.9525    113.3233    222.3299   1.2679390968e+02   1.2496598574e+01    0.1272878    0.1092012  -7.01  0.000334267    1.698    0.411
        70  -8.3566    196.5327    155.0484   9.6016291982e+01   1.0481489171e+01    0.2150081    0.1295219 -64.53 0.0008088136    2.481    0.597
        71  -9.4186    229.6434    153.1758   8.9204577410e+01   4.1043622345e+00     0.254726    0.2027414  31.55 0.0005480114    1.376    0.273
        72  -7.9019     60.3111    152.7077   1.2874471260e+02   3.6833144263e+01    0.1391697   0.09802552  75.62            0    1.588    0.370
        73  -9.4766    240.9905    149.2734   8.6374083841e+01   2.6535526153e+00      0.28966    0.2438276  85.47 0.0009100609    1.546    0.353
        74 -10.0388    247.6372    143.6998   8.4076056214e+01   2.4185130488e+00    0.4203773    0.3005104  20.21  0.002134111    1.863    0.463
        75  -9.1532    225.0139    146.0980   8.8498740773e+01   6.3582584491e+00     0.379377    0.1835681 -38.49  0.001551163    1.960    0.490
        76  -8.2112    154.0218    151.0000   1.0452576484e+02   2.0497410342e+01    0.2650447   0.08898376  44.23 8.468845e-05    2.981    0.665
        77  -8.1637    242.0194    138.2174   8.3825166969e+01   4.4759221285e+00    0.1715781    0.1163244  48.75 0.0003986798    1.642    0.391
        78  -8.3296    215.5290    135.0750   8.7773990866e+01   1.0449514833e+01    0.2285426    0.1391497 -42.65  0.001013941    1.544    0.352
        79  -9.0467    236.2091    130.5390   8.3115490360e+01   7.0327078233e+00    0.3049839    0.1460727  54.50 0.0009198352    2.401    0.584
        80  -9.1427    231.7617    129.7987   8.3700054524e+01   8.0717326632e+00    0.3446994    0.1901353 -33.92 0.0009077653    1.834    0.455
        81  -8.2957    186.5483    127.9654   9.1822098291e+01   1.8277968105e+01    0.2380106    0.1500943 -41.91 0.0008633981    1.556    0.357
        82  -8.9420    200.9679    124.9373   8.8188288269e+01   1.5637704209e+01    0.2317291    0.2243277 -66.66 0.0006518377    1.019    0.019
        83  -8.5849    231.8639    121.1727   8.1757879947e+01   9.6592861823e+00    0.1929132    0.1660412 -18.94 0.0004393401    1.302    0.232
        84  -8.3269    192.4622    118.4571   8.8311568371e+01   1.8869088764e+01     0.153134    0.1472417 -64.24  0.000807889    1.004    0.004
        85  -7.4183    226.6844    117.2937   8.1747283824e+01   1.1473655451e+01    0.1467254     0.109269 -73.42 0.0004148066    1.600    0.375
        86  -8.7795    153.4833    114.0087   9.5716552289e+01   2.8807619676e+01    0.2340921    0.1339684 -64.92 0.0008098914    2.638    0.621
        87  -8.2120     25.8034    111.2189   1.3127341348e+02   5.0372437099e+01    0.1791402    0.1238733 -44.89 0.0008845491    1.324    0.245
        88  -8.4045    236.9929    107.4903   7.7881119589e+01   1.1089438973e+01    0.2035712     0.140961  58.49  0.001027897    1.576    0.366
        89  -7.9424    197.4834    106.5440   8.4422579690e+01   2.0058064386e+01    0.1508539    0.1449025 -67.61 0.0001901734    1.025    0.024
        90  -8.2349    214.2298    104.7770   8.0968299800e+01   1.6551261629e+01    0.1923791    0.1752677   9.48 0.0004936624    1.341    0.254
        91  -7.8734    205.4931    105.5225   8.2690053026e+01   1.8401354452e+01    0.1489944    0.1425636 -60.52  0.000166861    1.042    0.041
        92  -8.6352    228.2821    104.2387   7.8513378142e+01   1.3536738775e+01    0.2318888    0.1777264  57.49 0.0005580829    1.395    0.283
        93  -9.0929    246.8673    102.6087   7.5342717248e+01   9.9125208026e+00    0.2757476    0.1745582 -49.82 0.0007113686    1.415    0.293
        94  -9.0041    206.0509     97.5257   8.0658437534e+01   1.9771918008e+01     0.217531    0.1462356  58.62  0.000621185    1.530    0.346
        95  -8.7947    234.2378     94.9888   7.5503948830e+01   1.3898476871e+01    0.1888081    0.1094405 -41.79  0.000744832    1.581    0.367
        96  -8.4085    150.2753     92.5954   9.0770921585e+01   3.3931867754e+01    0.2150322    0.1432859  41.77 0.0008703787    1.555    0.357
        97  -7.6658    227.6582     88.6978   7.5062173218e+01   1.6438557498e+01    0.1359622    0.1139595  17.22 0.0007038647    1.676    0.403
        98  -8.6356    171.9130     83.8870   8.3654304027e+01   3.0423150758e+01    0.3122731    0.2057263 -87.90   0.00125666    2.256    0.557
        99  -8.6672    167.5233     78.5339   8.3111239070e+01   3.2444152891e+01    0.1508259     0.142283  86.75 8.542053e-05    1.030    0.029
       100  -8.7193     43.5187     78.5103   1.1838826844e+02   5.5822290364e+01    0.1287542    0.1079668 -35.44 9.933127e-05    1.004    0.004
       101  -8.5405    249.7641     76.3738   6.9324565982e+01   1.3739402815e+01    0.2645848    0.1371225 -50.04  0.001255887    1.708    0.414
       102  -8.5694    240.3493     77.2645   7.0719169208e+01   1.5590848171e+01    0.1976415    0.1099917 -48.31 0.0009383868    1.604    0.377
       103  -8.3046    157.8617     76.5309   8.4598301564e+01   3.5123868806e+01    0.2914007    0.1699325 -59.09  0.001156922    2.234    0.552
       104  -8.9929    230.4034     71.7757   7.0832866300e+01   1.8671789226e+01    0.1860676    0.1295441 -32.20 0.0005961788    1.605    0.377
       105  -8.1153    107.3471     72.2973   9.5972374058e+01   4.7143322681e+01    0.1483651    0.1092983   9.04   0.00070347    1.678    0.404
       106  -7.8622    215.5267     69.4947   7.2409166017e+01   2.2439916941e+01    0.1433824    0.1265209 -75.20  0.000149864    1.016    0.016
       107  -8.4257    239.5204     68.0476   6.8817555832e+01   1.7257758763e+01    0.2009959    0.1224612 -41.77 0.0005323883    1.535    0.349
       108  -8.8967    245.2246     65.7578   6.7624836198e+01   1.6387521495e+01    0.2217601    0.1708307 -52.75 0.0006761483    1.151    0.131
       109  -7.5736    202.2948     61.6787   7.2516650263e+01   2.6814835957e+01    0.1485785    0.1011392 -71.05 0.0005520457    1.614    0.381
       110  -7.8858    174.4696     59.5191   7.6610398224e+01   3.3908921358e+01    0.1446595    0.1343764  78.33 0.0005485135    1.011    0.010
       111  -8.6296    105.2319     41.0005   8.6402381444e+01   5.2523341789e+01    0.1720269    0.1100127 -29.64 0.0008813749    1.645    0.392
       112  -8.9070    248.3180     37.9698   6.1523414645e+01   1.9803103074e+01    0.1782733    0.1378247 -58.48 0.0004727961    1.136    0.120
       113  -7.8336    242.6626     37.7287   6.2036639816e+01   2.1050688274e+01     0.114855   0.09592996  48.81 0.0005812115    1.601    0.376
       114  -8.3169    229.0959     37.2118   6.3358208153e+01   2.4121520351e+01    0.1718922   0.09474371  68.64 0.0008646739    1.706    0.414
       115  -7.9560    218.4691     34.4488   6.3948672674e+01   2.6917158056e+01    0.1321604    0.1120899 -84.74 0.0001131758    1.024    0.023
       116  -8.3008    164.4307     32.7012   7.1049307003e+01   4.0080783115e+01    0.1619613    0.1361843  -9.20 0.0005360396    1.475    0.322
       117  -8.7446    163.0330     29.0461   7.0272049853e+01   4.0857675049e+01     0.254888    0.1582929 -61.99 0.0009964502    1.973    0.493
       118  -8.1734    224.3455     22.6891   6.0738031381e+01   2.7068170040e+01    0.1381769   0.08037065 -71.18 0.0007045621    1.706    0.414
       119  -9.1437    141.5701     21.1987   7.1760462310e+01   4.6835499663e+01    0.1678202    0.1276974   0.15 0.0007834774    1.638    0.389
       120  -8.3915    206.5586     20.3038   6.2110484925e+01   3.1452110396e+01    0.1506478    0.1286151 -25.65 0.0006248496    1.500    0.334
       121  -8.7766    240.8359     18.5068   5.8316875828e+01   2.3929431212e+01    0.2077325    0.1548577 -53.57   0.00065838    1.258    0.205
