#   1 NUMBER                 Running object number                                     
#   2 MAG_AUTO               Kron-like elliptical aperture magnitude                    [mag]
#   3 X_IMAGE                Object position along x                                    [pixel]
#   4 Y_IMAGE                Object position along y                                    [pixel]
#   5 X_WORLD                Barycenter position along world x axis                     [deg]
#   6 Y_WORLD                Barycenter position along world y axis                     [deg]
#   7 A_WORLD                Profile RMS along major axis (world units)                 [deg]
#   8 B_WORLD                Profile RMS along minor axis (world units)                 [deg]
#   9 THETA_WORLD            Position angle (CCW/world-x)                               [deg]
#  10 FWHM_WORLD             FWHM assuming a gaussian core                              [deg]
#  11 ELONGATION             A_IMAGE/B_IMAGE                                           
#  12 ELLIPTICITY            1 - B_IMAGE/A_IMAGE                                       
         1 -14.7971      8.5837    149.4652   1.4550727868e+02   4.3183963351e+01     8.789065     3.726599  74.47   0.04306734    2.495    0.599
         2 -13.6673    196.0355     26.3307   6.9337687560e+01   3.3182452884e+01     1.687988     1.530967  15.39  0.007574348    1.303    0.232
         3 -13.5181    210.8515      7.6822   6.2525165629e+01   3.1492468358e+01     1.053099    0.9011993  57.49  0.006331181    1.266    0.210
         4 -12.1070      2.5561     21.1623   1.2525742138e+02   7.1242925660e+01     0.639526    0.1463408 -52.99  0.002871302    2.835    0.647
         5 -12.2790      3.3225      7.5317   1.1928856761e+02   7.3552873676e+01     0.993788    0.2428524 -46.17  0.004648465    2.770    0.639
         6  -9.9996     46.6655    249.0889   1.4518141912e+02   1.9508165711e+01    0.2404357     0.101369  65.90  0.001386668    2.070    0.517
         7 -13.0337    142.2547    248.5472   1.2893680171e+02   6.1045490309e+00    0.9360955    0.3502235  41.50  0.004596619    2.125    0.529
         8 -10.2872     29.6865    250.2011   1.4791723698e+02   2.1282856935e+01    0.2787745    0.1191989  50.29   0.00115115    1.687    0.407
         9  -9.2757      2.4937    249.5024   1.5199242369e+02   2.4227334857e+01   0.09735465   0.06523358  70.80 0.0008096892    1.070    0.065
        10 -10.5027    237.1543    247.2407   1.1260889602e+02  -8.3635590286e+00    0.1668762    0.1511615 -66.13   0.00124209    2.044    0.511
        11 -10.4532    101.8723    246.7840   1.3578292773e+02   1.2515563319e+01    0.2161762    0.1218861  74.79  0.001239181    2.084    0.520
        12  -9.9783     23.1970    245.8383   1.4871401260e+02   2.2724320297e+01    0.1624285   0.09429098  67.96 0.0006731141    1.205    0.170
        13 -10.7115    181.0036    244.2772   1.2164078921e+02   5.4065965820e-01    0.1764586    0.1263938  39.10 0.0006333081    1.096    0.088
        14 -10.1098     82.0559    242.7705   1.3885012199e+02   1.5994565546e+01    0.2298822    0.1119462  77.77   0.00118167    2.638    0.621
        15 -10.3948    186.4256    241.1760   1.2027508381e+02   7.7752205101e-02    0.1383428     0.114421 -60.98 0.0007254314    1.705    0.413
        16 -10.2067     12.3397    240.7363   1.5016868658e+02   2.4728691905e+01    0.2035778    0.1259427  58.78  0.001587167    1.201    0.167
        17 -13.5896     55.1664    210.4548   1.4100313677e+02   2.5438596942e+01     5.078806    0.4707268  51.31   0.01082452   12.519    0.920
        18 -11.6047    172.7228    248.2076   1.2359146821e+02   1.3413679976e+00    0.3948847    0.2342231  57.99  0.002270022    1.967    0.492
        19 -11.0310    132.4802    232.0039   1.2876985470e+02   1.0182784844e+01    0.2497041     0.158037  40.82   0.00144778    1.373    0.271
        20  -9.7589    177.4292    227.2004   1.1990059705e+02   3.4654166479e+00    0.1463576     0.118982 -65.18 0.0006207555    1.661    0.398
        21 -10.8417    148.9679    230.0150   1.2549525094e+02   7.8026280559e+00    0.3603233    0.1330911  34.28  0.001405169    3.301    0.697
        22 -10.5092    172.9875    222.2166   1.1998677623e+02   4.9492091175e+00    0.2967341    0.2211801  26.89  0.001705797    1.334    0.250
        23 -12.9187     35.0971    234.8754   1.4623535889e+02   2.3305670596e+01     0.273231    0.2207225 -89.08 0.0007922355    1.354    0.261
        24 -14.0164     40.1621    227.9066   1.4496168422e+02   2.3972906597e+01    0.8615097    0.5228059  61.86   0.00308816    1.234    0.190
        25  -8.7728     94.5990    216.8022   1.3413879078e+02   1.8760454384e+01    0.1548414    0.1029495 -89.39 0.0002318295    1.584    0.369
        26  -9.1060    152.6655    213.0237   1.2247297792e+02   9.9123345082e+00    0.1630014    0.1523312  61.39 0.0003840082    1.117    0.105
        27 -12.4926      9.8324    206.8690   1.4898977529e+02   3.1149048421e+01    0.6321177    0.3706901  35.52  0.003541503    1.996    0.499
        28 -11.7297     61.4963    200.3108   1.3889269966e+02   2.6634528596e+01    0.2599415    0.2230465 -64.67  0.000573088    1.457    0.314
        29 -10.2019     17.5634    198.6154   1.4713943692e+02   3.2014076724e+01    0.2544232    0.1310313  59.65 0.0001279829    1.570    0.363
        30  -9.6623    192.2479    193.3751   1.1166998682e+02   5.9924526759e+00    0.3842122    0.2085391 -65.28   0.00124672    5.521    0.819
        31 -12.0476     67.7439    191.8459   1.3679623447e+02   2.7532864946e+01    0.2558126    0.2182747 -79.14 0.0004780232    1.240    0.194
        32  -8.8621     23.0382    236.5056   1.4828740214e+02   2.4348907312e+01    0.1491085   0.08148536  46.29  0.001032627    1.590    0.371
        33 -13.2452     64.6613    176.9839   1.3580958343e+02   3.1102419243e+01     0.470648    0.2672069 -49.15  0.001879334    2.266    0.559
        34 -10.8775     77.8975    178.6640   1.3313504729e+02   2.8896473826e+01    0.2267381    0.1985095  78.81 0.0003301937    1.087    0.080
        35  -9.8978    100.5311    177.0914   1.2796153108e+02   2.5744232013e+01    0.3341291    0.1955267  72.82  0.001252574    2.149    0.535
        36 -11.8617     85.5400    169.2794   1.3018644073e+02   2.9805506376e+01    0.6006777    0.5852872  25.44  0.003199751    1.347    0.257
        37 -10.2260     97.8727    153.3207   1.2481296957e+02   3.1405460119e+01    0.3017019    0.2821635 -51.16 0.0008659697    1.242    0.195
        38  -9.3770    100.8724    148.8826   1.2330780750e+02   3.1905186536e+01    0.2089923    0.1949286 -80.74 0.0004202702    1.083    0.077
        39 -12.0504     86.4623    152.5054   1.2742684564e+02   3.3427859240e+01    0.2837738    0.2472649 -53.19 0.0005470871    1.286    0.222
        40 -12.6239     49.5226    216.8224   1.4254556480e+02   2.4915907655e+01      1.06891    0.5854573  73.23  0.006495042    1.614    0.380
        41 -12.2308     67.2665    143.6245   1.3074717192e+02   3.8278914712e+01    0.6954684    0.4060834  62.89  0.003400996    1.905    0.475
        42  -8.3520    192.2696    144.2826   1.0175635043e+02   1.4478124527e+01    0.1420716    0.1129736   6.76 0.0002566894    1.495    0.331
        43  -9.9125    109.6964    137.8330   1.1901443538e+02   3.2863910478e+01    0.4031023    0.2869719 -14.89  0.001484052    2.492    0.599
        44 -10.5934     96.7545    135.2782   1.2177951780e+02   3.5723428793e+01    0.2395706    0.2221333 -48.33 0.0003483186    1.197    0.165
        45  -9.0569    134.0000    145.9599   1.1480295838e+02   2.6416287915e+01    0.2445183   0.08329362 -49.78 0.0008074554    2.977    0.664
        46 -10.5357     33.1740    132.3477   1.3782021199e+02   4.4895162627e+01    0.2780947    0.1539139  62.18  0.001458409    1.972    0.493
        47  -8.8564    116.0133    129.7946   1.1572637425e+02   3.3511121665e+01    0.2366227    0.1788182   5.12  0.001068154    2.082    0.520
        48  -9.0286    106.8484    124.3019   1.1686865035e+02   3.6475157272e+01    0.1861072    0.1775506  52.61 0.0003105022    1.121    0.108
        49  -9.6339    167.8616    112.9327   9.9261737773e+01   2.6002994931e+01     0.267749    0.2265453  84.93  0.001309474    1.362    0.266
        50  -9.5112    203.4453    111.6711   9.1770507826e+01   1.7937199562e+01    0.2546917    0.1781153  30.63  0.000730516    1.692    0.409
        51 -11.3123    139.5245    231.9789   1.2747597913e+02   9.0453291279e+00    0.3323444    0.1514683  45.84  0.001695327    1.769    0.435
        52  -9.0496     38.6987     94.9192   1.3029941854e+02   5.3065404630e+01    0.1784068    0.1405867 -68.79 0.0003899817    1.081    0.075
        53  -8.9261     68.8080     83.7862   1.1803179893e+02   5.1973753416e+01    0.1745696    0.1513733  90.00 0.0003979571    1.319    0.242
        54 -10.2526    157.4080     76.1097   9.1199901664e+01   3.5613810904e+01    0.3062765    0.2358508  65.03 0.0008994953    1.378    0.274
        55 -12.0326      3.8949     39.5461   1.3042997189e+02   6.7666599905e+01    0.4743183    0.1639921 -59.60  0.002376816    2.140    0.533
        56 -11.4882      1.8962     62.5321   1.3655686468e+02   6.3009140435e+01    0.4448513    0.1650147 -76.62   0.00195619    2.945    0.660
        57 -10.7817     13.6818     54.7709   1.3029771373e+02   6.3979482471e+01    0.2942432    0.1181798  42.16  0.001363848    3.613    0.723
        58  -9.7530      6.6531     55.3152   1.3321833848e+02   6.4290306886e+01    0.1086346   0.08156735  77.48 0.0007047637    1.720    0.419
        59 -11.9340    124.9228    249.5698   1.3206280606e+02   8.6351982517e+00    0.4857224    0.1955269  42.36  0.002513931    1.965    0.491
        60 -11.5169     35.0926    245.5402   1.4682915395e+02   2.1458137670e+01    0.4896661    0.3854407  87.27   0.00406538    1.326    0.246
        61 -10.5171     98.9828    249.4610   1.3652068777e+02   1.2509198277e+01    0.2524838    0.1189624  44.10   0.00145155    1.682    0.405
