#   1 NUMBER                 Running object number                                     
#   2 MAG_AUTO               Kron-like elliptical aperture magnitude                    [mag]
#   3 X_IMAGE                Object position along x                                    [pixel]
#   4 Y_IMAGE                Object position along y                                    [pixel]
#   5 X_WORLD                Barycenter position along world x axis                     [deg]
#   6 Y_WORLD                Barycenter position along world y axis                     [deg]
#   7 A_WORLD                Profile RMS along major axis (world units)                 [deg]
#   8 B_WORLD                Profile RMS along minor axis (world units)                 [deg]
#   9 THETA_WORLD            Position angle (CCW/world-x)                               [deg]
#  10 FWHM_WORLD             FWHM assuming a gaussian core                              [deg]
#  11 ELONGATION             A_IMAGE/B_IMAGE                                           
#  12 ELLIPTICITY            1 - B_IMAGE/A_IMAGE                                       
         1 -12.3535    247.6467     48.9498   5.7828010270e+01   1.9232439906e+01     1.858972    0.5659667 -33.64  0.008206523    2.609    0.617
         2 -11.8175    244.6640     30.8897   5.4248981325e+01   2.1915209070e+01     1.164955    0.4471059 -55.76  0.005651239    2.374    0.579
         3 -11.1660    245.1835     20.6862   5.2083306116e+01   2.2952436254e+01    0.6355237    0.3458815 -41.79  0.002701464    1.410    0.291
         4 -11.8979    230.2016     46.5053   5.8716839959e+01   2.2831650828e+01    0.9900482    0.4686273 -70.04  0.002762249    2.798    0.643
         5 -11.4855    225.8618     34.1066   5.6279292259e+01   2.5213680705e+01     1.052893    0.4458948 -23.81  0.004594181    2.882    0.653
         6 -11.9888    246.2932      5.5076   4.8900560571e+01   2.4326016075e+01    0.8345312     0.752532   1.48  0.002432076    1.640    0.390
         7 -10.8785    194.4648     37.6405   5.9971477552e+01   3.1601728018e+01    0.6618147      0.33481 -53.00  0.001941501    1.850    0.459
         8  -9.6226    194.8938     20.9468   5.5611869861e+01   3.3487873622e+01     0.323622     0.220163 -37.58 0.0004254801    1.390    0.280
         9 -11.4423    190.9336     28.9065   5.8048104832e+01   3.3493839100e+01    0.7341128    0.3674325 -30.90  0.003486065    1.966    0.491
        10 -10.6921    194.8869     28.6894   5.7611692220e+01   3.2598937379e+01    0.5559588    0.3171789 -22.40  0.002131211    2.064    0.515
        11 -11.9651    214.0302     28.4539   5.5895781332e+01   2.8354157027e+01    0.7490693    0.3178878 -38.43  0.001163304    1.929    0.481
        12 -11.8271    232.6075      3.7719   4.9151332444e+01   2.7149387712e+01    0.9605114    0.5172806 -87.02  0.004732869    1.782    0.439
        13 -10.7325    183.9130     21.4540   5.6732257937e+01   3.6023286288e+01     0.271545    0.2471749 -35.47 0.0003177376    1.251    0.201
        14 -10.5190    183.9627     14.4248   5.4822207730e+01   3.6776616532e+01    0.4654502    0.1794288 -58.90  0.001598262    2.711    0.631
        15 -10.1946    157.6818     19.7115   5.9032601515e+01   4.2753955692e+01    0.3514119    0.1893001 -37.38  0.001657998    1.799    0.444
        16 -12.0238    224.5430     13.3089   5.1670134900e+01   2.7813870629e+01    0.7415249    0.3549574 -65.37  0.003162059    1.931    0.482
        17 -10.1763    215.3648      6.0552   5.0541143778e+01   3.0490024517e+01    0.3295082     0.185775 -47.50 0.0007782212    1.422    0.297
        18 -10.7007    164.6572     16.2422   5.7184105863e+01   4.1350819893e+01    0.4669542    0.2968471 -87.75    0.0011291    1.490    0.329
        19 -10.9884    162.1357     10.5661   5.5739920330e+01   4.2575787628e+01    0.4795187    0.2806176 -34.22  0.001740015    1.706    0.414
        20 -10.7905    157.1000      9.6638   5.5978776231e+01   4.3951475732e+01    0.3788363    0.2443055  50.33 0.0009346182    1.739    0.425
        21 -11.1467    105.7337     13.5609   6.5052983293e+01   5.7089833474e+01    0.3010736    0.2688155 -85.70 0.0003147572    1.115    0.103
        22 -11.1665    126.4296     10.8556   6.0262096598e+01   5.1881270646e+01    0.4056042    0.3096736  72.05 0.0009839539    1.156    0.135
        23  -9.4173    201.1673     10.2807   5.2432715688e+01   3.3191563777e+01     0.234601    0.1699079 -66.28 0.0004819746    1.149    0.130
        24  -8.4857    195.4289     11.2152   5.3072562791e+01   3.4408372895e+01    0.1859197   0.09476353 -44.03 0.0007232244    1.665    0.400
        25 -10.4179    186.5539      9.5264   5.3297694978e+01   3.6662368305e+01    0.4061295    0.1625917 -42.11  0.001548669    2.098    0.523
        26 -10.2830    183.5193      2.8588   5.1740705475e+01   3.8037032668e+01    0.4794484    0.2817653 -74.35  0.002565614    1.532    0.347
        27  -9.8292     56.1547     10.5158   7.8816939225e+01   6.9539156798e+01    0.4534889    0.2077034  49.61  0.001476277    1.913    0.477
        28  -8.6416    119.0094      9.9547   6.1099979668e+01   5.3940104501e+01    0.2106501    0.1910273  82.43 0.0005893215    1.040    0.039
        29 -10.0732     15.6641      6.7259   1.0276905686e+02   7.7131995073e+01    0.5218461    0.2810964 -56.38  0.002417786    2.487    0.598
        30  -8.7309     76.9776      7.7469   6.9531558774e+01   6.5014669341e+01    0.2082033     0.188223  54.43 0.0003735489    1.029    0.028
        31  -9.3442     73.1794      6.9953   7.0308921336e+01   6.6015145315e+01    0.2689717    0.2380313  82.24 0.0007818475    1.216    0.178
        32  -9.7869    110.3473      5.9692   6.0972428718e+01   5.6606473638e+01    0.4749683    0.2646866  61.02  0.002165941    1.545    0.353
        33 -10.0575    176.1082      4.8434   5.2834707047e+01   3.9643935824e+01    0.4615422    0.1491286 -40.66  0.001922266    2.542    0.607
        34  -8.9430    203.0708      3.9625   5.0754492667e+01   3.3394008738e+01    0.1962786    0.1462748 -65.04 0.0004914799    1.081    0.075
        35 -11.0413    127.6966      2.0446   5.6814444430e+01   5.2344883903e+01     0.400437     0.232473 -85.46  0.001303293    1.711    0.416
        36  -8.3502      1.3345      2.4120   1.1446044241e+02   7.9285935380e+01    0.2013333    0.1022662 -55.89  0.001076946    1.938    0.484
        37  -8.9742      6.8277      2.1071   1.0825660671e+02   7.8885949901e+01    0.1742381    0.1587979  27.22  0.001220056    1.350    0.259
        38  -9.6803    249.8562    203.1223   8.7194889063e+01  -1.4469655594e+00    0.2424692    0.1702343 -11.28 0.0009633998    1.078    0.073
        39 -11.3519    247.0948    237.8172   9.2929017405e+01  -5.0653983202e+00    0.7461342    0.3108504 -17.16  0.004084123    2.671    0.626
        40 -10.8310    247.3038    226.6544   9.1250251596e+01  -3.8782888577e+00    0.3712884     0.218437 -25.51  0.002300042    1.477    0.323
        41 -10.8662    249.3542    218.2847   8.9665477498e+01  -3.1538572828e+00    0.6231073    0.2049368 -35.59  0.003256204    2.812    0.644
        42  -9.0375    126.7960    249.9548   1.1661946170e+02   7.4577519007e+00     0.207574    0.1506997  34.28 0.0004753886    1.138    0.121
        43  -9.5138    115.6111    249.6128   1.1893298550e+02   8.9322583314e+00    0.2202826    0.1822668  25.68 0.0007380372    1.096    0.087
        44 -10.4486    250.0301    198.4488   8.6408325501e+01  -9.0625770477e-01    0.5115111     0.197486 -36.67  0.002752003    2.382    0.580
        45  -9.4282     46.8102    199.3940   1.3048840550e+02   2.7186436024e+01    0.1760211    0.1180276  18.25 0.0004086735    1.631    0.387
        46 -10.6805     45.0439    189.2573   1.3014281641e+02   2.9678513213e+01    0.4592617     0.211922 -71.56  0.002097225    2.271    0.560
        47 -11.4171     53.5150    192.9137   1.2818605237e+02   2.7850164874e+01    0.6972018    0.2918997  38.62  0.003089327    1.913    0.477
        48  -9.6535    129.9248    189.7488   1.0807033504e+02   1.7489458256e+01    0.3313586    0.2530577  51.81 0.0007743739    1.418    0.295
        49  -8.0397    207.1723    190.3885   9.2005921136e+01   5.5517580395e+00    0.1601881    0.1069309  39.87  0.000889895    1.678    0.404
        50  -7.9623    158.9925    189.4752   1.0137250824e+02   1.2905476379e+01    0.1828783    0.1061496  53.17 0.0008083563    2.427    0.588
        51  -9.0107    192.1144    185.7482   9.3967905254e+01   8.4226053266e+00    0.2863403     0.172888 -43.54 0.0008363384    1.819    0.450
        52 -10.0063     61.3572    185.7930   1.2537993306e+02   2.8503395884e+01    0.3091082     0.240082  89.71 0.0007955317    1.360    0.265
        53 -10.5350     54.6705    185.9132   1.2722468303e+02   2.9313589563e+01    0.2650989    0.2496592  31.41  0.001616036    1.169    0.144
        54  -8.2510    249.3158    186.3138   8.4487866594e+01   6.6936409642e-01    0.1152444   0.06977455  -4.62 0.0007035158    1.643    0.391
        55  -9.2800    125.0616    183.8324   1.0831336933e+02   1.9452422338e+01    0.3222624    0.2449946  59.15  0.001168536    1.539    0.350
        56  -8.4118    186.0892    183.3290   9.4701500029e+01   9.7187557943e+00    0.1834537    0.1452886  25.78 0.0005684679    1.184    0.155
        57  -9.9967    246.9373    179.2594   8.3623288094e+01   1.8529891978e+00    0.3299303     0.246144 -58.57  0.001308604    2.604    0.616
        58  -9.2628    205.5935    180.9500   9.0625201169e+01   7.1756391723e+00    0.2303716    0.1697716  24.00 0.0006549962    1.285    0.222
        59  -8.9495     12.0748    182.8640   1.3861870523e+02   3.4436938123e+01    0.3755102    0.1354421  55.10  0.001617701    2.378    0.579
        60  -8.9141    230.1442    176.8693   8.5757205030e+01   4.3306492915e+00    0.1962847    0.1605764  -8.18 0.0006831862    1.043    0.041
        61 -10.1437     70.2772    171.1877   1.2118301332e+02   3.0748556569e+01    0.5276229    0.3679829  86.49  0.002619795    1.635    0.388
        62 -10.0937     43.0461    173.0814   1.2928909755e+02   3.3735530475e+01     0.409104    0.2634861  34.14  0.001213608    1.407    0.289
        63 -11.0633    229.7953    168.0715   8.4219480376e+01   5.6074470430e+00    0.3354411    0.2468567 -14.52 0.0005399841    1.173    0.147
        64 -11.1448    221.9366    166.1489   8.5118683375e+01   6.9998398081e+00    0.5581364    0.4876976 -65.66  0.002624128    1.777    0.437
        65  -8.6504    124.0905    172.4954   1.0667136820e+02   2.1958778369e+01    0.2172692    0.1315577  35.84 0.0005049925    1.499    0.333
        66 -10.0348    163.7601    167.2685   9.6347288047e+01   1.6139312724e+01     0.556371    0.3509039  63.07  0.002351419    2.793    0.642
        67  -9.4604    150.3124    170.0128   9.9874744119e+01   1.7944625614e+01    0.2783225    0.2481002 -25.34  0.001297748    1.153    0.133
        68  -9.1227     88.1380    169.9422   1.1591001375e+02   2.8414055114e+01     0.246085     0.221747  46.73 0.0005920658    1.009    0.009
        69  -7.8285    144.3371    169.6645   1.0120398029e+02   1.9048836540e+01     0.142476    0.1115978  69.42 0.0007051778    1.748    0.428
        70  -8.8571    106.8055    169.0982   1.1062195330e+02   2.5608547703e+01    0.2207312    0.1866273  59.77 0.0004955548    1.232    0.188
        71  -8.3871     50.9554    168.4967   1.2651813017e+02   3.3928972964e+01    0.2143292    0.1301748  29.06   0.00102464    1.568    0.362
        72  -8.8586    110.3072    166.7807   1.0928997894e+02   2.5539124091e+01    0.2893529    0.2078211  57.11 0.0009495054    1.525    0.344
        73 -10.1860    190.5814    164.0131   9.0245252128e+01   1.2186330033e+01    0.2368335    0.2111793 -23.10 0.0003510814    1.122    0.109
        74  -8.1648    183.9873    163.9772   9.1518166850e+01   1.3284743473e+01    0.1936673    0.1701629 -88.43  0.001047521    1.688    0.407
        75  -7.9996    141.7378    163.3588   1.0064465117e+02   2.0769628788e+01     0.138198    0.1145615  82.23 0.0002681049    1.629    0.386
        76  -8.2039    214.3870    159.1465   8.5039284980e+01   9.1741877392e+00    0.1748766     0.106895 -43.78 0.0005506017    1.718    0.418
        77  -9.1055    101.0674    156.5163   1.1006276836e+02   2.9456201532e+01    0.2645324    0.2056784 -37.41 0.0006653201    1.470    0.320
        78  -9.0579    227.1119    153.9922   8.1994927144e+01   8.0191265239e+00    0.3009524    0.1556679 -31.37  0.000960115    1.711    0.415
        79  -9.5013     49.7351    149.4417   1.2468753356e+02   3.8874364968e+01    0.3654677    0.2446909  72.85 0.0009868816    1.588    0.370
        80  -8.2832    137.5432    144.5362   9.7902750500e+01   2.5458451622e+01    0.2539129    0.1457019 -59.76  0.001022369    2.222    0.550
        81 -10.0128    247.7524    139.6672   7.6274736298e+01   7.0426942052e+00    0.2600559    0.2205576 -73.35  0.001195113    1.812    0.448
        82  -9.5081    240.1557    138.5053   7.7081280041e+01   8.3104483195e+00    0.1968349    0.1483518 -42.70  0.001030935    1.348    0.258
        83  -8.3096     24.5460    139.4873   1.3193054281e+02   4.4138192268e+01    0.1390779    0.1242764  73.64 7.021177e-05    1.004    0.004
        84 -10.5590    234.1543    130.7806   7.6390085268e+01   1.0337186660e+01    0.5436295    0.2424144 -51.02  0.002269721    3.239    0.691
        85  -9.3153    228.9276    127.5491   7.6475327825e+01   1.1648681779e+01    0.2303478     0.179676 -30.70  0.000616688    1.091    0.083
        86  -8.9790      4.3893    134.7750   1.3838318283e+02   4.6880385607e+01    0.2996722    0.1533801  50.21  0.001089331    1.814    0.449
        87 -10.7286    208.5222    131.9023   8.0515115474e+01   1.4423440235e+01    0.3365817    0.2804744 -30.48 0.0003586604    1.079    0.073
        88  -8.3408    140.1770    133.4319   9.4819341887e+01   2.7292596299e+01    0.2385298    0.1850422 -53.94  0.001023757    1.377    0.274
        89  -8.3905    192.7899    131.8134   8.3212710145e+01   1.7273234289e+01    0.1964505    0.1716083  -8.83  0.000360354    1.131    0.116
        90  -8.9769     24.8245    130.5908   1.3095150471e+02   4.6451441677e+01    0.2854153     0.169947  52.08  0.001136083    1.636    0.389
        91  -9.2678    155.3949    129.0662   9.0201042248e+01   2.5100741333e+01    0.3239627    0.2272614  40.92  0.001554925    1.422    0.297
        92  -9.1166    171.5536    126.1396   8.6036728173e+01   2.2393282825e+01    0.2522284    0.2359607  48.63 0.0005267246    1.125    0.111
        93 -10.0213     74.3972    126.1010   1.1268479627e+02   4.1428760675e+01    0.4446518    0.3194524 -63.44  0.001328761    1.423    0.297
        94  -9.2786     98.1967    122.9002   1.0418025276e+02   3.8035457626e+01     0.411097    0.2789012  65.22  0.001530449    1.839    0.456
        95 -10.2420    227.4659    119.3412   7.4985382067e+01   1.3114959411e+01    0.4407005    0.2238902 -44.61  0.001961761    1.867    0.464
        96  -8.5455    140.0804    122.3775   9.2269526629e+01   2.9647685118e+01    0.2777206    0.2172809 -76.92   0.00130064    1.637    0.389
        97  -8.5747    132.3127    122.8726   9.4367329011e+01   3.1170766081e+01    0.2440013    0.1931692 -74.62  0.001147102    1.549    0.355
        98  -9.6076    119.6624    122.4696   9.7695660149e+01   3.3881996537e+01    0.3302422    0.2823151 -42.31 0.0005823464    1.220    0.180
        99  -9.2014     82.5906    121.2948   1.0890654088e+02   4.1277799782e+01    0.3259882     0.234568  69.78  0.000873088    1.671    0.402
       100 -12.8845    248.3194    111.0201   7.0585453849e+01   1.0919349944e+01      2.50706    0.4617435 -36.58  0.008594337    4.078    0.755
       101 -11.0167    249.6006     66.6859   6.1364852557e+01   1.6661697978e+01    0.3236655    0.2919382  26.02 0.0006088878    1.473    0.321
       102  -9.4868    234.9118    246.5184   9.6067056008e+01  -4.7813863086e+00    0.3351896    0.1410634 -40.95  0.001890232    3.182    0.686
       103 -10.2842    209.4055    222.8694   9.6878205163e+01   8.0004871500e-01    0.7101778    0.4135955 -49.55  0.003946329    2.840    0.648
       104 -10.9617    215.4496    245.3102   9.9095815496e+01  -2.6191152970e+00    0.6635172    0.2883908  40.46  0.003478887    3.083    0.676
       105 -11.7426    214.5992    237.7721   9.8176361885e+01  -1.6464170894e+00    0.7116001    0.5974371   6.65   0.00514089    1.332    0.249
       106  -8.4246    109.1000    246.5157   1.2001115970e+02   1.0254635989e+01    0.1928484   0.09397182  31.41 0.0007956596    1.562    0.360
       107 -12.4852    243.0316     81.1611   6.5027674322e+01   1.5896537703e+01     1.723114     0.480873 -45.15  0.006739354    3.175    0.685
       108 -11.6783    249.4274     75.3232   6.3171677302e+01   1.5569943703e+01    0.7295808    0.2524557 -37.17 0.0009929455    2.198    0.545
       109  -9.2245     80.0005    242.6553   1.2601953587e+02   1.4564905510e+01    0.2869639    0.1893134 -68.46  0.001343232    1.917    0.478
       110  -9.9051    175.0143    106.7562   8.0741678590e+01   2.5243000031e+01    0.4074833    0.2322231 -29.77 0.0004561748    1.944    0.486
       111  -9.9569    193.0514    111.6659   7.8637839933e+01   2.0665858556e+01    0.3222589    0.2722554  88.45 0.0006216076    1.465    0.317
       112 -12.0272    184.2069    104.9163   7.8590682045e+01   2.3627986393e+01    0.5579765    0.4320004 -77.62 0.0007635126    1.651    0.394
       113  -9.7640    136.1684    108.5649   8.9805840335e+01   3.3399848467e+01    0.4595159    0.3337721  84.00  0.001316608    1.960    0.490
       114 -10.6772     47.0751    103.4723   1.1838536954e+02   5.1310340582e+01    0.4757788    0.3309158 -62.75 0.0005941735    1.391    0.281
       115 -10.9793    237.8911    104.3355   7.0476817347e+01   1.3550886774e+01     0.381568    0.3041369 -12.80  0.002200295    1.338    0.253
       116  -8.3198    202.0732    107.3410   7.6150080085e+01   1.9607449516e+01    0.1812643     0.172739 -51.73 0.0007539595    1.087    0.080
       117  -9.7423    215.4500    101.9680   7.2925775770e+01   1.7896202835e+01    0.3244379    0.1936637 -56.60  0.001185983    1.992    0.498
       118  -9.2452     52.1189    102.8760   1.1621496307e+02   5.0805009678e+01    0.2369495    0.1958951  72.01  0.001145957    1.290    0.225
       119  -9.2517     73.1779    102.1997   1.0784366485e+02   4.7729427750e+01     0.440766     0.191095  44.74  0.001568039    2.345    0.573
       120 -10.3254    131.9507     99.0539   8.8350926825e+01   3.6333737813e+01    0.3966528    0.3152536 -83.90 0.0009696109    1.548    0.354
       121  -9.0806    118.9984    100.1977   9.2179312722e+01   3.9002636919e+01    0.2839048     0.203476 -62.85 0.0009248799    1.602    0.376
       122 -10.2428    227.3313     98.9373   7.0655381190e+01   1.6168968638e+01    0.3011255    0.2024955 -47.06 0.0003983082    1.369    0.270
       123 -10.4769    234.9368     94.9169   6.8848374769e+01   1.5401085195e+01    0.4518713    0.2810715 -62.22  0.002376648    2.040    0.510
       124  -9.0770    212.7422     87.5839   7.0030215408e+01   2.0614579149e+01    0.2767155    0.1691045 -49.24  0.001427311    1.549    0.355
       125  -9.8151    214.6147     93.5620   7.1146819227e+01   1.9342318422e+01    0.4466598    0.2290283 -48.34  0.001705129    1.904    0.475
       126  -9.4592    210.0037     94.0099   7.1891118197e+01   2.0171682376e+01    0.2049392    0.1900174  86.32  0.001295932    1.194    0.163
       127 -10.7972    149.2637     93.6755   8.2698580012e+01   3.3427338021e+01    0.4087628    0.3073509 -30.44 0.0002551938    1.447    0.309
       128  -9.0436    115.2196     94.9484   9.1799581611e+01   4.0989939563e+01    0.2999213    0.2272704  47.22  0.001393348    1.286    0.222
       129  -8.8705    158.0751     92.5984   8.0499707463e+01   3.1595752879e+01      0.27277    0.2193219 -32.10 0.0006382916    1.296    0.228
       130  -8.2969    102.7797     93.1985   9.5093461487e+01   4.4112424596e+01    0.2652865    0.1728426  84.21 0.0009431724    2.741    0.635
       131  -8.9092     15.3446     92.8869   1.3024057580e+02   5.7205370181e+01    0.2571828    0.2036946  -6.19  0.001179992    1.421    0.296
       132  -9.0358    200.7120     86.3833   7.1430898809e+01   2.3239899361e+01    0.2744053    0.1701923 -47.35 0.0007276859    1.505    0.336
       133 -10.9740    196.6746     82.6899   7.1125408164e+01   2.4669650349e+01    0.4439644    0.2869146 -50.03 0.0006850716    1.481    0.325
       134  -8.4489    167.8243     84.3740   7.6360043964e+01   3.0821883973e+01    0.2474103     0.185478 -49.81 0.0005496288    1.302    0.232
       135  -9.2472    119.4624     82.5176   8.6921370468e+01   4.2639900765e+01     0.283237    0.2690516 -79.50 0.0006170152    1.062    0.058
       136  -9.4480    122.1947     80.3970   8.5521696674e+01   4.2421678676e+01    0.3058573     0.276383 -86.40 0.0004904175    1.156    0.135
       137 -10.4067    147.2762     80.4700   7.9429399935e+01   3.6378123256e+01    0.4922943    0.3540319 -28.92  0.001695627    1.559    0.359
       138  -8.4677    145.7776     74.9957   7.8154220351e+01   3.7733562786e+01    0.2228583    0.2070979  13.62 0.0002998138    1.246    0.197
       139  -9.7360    164.2677     78.6589   7.5471667830e+01   3.2641019303e+01    0.4999503    0.3098609 -77.95  0.001743235    2.515    0.602
       140  -9.7970    233.8683     79.1515   6.5573480635e+01   1.7809580139e+01    0.2018519    0.1741309  58.14   0.00135242    1.376    0.273
       141  -9.6490    216.8346     74.5089   6.6482307899e+01   2.1728792057e+01     0.520579    0.4042217  12.40   0.00237616    1.830    0.453
       142  -8.3173    206.4486     74.5160   6.7782350965e+01   2.3852403305e+01    0.1346938    0.1169746 -51.58 0.0001021873    1.021    0.020
       143 -11.8455    206.8923     68.9226   6.6377520915e+01   2.4579120986e+01    0.5039825    0.3571073 -76.30 0.0009585066    1.598    0.374
       144  -8.5183     16.8835     79.1993   1.2741454450e+02   6.0680757532e+01    0.2054917     0.177794  67.33 0.0005750544    1.226    0.184
       145  -8.9806    179.0597     77.9602   7.2674859628e+01   2.9318761358e+01    0.2161207    0.1980824 -66.15 0.0004559712    1.039    0.038
       146  -8.8757    101.5591     77.0497   9.0558436175e+01   4.7913915983e+01     0.325863    0.1968845  79.91  0.001034887    3.526    0.716
       147  -9.1290    225.5104     74.5137   6.5474712518e+01   2.0025509463e+01    0.2483134    0.1472847 -42.83 0.0007103079    1.417    0.294
       148 -10.2829    174.0380     72.8785   7.2155171239e+01   3.1306700112e+01    0.4676066    0.3171354 -18.29  0.001454789    1.902    0.474
       149 -10.9119    183.3499     71.7718   7.0363197493e+01   2.9329238902e+01    0.3753677    0.3260219  76.39 0.0007844576    1.180    0.153
       150 -10.8100    165.7802     69.0031   7.2504573011e+01   3.3896669660e+01    0.9838436    0.3251583 -33.17  0.003227455    3.233    0.691
       151 -10.3147    171.2849     59.3132   6.8860283389e+01   3.4093411356e+01    0.5055853    0.3109453 -75.40 0.0008511121    2.090    0.522
       152 -10.7045    167.3707     50.2956   6.6894204843e+01   3.6385610893e+01    0.5368636    0.2506111 -31.16 0.0006315604    2.231    0.552
       153  -9.4718    151.2172     71.9241   7.6105131575e+01   3.6944419422e+01    0.3304957    0.2368793  66.89 0.0007291281    1.429    0.300
       154 -10.6743    227.9815     66.1319   6.3325235041e+01   2.0704816893e+01    0.5046278    0.3249278 -35.36  0.002900205    1.355    0.262
       155  -9.6945    142.2702     68.6826   7.7014454192e+01   3.9714185655e+01    0.3537447    0.2916236 -68.77  0.001785632    1.272    0.214
       156 -10.6121     47.6016     63.2982   1.0781408059e+02   6.1352406137e+01    0.3310141    0.2998433 -79.30 0.0004864352    1.229    0.186
       157 -10.2173     51.4033     56.0683   1.0338902225e+02   6.2412326013e+01     0.588322    0.4341116  12.60  0.002919932    1.534    0.348
       158 -10.4621    185.5130     62.5478   6.7613588458e+01   3.0243731326e+01    0.3024768    0.2557617 -39.51 0.0009137691    1.159    0.137
       159  -9.3717    161.7995     61.3627   7.1016460760e+01   3.6090019157e+01    0.3769888    0.2730589  -3.34  0.001337332    2.058    0.514
       160  -9.6008    122.3417     62.2492   7.9645233440e+01   4.5821865569e+01     0.385446    0.2676371 -66.72  0.001322907    1.769    0.435
       161  -9.1164      8.7095     62.6951   1.2879467738e+02   6.5388558889e+01    0.2265697    0.2157817  70.53 0.0004913574    1.147    0.128
       162  -9.5378    198.0553     59.6756   6.5198906734e+01   2.7822236459e+01    0.3830302     0.166129 -40.75  0.000798696    2.002    0.500
       163  -8.5783    112.2130     61.7669   8.2197994300e+01   4.8415311228e+01    0.2251861    0.2025388  86.24 0.0004905749    1.147    0.128
       164 -10.9577    228.2441     57.0027   6.1248736028e+01   2.1871713059e+01    0.6383509    0.3039763 -61.24  0.001829894    2.491    0.599
       165  -9.9455     17.7782     58.4246   1.2265341554e+02   6.5865541347e+01    0.5911102    0.3281577  78.10  0.002466567    2.779    0.640
       166  -7.8934    135.2988     60.6813   7.6034667550e+01   4.2836212007e+01    0.2509023    0.1404368 -41.69  0.000314116    1.799    0.444
       167  -8.4604    134.5064     57.5115   7.5180811927e+01   4.3566853604e+01    0.2062778    0.1884874  84.09 0.0006414722    1.045    0.043
       168 -11.9192    107.7815     57.0998   8.1813793467e+01   5.0347866240e+01    0.3652382    0.3314882 -14.19 0.0003608736    1.251    0.201
       169  -8.5422     24.2089     60.2330   1.1941533742e+02   6.4884263699e+01    0.1868767    0.1580025  58.87 0.0008995408    1.355    0.262
       170 -11.8841    177.7068     53.0908   6.6167803352e+01   3.3466752699e+01    0.4836608     0.311119 -61.47 0.0006940929    1.612    0.379
       171  -8.5464     78.3730     58.1231   9.2157793667e+01   5.6920921712e+01    0.2085828     0.141793 -56.12 0.0004132746    1.680    0.405
       172  -9.9185     73.9290     50.8897   9.1102150897e+01   5.9286064064e+01     0.452843    0.3300263 -87.78  0.001944236    2.169    0.539
       173 -10.7208    121.0474     49.3708   7.5517698180e+01   4.8329842293e+01    0.5770508    0.3499189  75.89   0.00160759    1.974    0.494
       174  -8.0489     84.5376     51.0937   8.7091498059e+01   5.6936267152e+01    0.2137938    0.1493709 -42.02 0.0009993302    1.505    0.335
       175  -9.9797    200.4015     35.3549   5.8787036414e+01   3.0532005899e+01    0.2285378    0.2098644 -64.41 0.0004840597    1.120    0.107
       176  -9.2065    202.2994     45.6262   6.1175612571e+01   2.8799747140e+01    0.4795648    0.2114127 -64.37   0.00184712    3.090    0.676
       177 -10.2731    188.8719     45.0219   6.2532410163e+01   3.1941475941e+01    0.3508071    0.2184804 -51.79 0.0004203967    1.475    0.322
       178  -9.8376    188.6419     38.8106   6.0910263197e+01   3.2808360017e+01    0.2784876    0.2399064 -14.85 0.0006170679    1.425    0.298
       179  -8.9045    122.0097    241.1666   1.1667624164e+02   9.4466600684e+00     0.180673    0.1733527   1.13 0.0007878303    1.265    0.210
       180 -10.6920    176.5690    240.6159   1.0547383992e+02   2.4914916169e+00    0.4058175    0.3543965 -42.92  0.001779597    1.638    0.390
       181  -9.8051    241.5139    229.9982   9.2640902217e+01  -3.6535985623e+00    0.2802801    0.0803294 -30.17  0.001317236    3.403    0.706
       182  -9.5982     26.5217    233.1728   1.3736251888e+02   2.2336713825e+01    0.2006755    0.1751616   6.09 0.0008963441    1.494    0.331
       183 -12.0655    146.6334     39.9265   6.7065036646e+01   4.3108710765e+01    0.7275053    0.4054947 -68.26  0.001348727    2.327    0.570
       184  -8.0631    206.6178     43.7938   6.0273617970e+01   2.8084737415e+01    0.1966703    0.0974021 -43.81 0.0009453274    1.715    0.417
       185 -10.7506     73.1472     42.7568   8.8009155633e+01   6.0968016202e+01    0.3454923     0.283488  54.67 0.0008271494    1.227    0.185
       186  -8.2971    124.4789     41.5071   7.1913944571e+01   4.8651491264e+01    0.1499004    0.1382027  78.43 0.0008102727    1.002    0.002
       187 -10.5625     96.3543     39.3649   7.8373204897e+01   5.6142907478e+01    0.3189296    0.2929101  68.59 0.0004910992    1.060    0.057
       188 -10.1240    214.9745     41.2389   5.8852935892e+01   2.6607607980e+01    0.4275153    0.2514075 -40.62  0.001837092    1.445    0.308
       189  -9.5970     89.2460     38.1370   8.0101415145e+01   5.8066696565e+01    0.3576382    0.2683834  88.14 0.0008588858    1.720    0.419
       190 -11.6138    180.7173     35.3350   6.0872652205e+01   3.5139149899e+01    0.5169371    0.4210293  19.11  0.001927993    1.712    0.416
       191 -10.2284    173.3999     36.4438   6.2068932011e+01   3.6783996950e+01    0.3881921    0.3169221 -76.66  0.001212956    1.124    0.110
       192 -10.0737    163.9128     37.0063   6.3489290147e+01   3.9077409826e+01    0.4759026    0.2874499 -85.91  0.002173115    1.856    0.461
       193  -9.8449    215.4867     33.9931   5.7090154602e+01   2.7387505280e+01    0.2669049    0.2453402 -10.57 0.0006020491    1.396    0.284
       194  -9.4487    100.5336    232.6583   1.2050142532e+02   1.3714042948e+01    0.3559151    0.1344268  36.79  0.001213154    2.000    0.500
       195 -10.4911    208.3185     27.0136   5.6010574957e+01   2.9763521655e+01    0.2788981    0.2615079 -38.47 0.0005997231    1.258    0.205
       196  -8.2084    118.5322     35.4766   7.1025084416e+01   5.1062864386e+01    0.1487645    0.1361093  77.50 0.0003362724    1.013    0.013
       197  -8.8177    163.3617     42.5476   6.5220472551e+01   3.8474858097e+01    0.2394598    0.2105171 -37.68 0.0005587657    1.206    0.170
       198  -9.6986    109.9801     30.8845   7.1236471229e+01   5.3916304133e+01     0.510178    0.2318819 -51.28  0.001873553    2.795    0.642
       199  -9.4781    118.1818     29.5904   6.8870609107e+01   5.1945243263e+01    0.2785802    0.2410542  86.50 0.0004417159    1.111    0.100
       200  -9.4672    116.5781     24.8295   6.7371843140e+01   5.2964976345e+01    0.2633933    0.2355856 -86.59   0.00037434    1.088    0.081
       201  -9.3439    171.3098     28.1871   5.9950689009e+01   3.8326839803e+01    0.3320866    0.1977124 -53.88  0.001219797    1.592    0.372
       202  -9.3367    103.6499     28.3455   7.1768203745e+01   5.5889714180e+01    0.2864175    0.2228857 -86.99 0.0007135958    1.426    0.299
       203  -8.5020    163.8848     27.6773   6.0699845907e+01   4.0252665682e+01    0.1954683    0.1628093  88.91 0.0005187119    1.089    0.082
       204  -9.6678    176.8289     25.2335   5.8490793956e+01   3.7311735611e+01    0.2516507    0.2128515 -59.99 0.0004475951    1.075    0.069
       205  -8.7679     85.4690     26.3431   7.6083585779e+01   6.0722703262e+01    0.2981124    0.1670915  61.26  0.001312354    1.723    0.420
       206  -9.0505    127.4524     23.6387   6.4820461307e+01   5.0233181066e+01    0.2697493    0.2315606  56.72  0.000691265    1.163    0.140
       207  -9.4936     21.9598    231.4805   1.3830623645e+02   2.3111618744e+01    0.1839427   0.09350418  31.37  0.001035671    1.601    0.375
       208 -10.3040    153.2532    225.4146   1.0807778884e+02   7.7472850214e+00    0.4066251    0.3210591  37.25  0.002642956    1.285    0.222
       209 -10.1655    150.1259    219.7183   1.0794907878e+02   9.0897849141e+00    0.3732674    0.2903808  -2.75  0.002340255    1.305    0.234
       210 -10.2842     73.3549     21.5251   7.7910959667e+01   6.4262426644e+01    0.4312547     0.307269  87.83  0.001213931    2.000    0.500
       211  -9.0926    181.3465    222.8714   1.0205562607e+02   4.3443628253e+00    0.2470061    0.2198221  51.84  0.001387199    1.683    0.406
       212  -9.1050    111.4395     20.5707   6.6758859805e+01   5.4822487476e+01    0.4673006    0.2338314  85.67  0.001620174    2.739    0.635
       213  -9.4114    123.3905     19.4540   6.3992289473e+01   5.1789804793e+01    0.2882279    0.2230988 -72.54  0.000679352    1.322    0.243
       214  -9.7263    177.0805    218.9140   1.0230078102e+02   5.4877711789e+00     0.235251    0.2035492 -17.40 0.0006180016    1.253    0.202
       215  -8.5059    219.2038    221.9349   9.5045845544e+01  -2.4612429932e-01    0.1543422    0.1313569   2.49 0.0006535802    1.297    0.229
       216  -9.1836     23.5336     18.2346   1.0334578707e+02   7.4114859109e+01    0.2584947    0.2145573   5.83  0.001173642    1.096    0.088
       217  -9.3266     59.2805     17.3582   8.1397569564e+01   6.7979048091e+01    0.2616159     0.220282  31.03  0.000474504    1.097    0.089
       218  -8.2077     62.2242    221.0396   1.2836196635e+02   2.0799308989e+01    0.2081791    0.1499557 -84.81 0.0004865258    1.593    0.372
       219  -9.3634     61.6680    216.2478   1.2810896360e+02   2.1834730104e+01    0.3334935    0.2264765  64.74  0.001924922    1.473    0.321
       220 -11.7283     35.9448    214.8804   1.3425563799e+02   2.5047660260e+01    0.7373042    0.5484335  60.13  0.002331579    1.157    0.136
       221 -10.0341    119.9681    218.2278   1.1442626683e+02   1.3628591033e+01    0.2912619    0.2535646  67.98 0.0006547692    1.406    0.289
       222  -9.8007     11.3148    216.4924   1.4016108825e+02   2.7107542347e+01    0.3269927    0.1868701  28.76  0.001302195    1.571    0.363
       223  -7.8659     90.7495    214.9772   1.2092587251e+02   1.8326321439e+01    0.1402148     0.114724 -67.31  0.000365817    1.461    0.316
       224  -8.9466    234.0929    211.9816   9.1043374515e+01  -7.4106853965e-01    0.3410828    0.2331431  45.27  0.002182467    2.356    0.576
       225  -8.7605    185.5329    210.3761   9.9341792513e+01   5.6012215858e+00    0.2276225    0.1149918 -40.10  0.001193274    2.115    0.527
       226 -10.2889    150.1480    206.7047   1.0605370458e+02   1.1257768395e+01    0.5028455    0.3438514 -61.70  0.002656008    2.113    0.527
       227  -9.1732    248.5766    208.5057   8.8249463371e+01  -1.9430070315e+00    0.1927365    0.1414822  -4.01 0.0006439931    1.027    0.026
       228  -9.6044    219.3057    209.1257   9.3020123928e+01   1.3760536636e+00    0.2052657    0.1315647  15.18   0.00131528    1.381    0.276
       229  -9.2963     26.2171    207.7314   1.3622767897e+02   2.7557590443e+01    0.2580663    0.2136213 -33.64 0.0009799242    1.668    0.400
       230  -9.3194    145.0727    201.2059   1.0633973756e+02   1.2981985343e+01    0.2616614    0.2283448  85.05 0.0004183314    1.623    0.384
       231 -10.5480    229.8605    203.8875   9.0421501340e+01   7.6812186150e-01    0.4549261    0.2188831 -17.44  0.002358821    2.363    0.577
       232 -10.2436    232.7071    195.5688   8.8587149221e+01   1.4936843349e+00    0.5689531    0.2289731 -36.83  0.002719451    2.316    0.568
       233  -9.5545    236.9361    189.2636   8.6855182432e+01   1.7918965447e+00    0.5304938    0.2953467 -28.71  0.003242968    1.548    0.354
       234  -8.4937     98.9990    205.9199   1.1787787514e+02   1.8971085889e+01     0.204407    0.1719759  37.41 0.0004534064    1.011    0.011
       235  -9.8205    123.8083    203.8352   1.1161941031e+02   1.5724156469e+01    0.3606859    0.2200344 -48.21 0.0009919784    1.879    0.468
       236  -9.1508    127.0458    199.7400   1.1026902340e+02   1.6010094341e+01    0.3614555    0.2434926  68.52  0.001726986    2.333    0.571
