#   1 NUMBER                 Running object number                                     
#   2 MAG_AUTO               Kron-like elliptical aperture magnitude                    [mag]
#   3 X_IMAGE                Object position along x                                    [pixel]
#   4 Y_IMAGE                Object position along y                                    [pixel]
#   5 X_WORLD                Barycenter position along world x axis                     [deg]
#   6 Y_WORLD                Barycenter position along world y axis                     [deg]
#   7 A_WORLD                Profile RMS along major axis (world units)                 [deg]
#   8 B_WORLD                Profile RMS along minor axis (world units)                 [deg]
#   9 THETA_WORLD            Position angle (CCW/world-x)                               [deg]
#  10 FWHM_WORLD             FWHM assuming a gaussian core                              [deg]
#  11 ELONGATION             A_IMAGE/B_IMAGE                                           
#  12 ELLIPTICITY            1 - B_IMAGE/A_IMAGE                                       
         1 -15.0853      9.8583    151.6529   1.4384966131e+02   4.2269793731e+01     9.504512     4.183407  72.82   0.04328493    3.035    0.671
         2 -13.4206    194.9856     30.2499   6.9195883897e+01   3.2946361248e+01     1.328986      1.25684 -69.51  0.006804977    1.128    0.114
         3 -13.5987    210.3719     10.4182   6.2461358375e+01   3.1511611911e+01     1.239599    0.9211164  38.76  0.007142872    1.766    0.434
         4 -11.8304      2.1185     12.2602   1.1785564548e+02   7.0576001480e+01    0.4161806    0.1782601 -49.05  0.002457449    2.233    0.552
         5 -12.1122      2.3796      4.0834   1.1441941505e+02   7.1704058871e+01    0.4939258    0.2963498 -51.00  0.003301856    2.273    0.560
         6 -10.7230      2.2789     38.1738   1.2645311126e+02   6.6407111479e+01    0.2560812   0.08075793 -57.35  0.001218757    2.814    0.645
         7 -12.1118    238.1995    248.6021   1.1024335164e+02  -1.2388176825e+01    0.6789265    0.1877268  41.20  0.002765303    3.225    0.690
         8  -9.4043    111.5171    250.5269   1.3397642623e+02   8.2820044043e+00    0.1250771   0.09764687  60.50 -5.361852e-07    1.017    0.017
         9 -10.9881    100.8636    245.8467   1.3541797645e+02   1.0811503786e+01    0.2381119    0.1723274  72.87 0.0009127735    1.251    0.200
        10 -10.5102     99.2215    249.3844   1.3608817875e+02   1.0432648870e+01    0.3188941    0.1680817  52.75  0.001761971    1.542    0.351
        11 -10.5058     97.3715    245.7665   1.3604771917e+02   1.1373184922e+01     0.244783    0.1779101  82.52   0.00100798    1.320    0.242
        12  -8.9681     66.9602    250.0375   1.4183238628e+02   1.5080924559e+01    0.1422909    0.1049318  68.13   0.00035361    1.013    0.012
        13 -10.7139     29.2431    249.9880   1.4804251015e+02   1.9914736247e+01     0.291609    0.2211996  74.34  0.002277336    1.146    0.127
        14 -10.8943     33.5119    248.5107   1.4726926844e+02   1.9681746126e+01    0.3809929    0.1852189  59.27  0.002373195    1.602    0.376
        15 -12.0165     34.9061    244.1833   1.4675642567e+02   2.0316877895e+01    0.5168514    0.2988057  43.33  0.003379096    1.749    0.428
        16 -12.2031     11.8711    240.4041   1.5020624352e+02   2.3611886087e+01    0.5973966    0.2299264  78.79  0.002720923    2.543    0.607
        17 -11.3229     14.2950    249.2348   1.5031902934e+02   2.1730231227e+01    0.5791978    0.2216338  37.65  0.003225608    2.921    0.658
        18 -10.9378      2.8335    248.4599   1.5200355346e+02   2.3068216600e+01    0.3590549    0.2056457 -87.68  0.002649238    1.358    0.264
        19 -10.1549    198.5315    246.0339   1.1706655475e+02  -5.7277562522e+00    0.1525916    0.1116101 -74.79 0.0008096242    2.542    0.607
        20 -11.0674     20.7237    243.6771   1.4900385263e+02   2.2046554638e+01    0.3256049    0.1471889  75.51  0.001347251    1.941    0.485
        21 -10.3187    125.4982    250.0000   1.3134354954e+02   6.0876836290e+00    0.2856103   0.05919944  42.34 0.0009412316    3.987    0.749
        22 -10.6840      1.7547    238.9482   1.5169277295e+02   2.4914204888e+01    0.3676252   0.09462859 -75.12  0.001818287    3.107    0.678
        23 -10.9247    234.5240    238.8981   1.0927703235e+02  -1.0588915692e+01     0.317636    0.1958937 -55.87  0.001558453    3.193    0.687
        24  -9.7330    185.5151    239.4646   1.1850424715e+02  -2.5290666235e+00    0.1294868    0.1082828  34.65 1.367884e-05    1.010    0.010
        25 -10.5284    119.8580    238.0416   1.3096155731e+02   9.1410088269e+00    0.2980447    0.1457632 -74.62   0.00126356    3.231    0.690
        26 -11.8793    140.6229    249.0844   1.2841031759e+02   3.7018800637e+00    0.5016797    0.2475232  51.26  0.002519859    1.764    0.433
        27 -10.8703    141.5831    230.5083   1.2573228169e+02   6.7593606220e+00    0.3413815    0.1151988  41.66  0.001323709    2.600    0.615
        28 -10.9961      4.7030    227.8458   1.5063627377e+02   2.6719297699e+01    0.2391034    0.1693632  29.60  0.001721881    2.167    0.539
        29  -9.7124     60.0838    227.1049   1.4103784418e+02   2.0414450769e+01    0.2687924    0.1302437  81.19  0.001286506    2.437    0.590
        30 -12.1862      5.5325    190.1204   1.4806946041e+02   3.4259374579e+01    0.7713848    0.3440277 -63.39  0.004406638    2.016    0.504
        31 -13.1203      9.2064    207.1428   1.4860217441e+02   3.0385452368e+01    0.8005447    0.7103501 -87.29  0.004347106    1.396    0.284
        32 -10.3403    228.4763    228.0162   1.0849858000e+02  -8.1354398375e+00    0.2803959    0.2154143 -60.19  0.001611055    2.099    0.523
        33  -8.8669    152.5290    212.9409   1.2085724191e+02   8.0298552909e+00    0.1804132    0.1381091 -53.88 0.0003350481    1.455    0.313
        34  -9.3524     34.8010    202.2134   1.4352095387e+02   2.8730150726e+01    0.1765222    0.1256417  79.41 0.0004237697    1.122    0.109
        35  -9.6325    191.9939    192.9907   1.0912274008e+02   4.1680019993e+00    0.4407162    0.2329616 -66.84  0.001260343    5.710    0.825
        36 -11.5822     61.7511    197.9908   1.3774891529e+02   2.6289301624e+01    0.2878185    0.2418923 -53.73  0.001257355    1.496    0.332
        37 -10.1558    230.6953    232.0179   1.0879031817e+02  -9.0554597453e+00    0.2385098    0.1690366 -47.39  0.001202146    1.885    0.470
        38 -11.8563     67.7965    189.8537   1.3551925215e+02   2.7257867963e+01    0.2841505    0.2263957 -64.55 0.0004867669    1.294    0.227
        39  -9.1416     50.1456    196.3458   1.3993505102e+02   2.8161076396e+01    0.1661821     0.131407  72.50 0.0003569646    1.096    0.087
        40 -10.8601     77.7584    177.2651   1.3163602199e+02   2.8679042717e+01    0.2382035    0.2057641 -88.04  0.000301079    1.025    0.025
        41 -13.1702     64.6011    175.2226   1.3432912387e+02   3.1019883179e+01    0.4947627    0.2762106 -46.90  0.001494169    2.187    0.543
        42 -10.0899     98.0516    174.4956   1.2654090975e+02   2.6108485579e+01    0.3231362    0.1978241 -63.16 0.0003629525    1.592    0.372
        43 -11.7810     85.1199    167.9004   1.2850489124e+02   2.9730283843e+01    0.6182387    0.5284646 -64.55  0.003603186    1.155    0.134
        44  -9.9624     98.1275    151.9988   1.2255547032e+02   3.1350734589e+01    0.2859963    0.2615982 -48.99 0.0007868506    1.178    0.151
        45  -9.0109    100.9401    147.9680   1.2106832175e+02   3.1818028009e+01    0.2152344    0.1748656 -23.02 0.0003499344    1.614    0.381
        46 -12.0380     86.5492    151.2186   1.2531418146e+02   3.3433164735e+01    0.2982844    0.2454692 -48.58 0.0006755003    1.275    0.216
        47 -12.3785     67.3122    143.8164   1.2888716892e+02   3.8010836097e+01    0.7554968    0.5033956  75.29  0.002916617    1.814    0.449
        48  -9.6443    109.7292    136.9199   1.1652496779e+02   3.2838828879e+01    0.3777554    0.2394122 -28.62  0.001493155    2.307    0.567
        49 -12.7365     35.0736    231.8379   1.4585979935e+02   2.2653004288e+01    0.3013192    0.2301317 -71.81 0.0007632388    1.466    0.318
        50 -10.5025     96.8382    134.3825   1.1935371133e+02   3.5724465298e+01    0.2581403     0.225815 -45.32 0.0005857412    1.167    0.143
        51 -10.7544     56.5158    129.9825   1.2928964586e+02   4.2657590706e+01    0.3145036    0.1238268 -67.29  0.001213227    2.643    0.622
        52  -8.5276     79.5553    131.5670   1.2338455856e+02   3.9158322566e+01    0.1410081    0.1266083 -76.25 0.0001892164    1.054    0.051
        53  -8.8553    106.7324    123.9109   1.1438156263e+02   3.6409279322e+01    0.1954409    0.1781104 -61.49 0.0003040416    1.050    0.048
        54 -10.4589     32.9618    132.4400   1.3590528223e+02   4.4634096333e+01    0.2357241    0.1740194  72.77 0.0007893914    1.470    0.320
        55 -10.1609    167.8226    112.9370   9.6367870192e+01   2.5750507072e+01    0.3420387    0.2741764 -74.91 0.0008584938    1.465    0.317
        56  -9.3307    203.2148    111.5996   8.8673185467e+01   1.7634993442e+01    0.2153241    0.1420522  41.83 0.0007249271    1.653    0.395
        57  -9.7874    242.3346     92.6704   7.7553170121e+01   1.2132081751e+01    0.1510509    0.1021061 -68.72 -0.000150056    1.726    0.421
        58  -8.8566    184.5197     77.4913   8.3461047501e+01   2.8476344719e+01    0.1502745    0.1457282  73.74 3.874244e-05    1.044    0.042
        59  -9.5706    157.5197     76.5154   8.8757997537e+01   3.5281021915e+01    0.1510343    0.1466823  70.98 5.594244e-05    1.013    0.013
        60 -14.3604     40.9598    223.9655   1.4422646700e+02   2.3502622112e+01     1.608413     1.378444   2.97  0.007090073    2.207    0.547
        61  -9.2136     44.2023     68.1409   1.1919181576e+02   5.7551754909e+01    0.2034842    0.1521407  56.13 0.0007550952    1.984    0.496
        62  -9.8097     34.5351     63.3849   1.2127325239e+02   5.9433402439e+01    0.3368758    0.1754365  44.54  0.001691881    2.842    0.648
        63 -10.6154     16.2370     56.0118   1.2594228812e+02   6.2315618659e+01    0.1956776    0.1574382  16.02 0.0005040259    1.474    0.322
        64 -10.0046      2.0000     50.9917   1.2998784853e+02   6.4111797279e+01    0.1855742   0.04866169 -59.02 0.0008081125    2.982    0.665
        65  -8.8416     88.6678    249.2926   1.3797201882e+02   1.2068507993e+01    0.1271197   0.07262141  66.61 0.0002519391    1.633    0.388
        66 -10.4503     81.5130    248.6866   1.3918254810e+02   1.3244844385e+01    0.2576875    0.1351779  62.65  0.001307879    1.709    0.415
        67 -10.2335     46.5835    248.8718   1.4516774572e+02   1.8006222691e+01    0.2544443    0.1169919  66.12 0.0009763682    1.932    0.482
        68 -11.6080    249.1633    249.5839   1.0847997247e+02  -1.4113198633e+01    0.5648528     0.288504 -26.27  0.003200538    2.068    0.516
