#   1 NUMBER                 Running object number                                     
#   2 MAG_AUTO               Kron-like elliptical aperture magnitude                    [mag]
#   3 X_IMAGE                Object position along x                                    [pixel]
#   4 Y_IMAGE                Object position along y                                    [pixel]
#   5 X_WORLD                Barycenter position along world x axis                     [deg]
#   6 Y_WORLD                Barycenter position along world y axis                     [deg]
#   7 A_WORLD                Profile RMS along major axis (world units)                 [deg]
#   8 B_WORLD                Profile RMS along minor axis (world units)                 [deg]
#   9 THETA_WORLD            Position angle (CCW/world-x)                               [deg]
#  10 FWHM_WORLD             FWHM assuming a gaussian core                              [deg]
#  11 ELONGATION             A_IMAGE/B_IMAGE                                           
#  12 ELLIPTICITY            1 - B_IMAGE/A_IMAGE                                       
         1  -8.7707     12.9451     30.3858   2.9186450681e+02   7.3472507533e+00   0.01460818  0.009549681 -84.45  0.001089637    1.953    0.488
         2  -8.9392     74.0501     19.5349   2.9108930545e+02   7.1065308365e+00   0.01531433   0.00963519 -83.46 0.0006852961    2.075    0.518
         3  -8.2033     29.9654     16.1863   2.9157945269e+02   7.4088351030e+00   0.01029053  0.008683505  63.23 0.0006747622    1.300    0.231
         4  -7.8068     83.3940     11.1787   2.9092933487e+02   7.1465521357e+00  0.009358389  0.006396624 -78.94 0.0006161406    1.712    0.416
         5  -8.5615     55.6520      9.9401   2.9124309142e+02   7.3269858547e+00   0.01250333  0.009403644  72.21 0.0007870925    1.614    0.380
         6  -7.8852     47.6154      9.9054   2.9133601756e+02   7.3754806186e+00  0.009468821   0.00634509 -80.26 0.0009343596    1.790    0.441
         7  -8.5919     90.8257      9.0911   2.9083032551e+02   7.1259692413e+00   0.01052551  0.008765621  66.87 0.0007358005    1.340    0.254
         8  -7.8553    101.4358      8.4390   2.9070340826e+02   7.0697985039e+00  0.006462066  0.006432665  77.35 0.0001212961    1.022    0.022
         9  -8.1699     69.0130      7.6518   2.9107410159e+02   7.2732676233e+00   0.01144368  0.006902415 -61.89 0.0007462815    1.654    0.395
        10  -8.7759     33.1886      5.1501   2.9147383132e+02   7.5164041980e+00   0.01681808   0.01025131 -89.66  0.001381267    2.400    0.583
        11  -8.6353     78.9574      3.7162   2.9093451420e+02   7.2588908739e+00   0.01244181  0.009713214 -79.70 0.0008753335    1.417    0.294
        12  -7.5511     44.6618      3.3051   2.9132941131e+02   7.4689941503e+00  0.006985756  0.004956482  60.98 0.0007040416    1.675    0.403
        13  -7.8922     15.9660      3.4572   2.9166305590e+02   7.6387526593e+00  0.009586135  0.004860208  49.84 0.0004971684    2.359    0.576
        14  -7.7402    115.4348      2.4588   2.9050425666e+02   7.0544387681e+00  0.006548549   0.00636867  69.61 8.294687e-05    1.059    0.056
        15  -8.4322     62.3043      1.6039   2.9111439617e+02   7.3829403326e+00   0.01133391  0.007271076  39.44 0.0005153185    1.563    0.360
        16  -9.1334     78.5425    244.0418   2.9242140470e+02   4.4952646908e+00   0.02208402  0.009511679  50.64   0.00165211    3.133    0.681
        17  -8.9290    249.1283    249.1222   2.9048547861e+02   3.4138972428e+00   0.02338906   0.01073061 -46.97     0.002006    2.215    0.549
        18  -9.2339    240.5995    239.7806   2.9052610444e+02   3.5725782070e+00   0.03097763  0.008528756 -47.96  0.002049573    3.707    0.730
        19  -9.8028    248.6828    241.9927   2.9044664380e+02   3.4985667779e+00   0.03117639   0.01354184 -61.14  0.001821685    2.269    0.559
        20  -8.4095    247.5205    234.9830   2.9041679507e+02   3.5861690445e+00   0.01185213  0.009676526  25.58 0.0006690355    1.234    0.190
        21 -10.0093    246.5973    229.4521   2.9039330902e+02   3.6553287460e+00   0.03425793   0.01555267 -59.42   0.00245523    2.130    0.531
        22  -9.5841    233.4815    246.6592   2.9065051114e+02   3.5362218032e+00   0.03247853   0.01473624 -47.95  0.002390364    2.205    0.547
        23  -9.3508    210.8930    246.6055   2.9091044957e+02   3.6724942783e+00   0.01563522    0.0100574 -78.56  0.000898885    1.870    0.465
        24  -8.2856    191.5486    249.6990   2.9115247265e+02   3.7530184744e+00   0.01166471  0.007318227  48.81 0.0008667832    1.746    0.427
        25  -8.7524    132.5869    248.2391   2.9182348401e+02   4.1234021988e+00   0.01794566   0.01125734  71.06  0.001585139    2.301    0.565
        26  -8.5612     93.9734    249.4815   2.9227669411e+02   4.3403041008e+00   0.01622597   0.01029769  78.71  0.001466213    2.309    0.567
        27  -7.4844     86.2766    250.6600   2.9237276345e+02   4.3727785259e+00  0.006791881  0.005055401  68.66   0.00046495    1.617    0.382
        28  -7.5147     40.3304    248.6514   2.9289082187e+02   4.6705045792e+00  0.007136244  0.004969288  64.18 0.0007048895    1.765    0.433
        29  -8.9167      9.3788    243.7624   2.9321823865e+02   4.9114968357e+00   0.01674201  0.008709699 -78.97  0.001357745    2.747    0.636
        30  -9.0925    202.0201    243.0985   2.9099110815e+02   3.7661175417e+00   0.01708331  0.009324769 -63.47  0.001096424    1.859    0.462
        31  -8.8457    169.1017    243.6425   2.9137400268e+02   3.9574046920e+00    0.0111494  0.009120398 -85.22  0.000573146    1.357    0.263
        32  -7.8431    139.4830    244.4955   2.9172089998e+02   4.1251787034e+00  0.006621469  0.006380342  65.03 0.0001283586    1.071    0.066
        33  -9.4555    160.4644    240.7205   2.9145563519e+02   4.0428457681e+00   0.02038031   0.01256294  84.95  0.001288518    2.447    0.591
        34  -7.5955     49.6848    243.3384   2.9275024527e+02   4.6758477913e+00  0.007011417  0.005004116  64.70 0.0007047721    1.699    0.412
        35  -9.3611    194.2829    240.2178   2.9106255330e+02   3.8457148329e+00   0.01685742   0.01041352 -75.18 0.0009654443    1.896    0.473
        36  -9.3112    183.1979    240.4156   2.9119157977e+02   3.9099697502e+00   0.02304381     0.013282  57.67  0.002063744    2.275    0.560
        37  -8.1173    153.2212    242.2184   2.9154840436e+02   4.0690374660e+00  0.009325416  0.007681026  68.09 0.0007876829    1.366    0.268
        38  -8.1409     88.2051    242.1866   2.9229847328e+02   4.4588351474e+00  0.009253899  0.007635361  80.66 0.0006053028    1.381    0.276
        39  -8.4528    214.0761    241.5050   2.9084233508e+02   3.7120642526e+00  0.009951335   0.00650994  27.62   0.00062614    1.533    0.348
        40  -8.5053      3.4947    240.9908   2.9326921199e+02   4.9785071110e+00   0.01461454  0.006701477  56.22   0.00103804    3.551    0.718
        41  -8.2369    146.4384    239.9221   2.9161252156e+02   4.1361411706e+00  0.009184439  0.005737011  82.56 0.0007030365    2.393    0.582
        42  -9.0532    135.3738    238.9082   2.9173394365e+02   4.2141362347e+00   0.01177501   0.00869002  55.19  0.001051848    1.507    0.336
        43  -9.0173    129.3160    239.1251   2.9180517870e+02   4.2479411067e+00    0.0134616  0.007687586  53.65  0.001217837    2.137    0.532
        44  -9.3035    231.0106    236.9973   2.9061940785e+02   3.6622051548e+00   0.01700266   0.01103722 -84.63  0.001173042    1.985    0.496
        45  -7.9502    209.1308    238.2150   2.9087905450e+02   3.7796147044e+00  0.009194296   0.00772857  74.41  0.000611292    1.338    0.253
        46  -8.1817     25.8120    237.2133   2.9298834943e+02   4.8889371063e+00   0.01184541  0.006554436  64.23 0.0009537022    2.841    0.648
        47  -9.7432    214.8647    233.2378   2.9078228768e+02   3.8024450766e+00   0.03133485   0.01698597  70.65  0.002336577    3.525    0.716
        48  -8.7670    203.3181    235.0141   2.9092633062e+02   3.8513499121e+00   0.01645027   0.01058716  82.32  0.001209952    2.232    0.552
        49  -9.6593    175.8629    233.5395   2.9123381729e+02   4.0331283193e+00   0.02576722   0.01387204 -79.23  0.002161711    2.599    0.615
        50  -7.9301    170.2686    235.9332   2.9131307934e+02   4.0391423015e+00  0.009290168  0.008192905 -62.55 0.0004457827    1.133    0.118
        51  -9.1800    109.0414    234.6335   2.9201154910e+02   4.4211091769e+00   0.02485875   0.01170602  45.25  0.001331442    2.326    0.570
        52  -8.3141     99.7721    234.6531   2.9211866573e+02   4.4763789430e+00   0.01264173   0.00846002  76.84  0.001143742    2.042    0.510
        53  -9.0340     78.9702    234.5959   2.9235846534e+02   4.6015088031e+00   0.01448531   0.01012039  65.83  0.001032768    1.778    0.438
        54  -8.9712      8.1618    234.8494   2.9317770040e+02   5.0214460460e+00  0.009590252  0.007703225 -31.00  0.001075364    1.330    0.248
        55  -8.1041    122.8761    234.1235   2.9184873526e+02   4.3441179059e+00   0.01052468  0.008767961  67.51 0.0006973788    1.339    0.253
        56  -9.4705     68.2404    232.2990   2.9246824922e+02   4.6921299439e+00    0.0245958   0.01342357  66.11  0.001938293    3.089    0.676
        57  -8.6237    194.2407    232.8393   2.9101757984e+02   3.9308794913e+00  0.009929086  0.008800438  69.89 0.0005590301    1.222    0.181
        58  -8.9776    140.0733    229.9533   2.9162461901e+02   4.2890744058e+00    0.0185855   0.01189719  70.30  0.001376583    2.186    0.543
        59  -8.6825    132.8389    233.0746   2.9172730793e+02   4.2964974353e+00   0.01074866  0.008902121  64.07  0.001173451    1.338    0.253
        60  -8.4884     92.7023    232.2359   2.9218542661e+02   4.5465334992e+00   0.01774169  0.008021687  51.05   0.00123339    2.922    0.658
        61  -9.9172    236.3014    230.1563   2.9051626159e+02   3.7091072266e+00   0.02710361   0.01083346 -55.77  0.000844865    2.336    0.572
        62  -9.3890    186.4815    230.6492   2.9109355422e+02   4.0026629593e+00   0.01917134   0.01221543  83.37  0.001255767    2.277    0.561
        63  -8.1229    157.7311    232.1592   2.9143446371e+02   4.1577950131e+00   0.01038531   0.00832125 -89.36 0.0006549971    1.424    0.298
        64  -9.2694    151.3507    229.0280   2.9148879794e+02   4.2321084454e+00   0.01822992   0.01127642  74.88  0.001616686    2.443    0.591
        65  -9.4892    148.8047    224.5300   2.9149048310e+02   4.2991628142e+00   0.02299262   0.01381649  71.21  0.001525999    2.564    0.610
        66  -8.8965      1.6924    230.7679   2.9322741921e+02   5.1070370720e+00   0.01262474  0.007886746  86.81 0.0007671278    2.322    0.569
        67  -8.0240    229.5701    228.7484   2.9058513642e+02   3.7657508550e+00  0.008919111  0.006468436 -79.34 0.0004227348    1.571    0.364
        68  -8.7627    162.4891    228.2586   2.9135555553e+02   4.1741577460e+00    0.0180041   0.01054733  53.63  0.001060353    2.056    0.514
        69  -8.7337    128.1762    227.5592   2.9174718587e+02   4.3879490166e+00    0.0146417  0.009984149  62.83  0.001324947    1.812    0.448
        70  -8.1353    119.9668    227.4616   2.9184133946e+02   4.4382629020e+00   0.01511161  0.008641866 -70.37  0.001407236    1.948    0.487
        71  -8.3151    223.7311    226.4835   2.9063845437e+02   3.8268906643e+00   0.01553081  0.006864303 -47.96 0.0009571353    2.265    0.559
        72  -9.4384    225.3988    221.6045   2.9058914256e+02   3.8729998186e+00   0.01649519   0.01229043  53.56  0.001644532    1.471    0.320
        73  -8.7252    206.1586    226.2902   2.9083981114e+02   3.9346761104e+00   0.01228787  0.008360866  76.99 0.0008298177    1.977    0.494
        74  -7.8252     58.9685    228.0000   2.9254892485e+02   4.7970756526e+00   0.01088778  0.003765117  27.37 0.0006468577    2.909    0.656
        75  -8.3119     49.2244    226.8737   2.9265454542e+02   4.8682740653e+00   0.01381061  0.009511021  67.20  0.001131097    1.842    0.457
        76  -8.8312     94.7066    224.6923   2.9211592392e+02   4.6214216551e+00   0.02318351   0.01184476  56.96  0.001864264    2.830    0.647
        77  -8.9056    216.6910    223.8145   2.9070313508e+02   3.8998947193e+00    0.0177588   0.01046343 -71.08  0.001056261    1.900    0.474
        78  -8.9755    180.7019    224.3013   2.9112109490e+02   4.1104170110e+00   0.01607057   0.01099677  57.26 0.0006486907    1.709    0.415
        79  -8.7969    172.9252    223.0597   2.9120314484e+02   4.1713833285e+00    0.0152915  0.009520344 -77.87  0.001067918    1.949    0.487
        80  -7.9059    113.8025    224.2982   2.9189303693e+02   4.5116188616e+00  0.009091388  0.008157145 -77.05 0.0004467581    1.158    0.137
        81  -8.6698    104.7668    223.7115   2.9199374249e+02   4.5724906936e+00   0.01547704   0.01052463  67.68  0.001530802    1.894    0.472
        82  -7.5739     53.5728    234.5196   2.9265125010e+02   4.7542126422e+00  0.006563964  0.006363385  74.19  9.26272e-05    1.063    0.060
        83  -7.4872     38.2812    224.6508   2.9276729760e+02   4.9592421591e+00  0.006855917  0.005047375  68.57 0.0003823305    1.647    0.393
        84  -9.4650    192.5570    221.4001   2.9096649319e+02   4.0726328769e+00   0.01885074   0.01281837  78.78  0.001184188    1.983    0.496
        85  -9.1859    160.0434    221.1118   2.9133975710e+02   4.2711030460e+00    0.0258303   0.01056757  48.37  0.001885007    3.104    0.678
        86  -8.3013    140.5363    222.8227   2.9157538782e+02   4.3683994702e+00  0.009241436  0.006445074 -83.16 0.0009311914    1.723    0.419
        87  -9.1880    239.0010    221.0245   2.9042882275e+02   3.7979228633e+00   0.01765789   0.01039492 -55.05  0.001265169    1.642    0.391
        88  -9.5135      7.1176    221.8482   2.9311009700e+02   5.1774727061e+00   0.02110213  0.008370447  48.99  0.001514675    3.360    0.702
        89  -8.4603     82.6632    220.6590   2.9223019926e+02   4.7399488250e+00   0.01361962  0.008758024  64.60  0.001022538    2.050    0.512
        90  -8.1202     73.1968    221.0323   2.9234181491e+02   4.7922754139e+00   0.01103398  0.007455565  78.87 0.0007666488    2.003    0.501
        91  -8.1392     27.4989    221.5275   2.9287268554e+02   5.0595914648e+00  0.006500469  0.006490965 -87.82 1.746314e-05    1.016    0.015
        92  -8.3804    210.1019    219.0238   2.9074954594e+02   3.9946019166e+00   0.01311295  0.008791855 -87.29 0.0005947197    1.918    0.479
        93  -8.2691    202.5363    220.0339   2.9084300015e+02   4.0284243741e+00  0.009973818  0.006539661 -64.33 0.0004795101    1.548    0.354
        94  -9.0909    120.4283    219.3005   2.9178580445e+02   4.5294776179e+00   0.02190041   0.01054609  53.08  0.001676791    2.807    0.644
        95  -8.5888    249.3602    218.6805   2.9029501343e+02   3.7626079528e+00   0.01228382  0.007571214  48.05  0.001030662    1.767    0.434
        96  -9.2598    247.2590    215.5162   2.9029968875e+02   3.8116344633e+00    0.0205443   0.01185473 -43.40  0.001708014    1.814    0.449
        97  -9.2267    133.0002    216.1883   2.9162152634e+02   4.4899692094e+00   0.02512173   0.01404164  68.21  0.002010556    3.013    0.668
        98  -8.1143    112.1827    217.7884   2.9187169305e+02   4.5962900151e+00   0.01183332   0.00655047  64.18 0.0009515752    2.845    0.648
        99  -8.9478     51.4098    217.1602   2.9256967527e+02   4.9671210804e+00   0.01620667   0.01091972  86.97 0.0009979147    1.971    0.493
       100  -8.7430    169.4729    216.4459   2.9120222141e+02   4.2682331547e+00   0.01424351   0.01032406  78.08 0.0008400907    1.743    0.426
       101  -8.5285    142.9049    216.4874   2.9150904781e+02   4.4271406898e+00   0.01265173  0.009260423 -89.93 0.0008961873    1.662    0.398
       102  -8.2029     61.8361    217.1623   2.9244925456e+02   4.9047843973e+00   0.01057438  0.008609892  65.70 0.0008898358    1.380    0.275
       103  -8.0605     18.5065    216.0939   2.9294324259e+02   5.1758515680e+00    0.0101716   0.00650436 -62.57  0.001023615    1.563    0.360
       104  -8.6974    232.3518    214.5843   2.9046570070e+02   3.9119725250e+00   0.01361351   0.01075987  78.60 0.0008123019    1.490    0.329
       105  -8.1658    185.8001    214.7242   2.9100326781e+02   4.1900388454e+00   0.01213608  0.008333144  76.31 0.0008978365    1.937    0.484
       106  -8.0969    154.3892    215.1651   2.9136837006e+02   4.3734833865e+00  0.009393386  0.006388936 -79.00 0.0007127953    1.722    0.419
       107  -8.8802     93.5059    214.2317   2.9206547515e+02   4.7490913005e+00   0.01941757   0.01113946  61.67  0.001432234    2.478    0.597
       108  -7.5407     41.3438    215.6938   2.9267695256e+02   5.0441445164e+00   0.00703199  0.004944562  60.77  0.000704237    1.691    0.408
       109  -9.3958     73.2867    212.1185   2.9228600347e+02   4.8944161932e+00    0.0320785   0.01296087  51.45  0.002218374    3.720    0.731
       110  -8.0854    224.9396    212.8907   2.9054067507e+02   3.9760076145e+00   0.01100296  0.007757405  66.46 0.0009834716    1.761    0.432
       111  -9.4406    213.7699    212.2116   2.9066524251e+02   4.0509455022e+00   0.01654352   0.01242182  56.47 0.0006206754    1.486    0.327
       112  -8.4927    161.6455    212.4669   2.9126801492e+02   4.3610098457e+00   0.01254267  0.009370666  75.99 0.0007293249    1.643    0.392
       113  -7.7406    106.4641    212.9507   2.9190796039e+02   4.6862556798e+00  0.008979333  0.005722527  80.86 0.0006893288    2.286    0.563
       114  -8.9496    204.3363    211.0321   2.9076673358e+02   4.1211979773e+00   0.01536823   0.01052774  89.70 0.0008275481    1.884    0.469
       115  -9.4243    175.6692    210.2226   2.9109238168e+02   4.3026748696e+00   0.02149716   0.01216497  58.30   0.00144886    2.385    0.581
       116  -8.9383    116.5032    210.7297   2.9177837694e+02   4.6516952581e+00   0.01713411   0.01053656  60.05   0.00108032    2.105    0.525
       117  -9.6694      6.7661    209.4741   2.9303829761e+02   5.3221434581e+00   0.03038071   0.01604328  81.60  0.002057853    4.322    0.769
       118  -8.7488    147.9989    210.6587   2.9141435958e+02   4.4636986052e+00   0.01378951   0.01059159  81.58  0.001257399    1.564    0.360
       119  -8.0974     32.4438    210.9028   2.9275036777e+02   5.1524851203e+00  0.009205474  0.005727883  82.37 0.0008047006    2.408    0.585
       120  -9.2553    236.7146    207.6337   2.9037252796e+02   3.9656992131e+00   0.02397664   0.01428614 -69.54  0.001612361    1.831    0.454
       121  -8.0824    192.3617    210.3021   2.9090032328e+02   4.2015286783e+00   0.00916414  0.006338468 -75.25 0.0005315483    1.617    0.382
       122  -8.6694     85.4398    209.3165   2.9212840640e+02   4.8539819629e+00   0.01559973     0.010042  78.03  0.001018967    2.232    0.552
       123  -7.6494    179.2823    217.6420   2.9109643190e+02   4.1955873353e+00  0.006897098  0.005050985  68.99 0.0007016912    1.669    0.401
       124  -9.4426    246.3229    207.3390   2.9025999560e+02   3.9113140485e+00   0.01531639   0.01166481 -60.27  0.000619146    1.301    0.232
       125  -9.4400    250.0802    201.9954   2.9018371269e+02   3.9501750334e+00   0.01988587  0.009907327 -62.71  0.001139459    2.023    0.506
       126  -8.0606    156.4153    208.1853   2.9130198864e+02   4.4416837379e+00  0.009302893  0.006443694 -79.58 0.0009405192    1.685    0.406
       127  -8.2399    139.2396    208.1120   2.9149977667e+02   4.5455526230e+00   0.01259429  0.007826333  55.47 0.0008459211    1.935    0.483
       128  -9.3650    124.4376    206.3750   2.9165996252e+02   4.6542954121e+00   0.01718371   0.01086618  63.26  0.001617229    2.087    0.521
       129  -9.1706     99.5381    206.3924   2.9194759286e+02   4.8032651572e+00   0.01987863   0.01262383  74.84  0.001492047    2.287    0.563
       130  -8.8247     11.6168    206.8029   2.9296586281e+02   5.3239952080e+00  0.009223645  0.006396791 -76.22 0.0005170738    1.621    0.383
       131  -8.4179     56.6190    205.6122   2.9243856774e+02   5.0690244098e+00   0.01339925  0.008786519  66.10 0.0009895478    2.004    0.501
       132  -9.2668    194.9434    203.7761   2.9083029957e+02   4.2611245736e+00   0.01955735   0.01639223  80.08   0.00137484    1.347    0.258
       133  -9.6408    192.4665    197.5289   2.9082033256e+02   4.3478996341e+00   0.02341204   0.01608554  74.40    0.0014112    1.926    0.481
       134  -9.1316    183.8988    204.0059   2.9095911409e+02   4.3248168751e+00   0.01657798   0.01137563  59.92 0.0009037841    1.747    0.428
       135  -8.5277    131.4362    204.3398   2.9156662861e+02   4.6357767510e+00   0.01484764  0.008841117  61.57 0.0009150426    2.292    0.564
       136  -9.6414    163.9983    203.0058   2.9118256027e+02   4.4558046233e+00   0.02234991   0.01476285  51.30  0.001074969    1.684    0.406
       137  -8.0332     24.6852    204.3708   2.9279992662e+02   5.2740526826e+00  0.007134781  0.004984118  66.26 0.0007034852    1.783    0.439
       138  -8.4162    210.9969    202.2215   2.9063557755e+02   4.1825572380e+00   0.01195749  0.008986493  77.94 0.0005553335    1.630    0.386
       139  -9.0143    140.5143    201.3155   2.9144319788e+02   4.6161629642e+00   0.01966534   0.01210367  79.37  0.001362934    2.502    0.600
       140  -7.9751     41.4841    202.9775   2.9259725490e+02   5.1898082771e+00  0.009582967  0.005790013  83.95 0.0008103989    2.583    0.613
       141  -9.3530    243.0584    200.6412   2.9025625563e+02   4.0079838198e+00   0.01811178     0.010817 -69.16  0.001033992    1.816    0.449
       142  -7.8182    222.3630    201.6098   2.9050076017e+02   4.1212787945e+00   0.01227876  0.006289067 -80.74 0.0009406609    3.058    0.673
       143  -8.4545     80.0958    201.3780   2.9214131809e+02   4.9773995613e+00   0.01596566  0.009000784  69.62  0.001273406    3.003    0.667
       144  -8.2050     48.3968    202.1687   2.9251241130e+02   5.1578300981e+00  0.009558013  0.006397272 -79.73 0.0009441032    1.775    0.437
       145  -8.1174    109.0114    205.3466   2.9183175584e+02   4.7585724526e+00   0.01185719  0.008950008  77.61 0.0005712811    1.614    0.380
       146  -9.4698    149.5070    198.7159   2.9132337173e+02   4.5921501455e+00   0.02124169   0.01362074  69.49  0.001501966    2.165    0.538
       147  -8.7209    123.7962    199.1131   2.9162265330e+02   4.7417629560e+00   0.01592904   0.01124735  80.14  0.001171978    1.833    0.454
       148  -9.2485    112.9882    198.6892   2.9174485221e+02   4.8114162741e+00   0.02341325    0.0133866  63.10  0.001966792    2.570    0.611
       149  -9.1475     88.5817    198.5373   2.9202581742e+02   4.9593332880e+00   0.01808612   0.01211257  76.50  0.001552995    2.038    0.509
       150  -9.0544    236.8130    198.1321   2.9031273499e+02   4.0744039315e+00   0.01538348   0.01153371 -87.41  0.001171236    1.577    0.366
       151  -8.3165    177.0464    199.0316   2.9100749708e+02   4.4232185496e+00   0.01045437  0.007739857  65.51 0.0004764768    1.609    0.379
       152  -8.5250    202.2974    197.8475   2.9070890788e+02   4.2851656846e+00   0.01240972   0.00963818  72.19 0.0008775623    1.523    0.344
       153  -9.2605     61.3681    196.7282   2.9232909858e+02   5.1429753802e+00   0.02287018   0.01450106 -85.61  0.001745422    2.090    0.522
       154  -8.5388     12.9293    197.6825   2.9289473863e+02   5.4212510140e+00    0.0162618  0.008885741  61.87   0.00133008    2.778    0.640
       155  -7.9620     53.8025    196.5646   2.9241551521e+02   5.1900856790e+00   0.01300034  0.008083032  66.81  0.001181312    2.250    0.556
       156  -8.4786    215.9980    195.6084   2.9053709988e+02   4.2285874887e+00   0.01243168  0.009164212  88.51 0.0007388076    1.655    0.396
       157  -8.0980    133.1499    196.1690   2.9149651587e+02   4.7195842012e+00  0.009213962  0.007718134  75.64 0.0005614054    1.346    0.257
       158  -8.7258    224.3336    193.7603   2.9042958781e+02   4.1997362756e+00   0.01622597    0.0102019 -82.12  0.001193732    2.040    0.510
       159  -7.2436    209.2966    195.6507   2.9061463471e+02   4.2683814398e+00  0.006946939  0.005039725  67.08 0.0007034196    1.681    0.405
       160  -8.9888    185.1087    194.7924   2.9088833173e+02   4.4235916098e+00   0.01280193   0.01048607  82.63 0.0007707929    1.398    0.285
       161  -8.8654    160.8133    194.2751   2.9116549643e+02   4.5754262482e+00    0.0150307   0.01078609  69.50 0.0008589715    1.735    0.424
       162  -8.8112     43.9871    193.6560   2.9251106928e+02   5.2822448454e+00   0.02129056    0.0127659  61.11  0.001935194    2.241    0.554
       163  -9.5311    245.6403    192.6542   2.9017717958e+02   4.0843182767e+00   0.02043696   0.01181286 -57.37 0.0009694007    1.677    0.404
       164  -8.5320     77.1959    193.9722   2.9212927281e+02   5.0800549708e+00   0.01211744  0.008476149  53.93  0.000681826    1.603    0.376
       165  -8.3114    241.2399    192.3745   2.9022616102e+02   4.1140053054e+00  0.009322172  0.005905453  37.93 0.0004878726    1.571    0.363
       166  -7.9874    205.2416    191.9207   2.9063837818e+02   4.3356728026e+00  0.008548045  0.005614545 -64.39 0.0004649718    1.547    0.353
       167  -8.1349    198.8503    191.6414   2.9071037051e+02   4.3772966293e+00   0.01083302  0.007806115 -68.97  0.000623392    1.451    0.311
       168  -8.1233    179.1059    191.8217   2.9093926623e+02   4.4938358755e+00  0.009971973   0.00880953  64.36 0.0005097003    1.216    0.178
       169  -8.3393    172.3183    191.7559   2.9101718473e+02   4.5353548536e+00   0.01289947  0.009674923  71.95  0.001029359    1.618    0.382
       170  -9.0779    139.6178    190.6521   2.9138784420e+02   4.7443166942e+00   0.01833019   0.01189489  69.43  0.001090365    2.110    0.526
       171 -10.3112     92.2067    188.7612   2.9192378350e+02   5.0502282445e+00   0.04707433   0.01348004  42.44  0.003112764    3.814    0.738
       172  -7.6960     90.3462    182.2858   2.9190542001e+02   5.1359481884e+00   0.01025763  0.004891611 -40.29 0.0006282842    2.454    0.592
       173  -8.4074     21.2566    191.0661   2.9275787657e+02   5.4478004253e+00   0.01811006  0.009711128  65.26  0.001397081    3.189    0.686
       174  -9.0893    216.5349    188.0248   2.9048409378e+02   4.3126125881e+00    0.0184168   0.01042655 -62.24  0.001457936    1.767    0.434
       175  -8.5664    148.4655    189.5524   2.9127891640e+02   4.7038972958e+00   0.01388255  0.009579209  71.07 0.0007452271    1.882    0.469
       176  -8.8716    237.3006    187.9799   2.9024441945e+02   4.1882490559e+00    0.0182486  0.008348052 -57.12  0.001428545    2.080    0.519
       177  -8.9266    191.4630    187.5070   2.9077007404e+02   4.4692630209e+00   0.01620033   0.01152299  84.31  0.001018879    1.796    0.443
       178  -9.1658    155.8254    187.4279   2.9118085381e+02   4.6841875349e+00   0.01839878   0.01184491 -82.48  0.001032164    1.962    0.490
       179  -8.8176    129.2394    188.5845   2.9149494302e+02   4.8303643100e+00   0.01377028  0.009921671  65.41 0.0007937509    1.683    0.406
       180  -9.8427    121.0613    186.9801   2.9157950523e+02   4.8978707413e+00   0.02688447   0.01469608 -86.65  0.002135722    3.022    0.669
       181  -8.4426     34.2812    188.0890   2.9258904392e+02   5.4043499471e+00   0.01714437   0.01059288  77.96  0.001221489    2.466    0.594
       182  -8.3708    230.8510    193.9575   2.9035567530e+02   4.1582779766e+00   0.01202048  0.008967483 -68.23  0.001014152    1.387    0.279
       183  -8.8992     54.6274    186.9605   2.9234694620e+02   5.2957919544e+00     0.019495   0.01124109  64.22  0.001538015    2.570    0.611
       184  -8.5181    249.3947    185.4321   2.9008930459e+02   4.1447945196e+00   0.01829223   0.01011166 -67.06  0.001566077    1.929    0.482
       185  -8.1321    230.3899    187.2201   2.9031938578e+02   4.2385555405e+00  0.009462756  0.006406347 -78.00 0.0008298683    1.718    0.418
       186  -8.8482    164.8897    186.8013   2.9107236122e+02   4.6369885346e+00   0.01367066   0.01036309  84.26 0.0008981741    1.595    0.373
       187  -9.1676    109.6174    186.1117   2.9170633829e+02   4.9764561962e+00   0.01868788   0.01253551  70.87  0.001257887    1.988    0.497
       188  -9.0831    182.8790    184.9813   2.9085352848e+02   4.5499019392e+00   0.01494162  0.009471678 -63.89 0.0008608464    1.598    0.374
       189  -9.4819    210.4291    183.7907   2.9052836324e+02   4.3980374672e+00   0.02131155   0.01017142 -52.85   0.00141006    2.002    0.501
       190  -8.9701     66.6868    184.5234   2.9219258841e+02   5.2517587390e+00   0.01993383   0.01180278  56.82  0.001193642    2.135    0.532
       191  -8.4565    224.1611    183.7419   2.9036971385e+02   4.3160286298e+00   0.01112759  0.009013337 -78.74 0.0005088546    1.337    0.252
       192  -8.7160    174.3466    183.5925   2.9094342149e+02   4.6171378498e+00   0.01331747   0.01056013  76.07 0.0007177261    1.479    0.324
       193  -8.9691     44.3850    182.4374   2.9243752401e+02   5.4091062258e+00   0.01751914   0.01167182  71.73   0.00100242    2.023    0.506
       194  -7.8357      1.7713    183.7799   2.9293839896e+02   5.6479646787e+00   0.01092225  0.004344759  38.37 0.0008732019    2.448    0.592
       195  -8.6392    240.6588    181.4561   2.9016541461e+02   4.2430849939e+00   0.01330214  0.008330528 -82.21  0.001245771    2.058    0.514
       196  -9.2473    147.6466    180.7567   2.9123414322e+02   4.8100738882e+00   0.01809938   0.01226782  73.99  0.001163476    1.976    0.494
       197  -9.5161     25.5437    179.0587   2.9263456859e+02   5.5605490814e+00   0.03147503   0.01710925  82.40  0.002289395    3.737    0.732
       198  -8.6658    137.8841    179.6203   2.9133986563e+02   4.8817312136e+00   0.01596688   0.01064217  56.47  0.001094932    1.763    0.433
       199  -9.5954    191.3312    178.3536   2.9071509996e+02   4.5753933092e+00   0.01807256   0.01139276  46.13  0.001056689    1.683    0.406
       200  -8.0875    169.6963    178.9282   2.9096831596e+02   4.6987524299e+00   0.01081047  0.007377173  74.99  0.001050729    1.956    0.489
       201  -9.1442     35.8308    176.8275   2.9250192727e+02   5.5248303051e+00   0.02628127     0.014153  85.84  0.001905568    3.729    0.732
       202  -9.4826    248.5355    176.6315   2.9004482601e+02   4.2511771766e+00   0.02253162   0.01533194 -79.56  0.002037821    1.734    0.423
       203  -8.5537    250.5128    172.9154   2.8999907314e+02   4.2820145699e+00   0.01127787   0.00814695 -79.27 0.0005925886    1.580    0.367
       204  -8.3463    231.1813    177.2357   2.9024858979e+02   4.3486478289e+00   0.01208466  0.008232241  82.71 0.0005068102    1.969    0.492
       205  -8.4826    205.1224    177.7375   2.9055219579e+02   4.4995889365e+00   0.01158977  0.009134562 -82.93  0.000738791    1.422    0.297
       206  -8.5613    129.1399    177.5294   2.9142796281e+02   4.9582529527e+00   0.01419336  0.009892135  73.09 0.0008769282    1.861    0.463
       207  -7.9706     97.2712    177.9386   2.9179863845e+02   5.1445442253e+00   0.01129305  0.006781226 -34.41 0.0008746138    1.967    0.492
       208  -8.3327    217.4983    177.1908   2.9040608227e+02   4.4314650910e+00    0.0105992  0.008644734  58.93 0.0005855507    1.342    0.255
       209  -9.5252    183.0791    176.2924   2.9079759825e+02   4.6487009129e+00   0.01450307   0.01098435 -77.14 0.0006088373    1.452    0.311
       210  -8.4720     89.0611    176.9155   2.9188720588e+02   5.2054921522e+00   0.01367277  0.008593879  62.63 0.0007873943    2.094    0.523
       211  -9.9666     57.2547    173.2674   2.9223236577e+02   5.4378179191e+00   0.03856786   0.02054348  77.99  0.002659165    4.186    0.761
       212  -8.7632     12.8942    176.7224   2.9276646703e+02   5.6629458947e+00   0.01626639    0.0093095  63.54  0.001334789    2.580    0.612
       213  -8.7233    202.8517    184.7762   2.9062184350e+02   4.4322468389e+00   0.01190081  0.008298635  73.40 0.0005327971    1.864    0.463
       214  -9.2696    158.9511    174.8083   2.9106693799e+02   4.8106971999e+00   0.02069193   0.01489069 -84.94  0.001593066    1.660    0.398
       215  -9.1811    104.3737    174.7805   2.9169712175e+02   5.1383652613e+00   0.02487268   0.01191562  51.96  0.001729979    2.730    0.634
       216  -8.2496     79.2092    158.5595   2.9188803135e+02   5.4758758596e+00   0.01620871  0.009669505   4.63  0.001451833    2.283    0.562
       217  -9.2081     81.8887    155.1522   2.9183606621e+02   5.4990744115e+00   0.02338994   0.01222222  60.17  0.001498897    2.970    0.663
       218 -10.5542     76.1084    171.3051   2.9200235886e+02   5.3476432719e+00   0.05272361   0.02326764 -80.39  0.003249252    4.943    0.798
       219  -8.5084     74.5023    160.5072   2.9195444112e+02   5.4816164815e+00   0.01297063  0.008189675 -24.22 0.0008130458    2.068    0.516
       220  -8.1624    224.4629    174.5168   2.9030925378e+02   4.4203385871e+00  0.006544712  0.006444077  71.16 0.0002726154    1.039    0.037
       221  -9.4933    175.7847    172.4883   2.9085830363e+02   4.7363058085e+00   0.01522413   0.01195596 -72.28 0.0007930489    1.341    0.254
       222  -8.6017    143.1118    172.8615   2.9123782152e+02   4.9281800285e+00   0.01040728  0.008614444  61.66 0.0007033378    1.328    0.247
       223  -8.3735    134.8456    172.0378   2.9132820800e+02   4.9872580544e+00   0.01062329  0.008744616  69.44  0.001019552    1.372    0.271
       224  -9.5610    121.4425    170.5708   2.9147398318e+02   5.0845334816e+00   0.01908936    0.0131354  84.31  0.000990646    1.916    0.478
       225  -8.9318     45.0736    171.0279   2.9235941198e+02   5.5364233883e+00   0.01822249   0.01159576  89.18  0.001214152    2.191    0.544
       226  -9.1568    230.6800    170.3409   2.9021176961e+02   4.4309738486e+00   0.01346722    0.0118218   0.17  0.001052289    1.208    0.172
       227  -8.6036    205.7580    170.2804   2.9049881248e+02   4.5815695946e+00   0.01474283   0.00900488 -83.37  0.001225718    2.193    0.544
       228  -7.5127     68.6986    171.3079   2.9208802353e+02   5.3919466824e+00  0.006805401  0.005022703  63.79 0.0003213194    1.600    0.375
       229  -8.1610    237.0961    169.7837   2.9013435724e+02   4.3987763721e+00   0.01009612  0.008728072  61.21 0.0006326711    1.246    0.197
       230  -8.5430    198.4901    170.1675   2.9058196070e+02   4.6265645907e+00   0.01071768  0.008794744  56.86 0.0005773558    1.318    0.241
       231  -9.1435    167.2980    168.8485   2.9093380252e+02   4.8291746658e+00   0.01803773   0.01089437  54.96  0.001134904    2.007    0.502
       232  -8.8727    149.9565    169.8494   2.9114020121e+02   4.9217768209e+00   0.01355388     0.010263  77.25  0.001164404    1.606    0.377
       233  -8.0079    244.3884    169.2476   2.9004698675e+02   4.3610572191e+00  0.009161417  0.006397391 -77.70  0.000534809    1.637    0.389
       234  -8.3966    218.8025    168.5586   2.9033771908e+02   4.5229296269e+00   0.01151969  0.009213025 -63.63  0.000521064    1.256    0.204
       235  -8.0480     88.5324    168.9664   2.9184436661e+02   5.3002065811e+00  0.009919865  0.006564421 -65.75 0.0007609046    1.551    0.355
       236  -7.8619    211.1384    168.1777   2.9042376097e+02   4.5734076050e+00  0.009331809  0.007745371  71.21 0.0006683804    1.360    0.265
       237  -9.0986    185.1552    166.8660   2.9071544768e+02   4.7447080170e+00   0.01317648  0.009250398 -82.72 0.0007108962    1.700    0.412
       238  -8.5909    111.7525    167.5009   2.9156701175e+02   5.1779731434e+00   0.01603119   0.00985063  62.89  0.001161586    2.197    0.545
       239  -8.9765    191.9997    166.7557   2.9063578097e+02   4.7048399101e+00   0.01309464   0.01057102  83.93 0.0008493835    1.431    0.301
       240 -10.0647     95.0140    163.0147   2.9173279369e+02   5.3299303529e+00   0.03909856   0.01897841  63.19  0.002623458    4.269    0.766
       241  -9.1340     20.4751    166.1304   2.9261373097e+02   5.7397373654e+00   0.01828439   0.01110486  63.84  0.001576906    2.277    0.561
       242  -9.8975    136.8524    164.5168   2.9125864714e+02   5.0618077005e+00   0.03014626   0.01137909  44.93  0.002250697    3.030    0.670
       243  -8.2424    233.8049    164.7884   2.9014142832e+02   4.4760371012e+00   0.01290683  0.009151312 -77.83 0.0007280278    1.603    0.376
       244  -8.7937    159.4914    164.3703   2.9099629588e+02   4.9276032979e+00   0.01383294   0.01019366  57.47 0.0007280305    1.536    0.349
       245  -9.2959     33.4714    163.4270   2.9244682003e+02   5.6932900328e+00   0.02955333   0.01456583  54.10  0.002382629    2.779    0.640
       246  -8.2545    239.9447    164.2005   2.9006701243e+02   4.4458481149e+00   0.01003546  0.008825299  59.61 0.0005355697    1.211    0.174
       247  -8.4612    212.9957    163.8320   2.9037549039e+02   4.6122334142e+00   0.01165435  0.009330221 -66.52 0.0006517992    1.271    0.213
       248  -8.1428     57.3129    163.9992   2.9217466577e+02   5.5442256215e+00   0.01790361  0.008767579   7.66  0.001308778    3.443    0.710
       249  -8.9802    245.9420    162.2209   2.8998564343e+02   4.4325158337e+00   0.01817518   0.01033478 -70.55  0.001688271    1.975    0.494
       250  -8.5183    204.9510    162.9295   2.9046271591e+02   4.6709990501e+00  0.009901398  0.009546847  63.13 0.0003639217    1.069    0.065
       251  -9.3668      3.4216    162.3061   2.9278745767e+02   5.8855209177e+00   0.02300709   0.01152357  49.60  0.001951744    2.380    0.580
       252  -9.0444    177.5196    160.9192   2.9076685906e+02   4.8590300312e+00   0.01454831   0.01166233  87.94 0.0009241446    1.435    0.303
       253  -8.6398    151.5534    160.9501   2.9106685287e+02   5.0146343131e+00   0.01260341  0.009713816  60.35 0.0007956983    1.466    0.318
       254  -8.7099     60.7111    160.2927   2.9211256360e+02   5.5665948974e+00   0.01685475   0.01079809  71.03  0.001397248    2.193    0.544
       255  -7.6202    242.2228    159.9821   2.9001467305e+02   4.4806517062e+00  0.008509174  0.005413028 -62.04 0.0003403376    1.569    0.363
       256  -8.5584    227.2728    158.9629   2.9018073948e+02   4.5823522607e+00   0.01356912  0.008983769 -80.27 0.0008986358    1.825    0.452
       257  -9.5093    250.1847    157.8713   2.8990984975e+02   4.4569926815e+00    0.0145618  0.009405076 -66.59 0.0006979255    1.608    0.378
       258  -8.2776    128.4116    159.2544   2.9132369649e+02   5.1730314413e+00   0.01160172  0.007563957  50.87 0.0006894865    1.705    0.413
       259  -9.6104    105.7435    158.0788   2.9157837234e+02   5.3224818954e+00   0.02030747   0.01274774  64.61  0.001145965    2.153    0.536
       260  -8.5591    196.5315    158.0099   2.9052946883e+02   4.7782311148e+00   0.01237524  0.008698053  48.38 0.0008197487    1.517    0.341
       261  -8.3018    188.1768    157.9110   2.9062527368e+02   4.8295969383e+00   0.01010115  0.008702555  72.15 0.0004651592    1.282    0.220
       262  -9.1868    167.7009    157.3176   2.9085797353e+02   4.9594710002e+00   0.01548192   0.01049606  66.69 0.0009617758    1.894    0.472
       263  -8.2893    217.9616    156.6877   2.9027406322e+02   4.6645491639e+00   0.01321881  0.008721559 -87.93 0.0009826937    1.991    0.498
       264  -9.1984    157.5307    155.8628   2.9096642763e+02   5.0373018079e+00   0.01705743   0.01117826 -74.91  0.001189613    1.736    0.424
       265  -9.2770    119.6212    155.4335   2.9140169437e+02   5.2697444915e+00   0.01882375   0.01246984  73.10  0.001642236    2.066    0.516
       266  -9.2887     49.5192    155.1044   2.9221004164e+02   5.6932700125e+00   0.02136317   0.01327763  78.32  0.001642498    2.433    0.589
       267  -8.1892    242.9721    154.9826   2.8997512464e+02   4.5336367865e+00  0.009842511  0.009571413 -48.31 0.0003711152    1.019    0.018
       268  -7.7589    204.5288    155.4989   2.9042167776e+02   4.7590296688e+00   0.00658666  0.006412374  67.15 1.053216e-05    1.056    0.053
       269  -8.5591    144.6067    155.0514   2.9111068349e+02   5.1242375976e+00   0.01039554  0.008222299  88.38 0.0006368957    1.466    0.318
       270  -9.9049    133.1517    151.5038   2.9122112022e+02   5.2338224489e+00   0.03280573   0.01603857 -63.34  0.001858201    2.080    0.519
       271  -9.4664     67.8294    153.6497   2.9198935804e+02   5.6005225271e+00   0.02171358   0.01396328  73.64  0.001441371    2.209    0.547
       272  -7.8512    232.7793    154.1955   2.9008777304e+02   4.6040467670e+00   0.01134098  0.006299629  61.92 0.0007073336    2.689    0.628
       273  -7.8535     96.6237    154.7408   2.9166320049e+02   5.4155648432e+00  0.006886535  0.004992439 -18.36 0.0004625996    1.661    0.398
       274  -7.9523    239.7048    153.3146   2.9000247703e+02   4.5724887839e+00   0.01034333  0.006859245 -68.49 0.0004349368    1.591    0.371
       275  -8.2329    237.2163    150.4104   2.9001321077e+02   4.6208698732e+00   0.01002184  0.006630171  25.73 0.0003186092    1.533    0.348
       276  -8.4530    151.5376    153.0102   2.9101803192e+02   5.1061232691e+00   0.01005814  0.006531661 -63.92 0.0004826784    1.559    0.358
       277  -9.1456     20.2535    152.9514   2.9253527391e+02   5.8928732174e+00   0.01223377  0.007813898  44.44 0.0007247702    1.631    0.387
       278  -7.8281      8.6783    153.3122   2.9267138662e+02   5.9577794399e+00  0.006935326  0.004990049  62.50 0.0007038454    1.653    0.395
       279  -9.3303     29.3887    150.7743   2.9241621778e+02   5.8634136342e+00   0.02266441   0.01297208  68.10  0.001877152    2.802    0.643
       280  -8.8691      2.7892    150.8851   2.9272459475e+02   6.0208567002e+00   0.01841797  0.008279533 -63.32  0.001559826    2.263    0.558
       281  -9.4382    248.8372    149.3940   2.8987295617e+02   4.5625886023e+00    0.0178168   0.01068101 -65.56   0.00095651    1.726    0.421
       282  -8.7068    247.0232    144.0125   2.8986057962e+02   4.6353928366e+00   0.01260695  0.008948413 -61.20 0.0005472086    1.400    0.286
       283  -8.6842    189.4457    150.5053   2.9056488050e+02   4.9071837308e+00   0.01336124    0.0105882  78.95 0.0008695624    1.483    0.326
       284  -8.0597    182.6590    151.3459   2.9064841036e+02   4.9383111473e+00   0.01039584  0.007417041  64.78 0.0006329712    1.705    0.414
       285  -8.3616    162.9100    150.9308   2.9087385836e+02   5.0617579813e+00   0.01099162  0.007766498  63.13  0.001122591    1.712    0.416
       286  -7.7329    146.6317    151.6813   2.9106649407e+02   5.1508737278e+00   0.00721686  0.004924769 -24.51 0.0007036959    1.787    0.440
       287  -8.6387     98.2888    150.6351   2.9161864655e+02   5.4528652072e+00     0.013962   0.01017664  69.19 0.0009705952    1.684    0.406
       288  -8.1734    243.1659    149.9272   2.8994162930e+02   4.5906061769e+00   0.01207104  0.007704247 -72.64   0.00101541    1.751    0.429
       289  -8.2453    212.9714    149.9477   2.9028996856e+02   4.7721060545e+00    0.0103461  0.007631619  61.21 0.0003555643    1.576    0.366
       290  -9.6800     39.9254    147.9062   2.9227669532e+02   5.8335110588e+00    0.0276536   0.01482754  61.09  0.001921805    2.858    0.650
       291  -8.3080    198.9201    149.1078   2.9044690323e+02   4.8662919669e+00   0.01020907  0.008606432  64.60 0.0004972231    1.305    0.234
       292  -9.8435     89.0242    146.1608   2.9169816537e+02   5.5598864978e+00   0.03025773   0.01719618  78.55  0.002379125    3.186    0.686
       293  -8.9052    233.1062    148.0218   2.9004583177e+02   4.6730841493e+00   0.01000013  0.009708581 -63.10 0.0004471754    1.032    0.031
       294  -8.9798     77.9475    146.9763   2.9183125821e+02   5.6168218669e+00    0.0145942  0.009660609 -84.16 0.0007023791    1.901    0.474
       295 -10.7747     54.9702    143.2496   2.9207401456e+02   5.7972139891e+00   0.04993542   0.02979134 -76.93  0.003189304    2.051    0.512
       296  -8.0917    223.1066    146.8421   2.9015385936e+02   4.7468420547e+00  0.009887807  0.008760005  56.97 0.0004391314    1.190    0.160
       297 -10.2394    149.0115    144.9991   2.9099775518e+02   5.2135008252e+00   0.02553582   0.01609945  72.15  0.001880748    2.297    0.565
       298  -9.7561    139.0116    144.7092   2.9111148703e+02   5.2768703611e+00   0.03002427   0.01585424 -81.65   0.00161948    2.905    0.656
       299  -8.6262    140.0334    137.4530   2.9105488666e+02   5.3542604505e+00   0.01104482  0.008960134 -30.30 0.0008013267    1.315    0.240
       300 -10.1320    106.5469    144.2168   2.9148361614e+02   5.4772742797e+00   0.03307022   0.01936496  75.56  0.002232632    2.856    0.650
       301  -9.2677     13.3668    146.4153   2.9257474636e+02   6.0092552572e+00   0.01686518   0.01096528  59.33  0.001057433    1.894    0.472
       302  -8.0292    206.7151    146.5780   2.9034132146e+02   4.8485099913e+00  0.008931996  0.006038864  39.57 0.0004168708    1.486    0.327
       303  -8.2983    175.5277    146.1268   2.9069849745e+02   5.0412315706e+00   0.01076472   0.00874383  59.67 0.0006704539    1.354    0.262
       304  -8.8690    240.7726    144.7301   2.8993707907e+02   4.6647820070e+00   0.01746911   0.01093656 -14.01  0.001168999    2.285    0.562
       305 -10.8408     69.2406    141.5294   2.9189837788e+02   5.7316586093e+00   0.03556379   0.02339119 -80.19  0.002768923    1.837    0.456
       306  -9.5407     70.0229    134.0000   2.9184293021e+02   5.8136789938e+00   0.01561079  0.009492638  13.78  0.001330337    1.928    0.481
       307  -8.2341    194.2337    144.2039   2.9047068267e+02   4.9508965589e+00  0.009441914   0.00765579  67.39 0.0005606133    1.399    0.285
       308  -8.7744    165.5804    144.0562   2.9080056807e+02   5.1248340597e+00   0.01212472  0.008745131  46.64 0.0006529061    1.453    0.312
       309  -9.3798      2.5585    141.6449   2.9267046366e+02   6.1286672830e+00   0.01949413   0.01273633  83.74  0.001561097    2.137    0.532
       310  -8.4250    182.0957    141.7723   2.9059576564e+02   5.0518579685e+00   0.01140805  0.009117749 -85.19  0.000635521    1.407    0.289
       311  -8.0766    250.3145    141.0204   2.8980412957e+02   4.6499744433e+00  0.009340179  0.008535293 -64.81 0.0006726437    1.099    0.090
       312  -8.6886    134.4535    140.4086   2.9113760570e+02   5.3537316332e+00   0.01389536  0.006510792 -62.48  0.001199121    2.145    0.534
       313  -9.7516    124.9366    142.6991   2.9126171347e+02   5.3844704727e+00   0.02390191   0.01534216  80.15  0.001358355    2.253    0.556
       314  -9.8088     23.5210    138.2832   2.9240724413e+02   6.0423182286e+00   0.02715559   0.01568168  66.44  0.002024744    2.663    0.624
       315  -8.0300    218.5247    138.9234   2.9015774768e+02   4.8655002248e+00  0.009722076  0.006504823 -62.43 0.0003805858    1.496    0.331
       316  -8.6375    172.2532    138.1372   2.9068694794e+02   5.1528494413e+00   0.01480168  0.009694831  79.63 0.0008719064    2.153    0.536
       317  -8.0446    207.1929    137.9181   2.9028227285e+02   4.9452557291e+00   0.01031638  0.008761036  68.57 0.0007111122    1.304    0.233
       318  -8.7658    197.4470    137.3077   2.9039097095e+02   5.0109096575e+00      0.01445   0.01023056 -89.69 0.0009283478    1.765    0.433
       319  -9.0981    150.6860    136.4278   2.9092548566e+02   5.3020970244e+00   0.01987797   0.01146402 -14.36  0.001634971    2.829    0.646
       320  -9.2348     39.2086    136.0083   2.9221174495e+02   5.9748231032e+00     0.014213   0.01108273  70.37  0.000783479    1.504    0.335
       321  -8.6155    250.7214    130.2500   2.8973279702e+02   4.7713552045e+00   0.01891235  0.005001269 -58.13  0.001291215    3.370    0.703
       322  -8.9116    248.3814    135.1967   2.8979038266e+02   4.7285783884e+00   0.01385152   0.01062314 -69.91 0.0007498463    1.360    0.265
       323  -8.4427    246.9509    130.4731   2.8977764510e+02   4.7915057554e+00   0.01211943  0.009203812 -84.86 0.0006158381    1.522    0.343
       324  -7.9309    188.1511    136.0860   2.9049071943e+02   5.0808752801e+00  0.009233642  0.007758622  67.08 0.0006024592    1.321    0.243
       325  -8.0400    162.4412    136.2816   2.9078879786e+02   5.2331662129e+00  0.008970396  0.006485701 -79.60 0.0006749706    1.581    0.368
       326  -8.4221    179.6423    134.1391   2.9057692171e+02   5.1544374799e+00   0.01351413  0.008510573 -79.72 0.0008951386    1.967    0.492
       327 -10.2125     83.3269    132.7577   2.9168140913e+02   5.7483353861e+00   0.02526371    0.0149289 -77.29   0.00139278    2.099    0.523
       328  -7.5014    231.3536    134.2609   2.8998093398e+02   4.8418915665e+00  0.006808547  0.005008879 -19.25 0.0003083621    1.616    0.381
       329  -8.9345    112.7940    133.1883   2.9134336600e+02   5.5667871456e+00   0.01554223   0.01126793  80.08   0.00101902    1.742    0.426
       330  -7.7545    237.4352    133.5134   2.8990617596e+02   4.8138644722e+00  0.006605593   0.00634292  70.28 0.0008056957    1.079    0.073
       331  -9.0782    143.0115    131.8145   2.9098565979e+02   5.4012780014e+00   0.01426167   0.01093774  77.27 0.0007884151    1.570    0.363
       332 -10.0085    132.1095    131.3394   2.9110870294e+02   5.4721913770e+00   0.02798491   0.01850572  82.00     0.001863    2.099    0.524
       333  -8.5440    129.0289    124.4576   2.9110181226e+02   5.5698879918e+00   0.01147785   0.00914118 -61.13 0.0003340822    1.249    0.199
       334 -10.5357     98.5441    130.8660   2.9149378101e+02   5.6789491453e+00     0.028222    0.0149471 -69.80  0.001906828    2.132    0.531
       335  -9.8628     12.9897    129.4478   2.9247473618e+02   6.2069279949e+00    0.0243038   0.01494816  70.50  0.002050017    2.398    0.583
       336  -8.0039    204.4687    130.2685   2.9026640990e+02   5.0496416999e+00  0.009079708  0.006511633 -80.00 0.0007794542    1.606    0.378
       337  -8.0089    192.5991    130.2358   2.9040320846e+02   5.1214273426e+00  0.009078071  0.005964803 -50.57 0.0003069219    1.493    0.330
       338  -9.1771    168.3505    129.3698   2.9067784309e+02   5.2771909063e+00   0.01473019   0.01096082  86.90 0.0008838868    1.638    0.389
       339  -8.8761    161.8414    129.9111   2.9075636764e+02   5.3100789823e+00   0.01067229  0.008748663 -32.83 0.0006894926    1.282    0.220
       340  -9.6778    152.7693    128.9762   2.9085539077e+02   5.3753416250e+00   0.02161124   0.01229974 -75.38   0.00118347    2.156    0.536
       341  -9.8880     73.1577    128.6134   2.9177346749e+02   5.8569387377e+00   0.02625232   0.01490616 -66.30  0.001372732    1.846    0.458
       342  -7.9403      1.9594    130.4755   2.9260870986e+02   6.2608836083e+00   0.01008062  0.004721927  48.78  0.000809855    2.565    0.610
       343  -7.8665    211.5119    129.0827   2.9017779891e+02   5.0208942298e+00  0.009875702  0.006567049 -65.08 0.0006941714    1.536    0.349
       344 -10.6259     44.8896    123.5922   2.9206954307e+02   6.0838497915e+00   0.05283318   0.02848428  73.49  0.003831147    3.773    0.735
       345 -10.2382     59.9858    125.1795   2.9190466658e+02   5.9752992385e+00   0.03426907   0.01953041  68.81   0.00249542    2.874    0.652
       346  -9.8362    118.0175    125.0000   2.9123244305e+02   5.6297146481e+00   0.02675366   0.01936695 -89.23  0.001813475    1.690    0.408
       347  -8.3679    228.3811    125.2616   2.8995954279e+02   4.9632793609e+00  0.009162538  0.006397241 -75.70 0.0007737424    1.605    0.377
       348  -8.8649    179.3193    124.8882   2.9052347002e+02   5.2628154299e+00   0.01257648   0.01013141  51.97 0.0006575988    1.319    0.242
       349  -8.9073    135.3734    123.6995   2.9102380377e+02   5.5405309888e+00   0.01918946  0.008343933 -62.25  0.001605497    2.305    0.566
       350  -9.8912    130.6725    118.2519   2.9104448816e+02   5.6314457169e+00   0.02359569   0.01564912  88.98  0.001596202    2.018    0.504
       351 -10.0331     28.4615    122.4947   2.9225288448e+02   6.1946429866e+00   0.03714453   0.02056206  75.81  0.002806933    3.466    0.712
       352  -8.6669     26.5047    114.5258   2.9222645000e+02   6.2980884564e+00   0.01702235   0.01025976  -7.83  0.001482781    2.501    0.600
       353  -8.0969    188.5159    123.9819   2.9041167907e+02   5.2179321863e+00  0.009874512  0.006531582 -63.34  0.000526881    1.523    0.343
       354  -9.3103    158.7495    121.5305   2.9074029685e+02   5.4250929069e+00   0.01663623   0.01148092  79.45  0.001116165    1.923    0.480
       355  -7.8473    203.1668    122.2175   2.9023164320e+02   5.1500809495e+00  0.009198082  0.007550439  62.40 0.0004290165    1.349    0.259
       356  -7.5041    195.2502    122.6031   2.9032540716e+02   5.1932815549e+00  0.006843835  0.005034495  74.69 0.0006948233    1.689    0.408
       357  -8.4145    172.0812    121.6451   2.9058701085e+02   5.3436451705e+00   0.01082063  0.009052183 -81.74 0.0004912493    1.296    0.228
       358  -8.3257     99.1583    120.5727   2.9142316610e+02   5.7937644114e+00   0.01298179  0.007571449 -29.95  0.001095192    2.223    0.550
       359  -9.4145     71.1406    119.9927   2.9174364405e+02   5.9682671711e+00   0.01908183   0.01192499 -85.05  0.001324025    2.140    0.533
       360  -9.7581    243.1753    119.9156   2.8975583804e+02   4.9356329374e+00   0.02377513   0.01016791  28.92   0.00199709    2.306    0.566
       361  -9.8112    141.5565    118.6772   2.9092132275e+02   5.5612056081e+00   0.02033857   0.01319163  88.63  0.001045036    2.120    0.528
       362  -9.6732      2.9631    117.2731   2.9251586385e+02   6.4069394651e+00   0.02646186   0.01566875  76.88  0.002223563    2.770    0.639
       363  -7.8881    231.6131    117.8159   2.8987618707e+02   5.0294295219e+00  0.009289448  0.006380348 -78.77 0.0005354511    1.696    0.410
       364  -8.4291    192.8786    115.3449   2.9030789467e+02   5.2910393306e+00   0.01090768   0.00899889 -81.47 0.0003510125    1.320    0.243
       365  -8.4463     84.2298    123.1899   2.9161196051e+02   5.8530844898e+00   0.01358123  0.007973689 -25.60  0.001192499    2.358    0.576
       366  -9.7982    109.2354    114.3101   2.9126797916e+02   5.8054328411e+00   0.02332944   0.01508049  74.07  0.001562815    2.192    0.544
       367  -8.9440    109.0027    107.9277   2.9123125861e+02   5.8802860471e+00   0.01346913   0.00869926 -39.76  0.000834685    1.657    0.396
       368  -8.5898     59.7459    115.2638   2.9184631348e+02   6.0909005224e+00   0.02144152   0.01155974  -4.86  0.001596258    3.480    0.713
       369  -8.3609    250.0131    115.0059   2.8964660291e+02   4.9508710188e+00   0.01074241  0.007774455 -22.99 0.0008383307    1.633    0.388
       370  -9.9776     78.9197    112.5616   2.9160781499e+02   6.0072407793e+00   0.02976668   0.01853845  79.83  0.001875212    2.426    0.588
       371  -8.6323     78.9000    105.0466   2.9156166911e+02   6.0938641706e+00   0.01234632  0.008746536   2.02  0.001268294    1.695    0.410
       372  -8.2662    167.0644    114.3117   2.9059961987e+02   5.4581763556e+00  0.009184049   0.00862761  38.26 0.0004688872    1.074    0.069
       373  -9.9664    133.7502    109.5158   2.9095494073e+02   5.7135041362e+00   0.02839482   0.01502893 -73.95  0.002258828    2.346    0.574
       374  -9.9855     92.6268    112.3217   2.9144777927e+02   5.9278869745e+00   0.02381071   0.01519652 -83.03  0.001296985    2.005    0.501
       375  -8.7905     93.0111    104.9889   2.9139806828e+02   6.0099860580e+00   0.01681991  0.009565426 -19.15  0.001378567    2.809    0.644
       376  -9.6930    121.8180    112.6423   2.9111219620e+02   5.7491453967e+00   0.01529627   0.01233024  56.34 0.0008002747    1.347    0.258
       377  -8.5740    174.7662    111.9562   2.9049609351e+02   5.4389676008e+00   0.01170686  0.009113182  88.45 0.0006466545    1.506    0.336
       378  -8.4662    159.2705    111.8429   2.9067439773e+02   5.5334266491e+00   0.01199868  0.009500239  74.71  0.000707746    1.481    0.325
       379  -9.9779     66.6461    109.8235   2.9173292225e+02   6.1122415237e+00   0.03036521   0.01581644 -60.18  0.002362819    1.880    0.468
       380  -9.9080     14.2773    110.9840   2.9234617288e+02   6.4118629794e+00   0.02158405   0.01438704  67.78  0.001457541    1.971    0.493
       381  -9.2409    248.2306    108.9461   2.8962963497e+02   5.0312703001e+00   0.01330383   0.01112385  -4.65  0.001094985    1.314    0.239
       382 -10.3513    246.8240    101.8675   2.8960201796e+02   5.1211120300e+00   0.03054959   0.01836545  61.92  0.002775028    2.266    0.559
       383  -8.3288     43.5632    109.4980   2.9199803335e+02   6.2540565766e+00   0.01745443  0.007024171  20.55  0.001303882    3.030    0.670
       384  -8.2720    189.1528    107.7838   2.9030413999e+02   5.4004246853e+00   0.01169399  0.008980004 -80.22 0.0007998931    1.455    0.313
       385 -10.4156     45.6455    102.4249   2.9193032572e+02   6.3230361074e+00   0.03703169   0.01996906  64.15  0.002931206    3.060    0.673
       386 -10.5981     22.9262    102.8589   2.9219599634e+02   6.4537834124e+00   0.03757505   0.02176987  72.15  0.002845638    2.863    0.651
       387  -8.5073    166.8217    104.5324   2.9054195300e+02   5.5721386881e+00   0.01253891  0.008677603 -89.37 0.0006236411    1.837    0.456
       388  -9.4486    150.4925    103.0813   2.9072166080e+02   5.6869798174e+00   0.01939939   0.01260649 -87.07  0.001023673    2.033    0.508
       389  -9.1142    139.7927    104.6197   2.9085483722e+02   5.7335575711e+00   0.01471561   0.01098691  61.12 0.0008562129    1.546    0.353
       390  -8.9162      6.6230    103.1504   2.9238654697e+02   6.5477238504e+00   0.01556227  0.009938433  86.77  0.001156607    2.217    0.549
       391  -9.5716    128.4876    102.1595   2.9097032111e+02   5.8297478914e+00   0.01530294   0.01222838  77.17  0.001039261    1.461    0.315
       392  -7.6943    175.5420    102.4641   2.9042842355e+02   5.5434916639e+00  0.006566202  0.006402398  66.48 8.713615e-05    1.053    0.051
       393  -8.4252    159.9417    101.2816   2.9060133926e+02   5.6508956700e+00   0.01180523  0.009096442  76.73 0.0006472327    1.557    0.358
       394  -8.1888    192.4738    101.4931   2.9022686981e+02   5.4527896203e+00  0.006609551  0.006387746  65.92 5.546743e-05    1.067    0.063
       395 -10.2115    108.8220     98.8103   2.9117703245e+02   5.9862953264e+00   0.02574387   0.01483064  58.30  0.001315337    2.306    0.566
       396  -9.1209    108.4827     92.3654   2.9114113746e+02   6.0624929243e+00   0.02356371   0.01312085   2.03  0.001823313    2.805    0.644
       397  -9.1233     82.0877    100.0728   2.9149408785e+02   6.1320194289e+00   0.01620188   0.01151999  81.24 0.0009383953    1.808    0.447
       398  -9.0746     95.0496     97.0593   2.9132552167e+02   6.0890289783e+00    0.0144011   0.01046988 -80.10 0.0006116536    1.574    0.365
       399 -10.0183     64.1004     96.0145   2.9167718363e+02   6.2864317243e+00   0.02666293   0.01572902  70.80  0.001563833    2.683    0.627
       400  -8.2968    151.2112     96.1200   2.9067030933e+02   5.7627464009e+00   0.01632193  0.008377062 -31.67  0.001311852    2.769    0.639
       401  -7.9933    176.4867     93.4545   2.9036176868e+02   5.6414335545e+00   0.01174948   0.00848229  66.38 0.0006016692    1.689    0.408
       402  -8.2129    164.8901     94.1449   2.9050001851e+02   5.7032389072e+00   0.01019303  0.008763595  69.89 0.0004627388    1.282    0.220
       403  -9.3732    139.0460     92.1070   2.9078611233e+02   5.8820021870e+00   0.02031706   0.01383453  89.75  0.001524726    1.906    0.475
       404 -10.1608    123.4075     91.3877   2.9096248367e+02   5.9841843211e+00    0.0288178   0.02255249 -10.29  0.001268607    1.472    0.321
       405  -9.2065     46.1528     92.8542   2.9186542566e+02   6.4301711329e+00   0.02273845   0.01126084  12.63  0.001820908    2.806    0.644
       406  -7.7305    188.3233     93.6561   2.9022629872e+02   5.5678952805e+00  0.007076524  0.004997564  64.60 0.0007050428    1.733    0.423
       407  -9.4718      5.3666     92.0998   2.9233302711e+02   6.6824362142e+00   0.02050504    0.0119439  56.99   0.00137898    2.205    0.547
       408  -7.9856    157.6399     91.7773   2.9056915335e+02   5.7740613070e+00  0.009177715  0.006321235 -76.47 0.0005116668    1.648    0.393
       409  -9.4906     34.8345     89.9670   2.9197865306e+02   6.5310566545e+00   0.02178048   0.01349981  83.33   0.00142642    2.433    0.589
       410  -9.0902     23.1097     90.2043   2.9211587613e+02   6.5983625377e+00   0.01421187   0.01175147  -6.29 0.0009758865    1.337    0.252
       411  -8.0462    150.9466     89.2989   2.9063118008e+02   5.8428010499e+00  0.009118175  0.008610909  15.55 0.0004492759    1.068    0.064
       412  -9.8924     86.2286     86.2199   2.9136063143e+02   6.2666332960e+00   0.02595416    0.0166407 -83.75  0.001762424    2.008    0.502
       413  -8.9387     66.1607     87.3189   2.9159966708e+02   6.3741775416e+00   0.02614271   0.01161003   7.27  0.001562488    5.238    0.809
       414  -7.6405    188.4310     87.4668   2.9018674443e+02   5.6384195151e+00  0.006500582  0.006432244 -55.91 9.803803e-05    1.013    0.013
       415  -7.9982    163.9805     87.2950   2.9046814886e+02   5.7874933639e+00  0.009193426  0.008914261  21.58  0.000556919    1.035    0.034
       416  -9.7964     48.4714     83.9634   2.9178372862e+02   6.5186338669e+00   0.03062356   0.01939751 -87.28  0.002240275    2.141    0.533
       417  -9.6179    104.7849     83.2418   2.9112752997e+02   6.1896490866e+00   0.01887235    0.0130347  80.04  0.001059496    1.919    0.479
       418  -8.2409    157.9819     84.0146   2.9051717433e+02   5.8612912256e+00  0.009802524  0.009678927 -72.40  0.000403228    1.024    0.024
       419  -8.8772    140.8711     82.9825   2.9070858080e+02   5.9760008410e+00   0.01360387  0.009588028 -85.20 0.0006745546    1.724    0.420
       420  -7.6295    170.3242     83.6445   2.9037225539e+02   5.7913233748e+00  0.007127248  0.004988777  65.10 0.0007046009    1.767    0.434
       421  -9.5317     10.1686     81.3891   2.9221140523e+02   6.7770726621e+00   0.02357586   0.01200003  58.62  0.001614282    3.020    0.669
       422  -8.0046     96.3192     91.3291   2.9127544037e+02   6.1473602571e+00  0.007077713   0.00492007 -27.70 0.0007047552    1.686    0.407
       423  -9.5884     24.5752     80.4800   2.9203894448e+02   6.7015350581e+00   0.02162539   0.01338616  85.87  0.001303905    2.405    0.584
       424  -8.1339    150.4808     80.9218   2.9058473948e+02   5.9419551025e+00  0.009787179  0.006582763 -66.54  0.001002638    1.537    0.349
       425  -8.5696    119.2891     80.4385   2.9094242141e+02   6.1348704868e+00   0.01481041   0.01072107  84.85  0.000961781    1.734    0.423
       426  -8.6965     74.6445     80.6507   2.9146029558e+02   6.4001148436e+00   0.01306998  0.009979298 -89.17 0.0009201318    1.541    0.351
       427  -8.4570    166.8796     79.7018   2.9038765633e+02   5.8573824364e+00   0.01141452   0.00843476 -49.16 0.0005376427    1.337    0.252
       428  -9.2478     65.3327     77.6850   2.9154976780e+02   6.4899965891e+00   0.01298791   0.01139399  81.98  0.001441796    1.249    0.199
       429  -9.8851     63.4021     73.6451   2.9154716935e+02   6.5480377319e+00   0.02410688   0.01406038 -81.21  0.001593743    2.310    0.567
       430  -8.3136    184.4084     78.4908   2.9017763667e+02   5.7658388335e+00  0.006518666  0.006379121 -54.70 0.0001201209    1.018    0.018
       431  -8.5474    105.2331     77.0345   2.9108397625e+02   6.2583745599e+00   0.01219248  0.008728577   5.49  0.001268673    1.630    0.386
       432  -9.2287    128.0493     75.4432   2.9081021008e+02   6.1397367278e+00   0.01585896   0.01175791 -88.84 0.0006806487    1.619    0.382
       433  -7.6958    157.2711     76.6328   2.9047970825e+02   5.9504594927e+00  0.006862369  0.005054424  70.80  0.000372764    1.666    0.400
       434  -8.7529    140.3647     75.4207   2.9066765643e+02   6.0660181958e+00   0.01221071  0.008183163 -69.00  0.000734836    1.579    0.367
       435  -8.1806    163.3193     73.6168   2.9039113628e+02   5.9487696133e+00   0.01172701  0.008062292 -77.94 0.0008063701    1.679    0.404
       436  -9.5559     82.3963     72.7356   2.9132167592e+02   6.4447469419e+00   0.01827043   0.01252529  87.54 0.0009412647    1.905    0.475
       437  -8.5845    115.7197     72.9406   2.9093734509e+02   6.2425454017e+00    0.0118474  0.009082939 -86.44 0.0007034348    1.512    0.339
       438  -8.3246     42.3256     72.7204   2.9178550223e+02   6.6847630259e+00   0.01226239  0.008160627 -78.31 0.0008873771    1.766    0.434
       439  -8.9914     28.5004     70.5574   2.9193227077e+02   6.7922765979e+00   0.02183545   0.01190233 -21.66  0.001722834    3.046    0.672
       440  -8.3419     31.8414     68.3722   2.9188008779e+02   6.7974602635e+00   0.01278523   0.01046425 -23.29  0.001206684    1.332    0.249
       441  -8.5836    105.9035     71.8854   2.9104438676e+02   6.3135865964e+00   0.01150139  0.009683632  85.87 0.0006348019    1.330    0.248
       442  -9.1602     95.0931     71.2048   2.9116526900e+02   6.3862520259e+00   0.01599438   0.01138769  85.95 0.0009743162    1.783    0.439
       443  -9.4501     51.5009     69.7345   2.9166081749e+02   6.6642484734e+00   0.02283905   0.01320018 -84.79  0.001408671    2.519    0.603
       444  -8.0036    151.4678     73.4798   2.9052727821e+02   6.0216087923e+00  0.006553858  0.006433907  67.93 7.914798e-05    1.043    0.041
       445  -8.9425     16.6671     70.0249   2.9206605509e+02   6.8690698450e+00   0.01487694   0.01094545  84.75  0.001034787    1.682    0.405
       446  -8.7985    147.0625     68.0952   2.9054488257e+02   6.1100102661e+00   0.01607748  0.009324313 -67.36   0.00113914    1.833    0.454
       447  -8.8467    138.6221     66.1613   2.9063051069e+02   6.1829756807e+00   0.01359525  0.008148925 -76.39  0.000800291    2.025    0.506
       448  -8.6603    121.5331     66.0612   2.9082754407e+02   6.2867722407e+00   0.01323607   0.01022689  81.62 0.0008369904    1.549    0.354
       449  -7.8730    175.4211     72.7400   2.9024585978e+02   5.8860459766e+00  0.009056744  0.005990508 -49.93 0.0003472951    1.488    0.328
       450  -8.6062     63.8948     64.1261   2.9148266503e+02   6.6546052657e+00   0.02296856   0.01155517 -24.17  0.001629661    3.754    0.734
       451  -8.8041     37.0876     64.3165   2.9179428922e+02   6.8127720268e+00   0.01703258   0.01096596  68.90  0.001238155    2.138    0.532
       452  -8.9115    110.1645     63.7522   2.9094478740e+02   6.3815701786e+00   0.01332994   0.01057261  69.74 0.0006856428    1.461    0.315
       453  -7.2721    187.3216     63.7033   2.9005240012e+02   5.9182990881e+00  0.006870151  0.004986463  61.43  0.000333769    1.619    0.382
       454  -8.6484    158.0431     62.2513   2.9038175832e+02   6.1111830907e+00   0.01116992  0.009269431 -62.48 0.0005270051    1.205    0.170
       455  -9.5955     73.3029     59.5787   2.9134563328e+02   6.6505776375e+00   0.01934697   0.01198067 -79.03  0.001067865    2.001    0.500
       456  -7.8665    164.3278     59.7146   2.9029340158e+02   6.1025430963e+00  0.006855789  0.004961852  59.99 0.0002919672    1.609    0.378
       457  -8.1353    146.8236     59.5666   2.9049485111e+02   6.2095122633e+00  0.009132733  0.005940608  40.93 0.0004721637    1.555    0.357
       458  -7.3529    163.6645     65.7071   2.9033817749e+02   6.0376393552e+00  0.006932963  0.004984446 -23.87  0.000702547    1.641    0.391
       459  -9.8848     23.4975     56.6628   2.9190447296e+02   6.9820247736e+00   0.02514847   0.01507578  77.46  0.002080144    2.686    0.628
       460  -9.5634      7.5652     57.4160   2.9209372346e+02   7.0684670347e+00   0.01831775   0.01233283  79.31 0.0009739131    2.024    0.506
       461  -8.0654    195.0174     58.0174   2.8992827415e+02   5.9373024995e+00    0.0106566  0.007690351  63.16 0.0005944727    1.655    0.396
       462  -8.0478    130.8015     58.0519   2.9067077123e+02   6.3232136467e+00   0.01017067  0.008623757  75.18 0.0006099688    1.320    0.243
       463  -9.4010    119.1628     55.6138   2.9079032391e+02   6.4211486642e+00   0.01996031   0.01202011 -74.14  0.001465539    1.938    0.484
       464  -9.4685     54.3226     55.7498   2.9154176161e+02   6.8082514991e+00   0.01741501   0.01175658 -83.78  0.001081641    1.832    0.454
       465  -8.2812    139.9201     56.2050   2.9055387256e+02   6.2896582926e+00    0.0101433  0.008716726  64.66 0.0005035334    1.269    0.212
       466  -8.6290     44.1428     55.6749   2.9165920593e+02   6.8700068775e+00   0.01337872  0.009845832  76.11 0.0008517654    1.691    0.409
       467  -8.4407    105.9299     53.4258   2.9092990801e+02   6.5257380380e+00   0.01223077  0.009265332  88.49 0.0007025872    1.578    0.366
       468  -9.5405     92.2772     50.5778   2.9107031243e+02   6.6403834815e+00   0.01977494   0.01194603 -77.15  0.001213468    2.025    0.506
       469  -9.2391     97.4597     60.7242   2.9107308041e+02   6.4926148562e+00   0.01273497   0.01149564  33.71 0.0007744284    1.111    0.100
       470  -8.2505    149.6393     49.1606   2.9039785530e+02   6.3122137997e+00  0.009588531  0.005669566 -50.01 0.0004011005    1.660    0.397
       471  -8.2464    144.7129     48.9644   2.9045361012e+02   6.3440900579e+00  0.009518078  0.008230421 -66.39 0.0004990499    1.170    0.145
       472  -8.3755    135.3082     48.4568   2.9055924257e+02   6.4064532086e+00   0.01122457  0.008678546 -60.05 0.0005341329    1.282    0.220
       473  -8.6922    120.9336     47.5721   2.9072006310e+02   6.5029786306e+00   0.01176964  0.009598395 -72.60 0.0004520898    1.284    0.221
       474  -8.4042    112.0992     47.0694   2.9081917972e+02   6.5618005533e+00    0.0104484  0.007724219  66.78 0.0005510215    1.625    0.385
       475  -8.9911     82.0717     46.6191   2.9116397946e+02   6.7470881425e+00   0.01198678   0.01050479  84.96 0.0005397882    1.248    0.199
       476  -8.5550     45.0190     44.8386   2.9158210996e+02   6.9894051222e+00   0.01112497  0.009493622 -71.09 0.0004749051    1.208    0.172
       477  -8.7949     16.7442     44.9138   2.9191019271e+02   7.1574991767e+00       0.0117  0.009090681 -88.93 0.0006114552    1.496    0.332
       478  -8.7151    250.0228     43.8077   2.8920524157e+02   5.7688523658e+00   0.01108409  0.009292931 -55.43 0.0004316277    1.176    0.150
       479  -8.6802    132.8484     43.4425   2.9055664806e+02   6.4788783990e+00   0.01289847  0.009911955  72.19  0.001138317    1.552    0.356
       480  -8.5065     32.4507     44.5224   2.9172577085e+02   7.0681820486e+00   0.01219293  0.006608526  10.80  0.001032625    2.464    0.594
       481  -8.1519    129.9526     49.3207   2.9062654364e+02   6.4287024469e+00   0.01181215  0.009145863  76.50 0.0006413744    1.544    0.352
       482  -9.2878     69.6315     41.7814   2.9127811857e+02   6.8772523981e+00   0.01865675   0.01249821  88.66  0.001215394    1.983    0.496
       483  -8.9476     58.2274     42.7086   2.9141593781e+02   6.9348734697e+00   0.01345951  0.009803724  81.27 0.0009768568    1.727    0.421
       484  -9.5086      5.2288     42.0937   2.9202624359e+02   7.2586590758e+00   0.01811292   0.01168516 -88.40  0.001575945    2.087    0.521
       485  -7.4895    140.4455     41.4857   2.9045664866e+02   6.4557108940e+00  0.006504669  0.006457836 -79.94  9.28427e-05    1.022    0.022
       486  -8.1484     36.9278     40.9503   2.9165182804e+02   7.0825024404e+00   0.01057106  0.007732663  65.23 0.0005520488    1.641    0.391
       487  -9.0503     95.5300     38.4627   2.9095770017e+02   6.7601770824e+00   0.01192577  0.009462195 -81.26 0.0007120405    1.396    0.284
       488  -8.8975     80.9120     36.9418   2.9111754555e+02   6.8653115396e+00   0.01068211  0.007756688  65.87 0.0005277055    1.668    0.400
       489  -9.3369     26.0828     35.5567   2.9174417577e+02   7.2093380127e+00   0.01573336     0.011902  89.61 0.0008260697    1.575    0.365
       490  -7.7341    133.4971     36.4992   2.9050614109e+02   6.5547893868e+00  0.006560075  0.006443188 -29.49 -0.0001213035    1.010    0.010
       491  -8.0104    125.9341     35.7258   2.9058885577e+02   6.6091226229e+00  0.009080334  0.008449909  32.35  0.000334108    1.079    0.073
       492  -8.7754    111.6673     34.6300   2.9074717411e+02   6.7073988521e+00    0.0128817  0.009952011  84.83 0.0006021817    1.542    0.352
       493  -8.8522    119.1095     32.3720   2.9064705800e+02   6.6886644227e+00   0.01790019  0.009900293 -74.32  0.001164345    2.210    0.548
       494  -7.7886     88.5083     34.5384   2.9101471198e+02   6.8474037383e+00  0.006533505  0.006445672  60.97 0.0001743328    1.035    0.034
       495  -8.8316     48.2925     33.3753   2.9147333106e+02   7.1016451511e+00   0.01213274    0.0103982  79.11 0.0007209965    1.300    0.230
       496  -8.4972     37.0660     34.0224   2.9160741517e+02   7.1613428096e+00  0.009493865  0.009161464 -24.03            0    1.038    0.036
       497  -8.9588     60.7171     32.6012   2.9132459976e+02   7.0361884831e+00   0.01248784   0.01045996  86.04 0.0006654512    1.342    0.255
       498  -9.0853     71.9885     30.8446   2.9118317057e+02   6.9888804996e+00   0.01606403  0.009673853 -74.95   0.00101009    1.963    0.491
       499  -9.3918    243.0662    246.4962   2.9053910262e+02   3.4805181767e+00    0.0269874   0.01097259 -53.18  0.002018087    2.311    0.567
       500  -7.8055     41.9929     29.9541   2.9152517497e+02   7.1786601103e+00  0.007959046  0.007603464 -55.25  0.000444078    1.039    0.038
       501  -8.9420     81.4023     27.6093   2.9105412034e+02   6.9696601217e+00   0.01361957   0.00982713  65.82 0.0007047556    1.686    0.407
       502  -8.5505      3.7190     27.8900   2.9195604661e+02   7.4310030595e+00   0.01207577  0.009112954 -89.57 0.0007690209    1.576    0.365
       503  -8.8754    105.9468     41.4490   2.9085559849e+02   6.6633472269e+00   0.01239142  0.009275079 -87.99 0.0006396231    1.586    0.370
       504  -8.9381     91.6039     26.2847   2.9092778103e+02   6.9237169543e+00   0.01443464   0.01064476 -87.96 0.0008575146    1.627    0.385
       505  -8.9154    145.0681     24.8867   2.9030033317e+02   6.6186720702e+00   0.01069039  0.008819079  64.83  0.001214338    1.351    0.260
       506  -8.3705     34.8815     24.0204   2.9157090544e+02   7.2893969420e+00   0.01038374  0.008765733  65.78  0.001136897    1.309    0.236
       507  -8.1873    104.4547     22.9325   2.9075823146e+02   6.8851403915e+00  0.009578441  0.006511399 -63.90 0.0004809627    1.487    0.328
       508  -7.7476    111.7665     21.9621   2.9066757417e+02   6.8523982983e+00  0.008815148  0.005450238 -60.32 0.0004088265    1.596    0.374
       509  -9.0238     63.5940     21.2188   2.9122085862e+02   7.1498106277e+00   0.01565761   0.01121321  83.03 0.0009730642    1.780    0.438
       510  -8.8170     48.3092     21.7031   2.9140096079e+02   7.2357335582e+00   0.01302411  0.009919703  66.90 0.0005642649    1.548    0.354
       511  -8.0175     19.7957     21.7517   2.9173174615e+02   7.4056159420e+00  0.009262941  0.007603718  62.80 0.0005535192    1.353    0.261
       512  -8.6028    120.5387     21.0398   2.9056032319e+02   6.8103127125e+00   0.01017424  0.006547584 -64.74  0.001022929    1.586    0.370
       513  -8.5017    156.2861    248.5650   2.9155210326e+02   3.9775991176e+00   0.01274318  0.009292996  64.47  0.001053048    1.639    0.390
       514  -8.5930    101.5211     29.3311   2.9083181586e+02   6.8292060773e+00   0.01144375  0.009212058  81.33 0.0006600501    1.443    0.307
       515  -8.2138     38.8684     18.6233   2.9149132551e+02   7.3276027592e+00   0.01070766  0.008070378 -70.48 0.0004808134    1.393    0.282
       516  -8.0974     87.8182     17.8157   2.9091918815e+02   7.0437553648e+00  0.009090126  0.007673195  71.96 0.0003957498    1.326    0.246
       517  -7.9248    112.7709     16.9693   2.9062501792e+02   6.9037393420e+00  0.008582967  0.005420963 -60.45 0.0003353268    1.565    0.361
       518  -8.2649    113.2461    248.6330   2.9204906676e+02   4.2347129548e+00   0.01239585  0.008092368 -78.80   0.00121534    1.828    0.453
       519  -7.8595     17.1690     14.2221   2.9171566089e+02   7.5078533206e+00  0.009243882  0.007551887  60.93  0.000478951    1.352    0.261
       520  -9.3145    103.7103    246.6418   2.9214687749e+02   4.3147346042e+00   0.02535214   0.01365441 -87.19  0.001943563    3.194    0.687
       521  -8.9591    218.6097    246.6503   2.9082179983e+02   3.6256423749e+00   0.02282574  0.007032333 -59.14  0.001657648    3.016    0.668
       522  -8.7932    175.5018    247.3937   2.9132329019e+02   3.8758343861e+00   0.01658201   0.01122241  67.52  0.001107049    1.912    0.477
       523  -7.8871      7.6075     15.7796   2.9183614983e+02   7.5470263619e+00  0.009420941  0.006386275 -79.19 0.0009408434    1.736    0.424
       524  -8.5483    177.1539    242.3132   2.9127295917e+02   3.9243969907e+00   0.01355274  0.009124788   6.51    0.0013528    1.789    0.441
       525  -9.7222     66.7845    246.5200   2.9257234863e+02   4.5370206211e+00   0.02147138   0.01515043 -22.78  0.001604503    1.705    0.413
       526  -8.3934     21.9984    248.3214   2.9310045012e+02   4.7837120502e+00   0.01150036  0.003543188  45.76 0.0007045974    4.254    0.765
       527  -9.3827    224.3526    246.3163   2.9075356914e+02   3.5949966385e+00   0.03320548   0.01031135 -54.66  0.002462059    2.893    0.654
       528  -9.8564    223.6740    242.9953   2.9074091844e+02   3.6372758568e+00   0.02509779   0.01412227 -75.57  0.002007279    2.206    0.547
       529  -9.1880    147.1395    246.0972   2.9164242422e+02   4.0608457586e+00   0.01920605   0.01158401  63.72   0.00160197    2.309    0.567
       530  -8.9247    120.2477    245.6139   2.9194971728e+02   4.2275486978e+00   0.01973004   0.01214683  70.96  0.001642812    2.403    0.584
       531  -7.8224     13.6651    247.2964   2.9319038797e+02   4.8452230661e+00  0.006941919  0.004950821  60.43 0.0002972994    1.647    0.393
