#   1 NUMBER                 Running object number                                     
#   2 MAG_AUTO               Kron-like elliptical aperture magnitude                    [mag]
#   3 X_IMAGE                Object position along x                                    [pixel]
#   4 Y_IMAGE                Object position along y                                    [pixel]
#   5 X_WORLD                Barycenter position along world x axis                     [deg]
#   6 Y_WORLD                Barycenter position along world y axis                     [deg]
#   7 A_WORLD                Profile RMS along major axis (world units)                 [deg]
#   8 B_WORLD                Profile RMS along minor axis (world units)                 [deg]
#   9 THETA_WORLD            Position angle (CCW/world-x)                               [deg]
#  10 FWHM_WORLD             FWHM assuming a gaussian core                              [deg]
#  11 ELONGATION             A_IMAGE/B_IMAGE                                           
#  12 ELLIPTICITY            1 - B_IMAGE/A_IMAGE                                       
         1 -11.9780    197.6494     43.3974   4.2220506324e+01   3.0651526179e+01    0.8760782    0.8063717 -74.72  0.003304313    1.068    0.063
         2 -12.0278    206.0833     34.7270   3.9091749181e+01   2.9852658748e+01    0.6278393    0.6162607 -64.81  0.001418494    1.237    0.192
         3 -10.6766     28.6021     13.8155   7.6580865465e+01   7.0144884358e+01    0.2920548    0.2052587 -28.34  0.001918334    1.360    0.265
         4 -11.7491    231.5246     11.1973   3.1527456468e+01   2.7085231214e+01    0.7871862    0.4687548  83.56   0.00473786    1.536    0.349
         5 -11.2321    231.4581      4.2982   3.0125755367e+01   2.7842394681e+01     0.701234    0.3162606  79.98  0.003733941    2.052    0.513
         6  -9.9922     59.4342      7.3053   5.9758077136e+01   6.6154384394e+01    0.3627124   0.08995948 -32.53  0.001373378    4.141    0.759
         7 -10.3659     40.7683      3.7152   6.5543038927e+01   6.9654838169e+01    0.3017919     0.145525 -18.95  0.001361095    2.151    0.535
         8  -8.8988     73.7764    238.1329   1.1109913498e+02   1.4566107561e+01    0.2698341    0.1560281 -58.91  0.001477472    1.929    0.482
         9 -17.1493      8.1849    245.3377   1.2432278922e+02   2.0776946305e+01     12.72006     4.336592 -78.87   0.01723247    2.675    0.626
        10  -8.1028    168.4396    232.4767   9.0227489350e+01   1.3516239330e+00    0.1308872    0.1130815  20.27 1.282471e-05    1.022    0.022
        11  -9.3296    139.0000    229.9868   9.6120641981e+01   6.4398623091e+00    0.2045796   0.07715439 -52.21 0.0003761123    3.015    0.668
        12 -10.3136    145.2502    223.0777   9.3727858945e+01   6.7375458446e+00    0.2484629     0.179871 -55.18  0.001351621    1.602    0.376
        13  -8.2163     66.4875    216.5334   1.1050993586e+02   2.0076096771e+01    0.1310177    0.1119024  66.45 0.0001789111    1.006    0.006
        14 -10.4228    120.0673    213.1802   9.7884524594e+01   1.2810856242e+01    0.3582655    0.2140873 -69.15  0.001527082    2.148    0.535
        15  -9.5166    134.6066    211.1961   9.4254299270e+01   1.0828985039e+01    0.1919927    0.1286579 -40.04 0.0009503065    1.674    0.402
        16  -9.7358     42.0068    207.9399   1.1511740352e+02   2.5044852255e+01    0.4007236    0.2327826  66.94  0.002121408    1.671    0.401
        17  -8.0990     88.8221    210.2139   1.0469733726e+02   1.8324723342e+01    0.1674462    0.1560849 -33.10 0.0002669934    1.290    0.225
        18 -16.0255      2.1845    219.2756   1.2416297931e+02   2.6618001133e+01     18.66847          nan -74.36   0.01487876   15.642    0.936
        19 -11.1905    110.1568    204.2301   9.8865575125e+01   1.6336434410e+01    0.4475429    0.3447516   3.94  0.001992099    1.712    0.416
        20  -8.8568     32.0943    203.3691   1.1691752394e+02   2.7187647329e+01    0.2513559    0.1608053  89.27  0.001434887    1.410    0.291
        21  -9.7461    194.9206    198.4802   7.8800757975e+01   3.0775808584e+00     0.581573    0.3202212 -65.89  0.001541621    7.712    0.870
        22  -9.6051     60.2256    197.8944   1.0992491377e+02   2.5129191038e+01    0.2195719    0.1973677  60.83 0.0003831252    1.092    0.084
        23  -9.3844     65.9357    179.5742   1.0624956610e+02   2.8774001432e+01    0.2763296    0.2017424 -75.54 0.0006751503    1.312    0.238
        24 -11.9684     57.2348    184.6446   1.0909828003e+02   2.8673008064e+01    0.8639414     0.706842  58.18  0.005053273    1.161    0.139
        25 -10.4069    122.3462    199.0801   9.5170011338e+01   1.5453767081e+01    0.3445878    0.2721511 -78.67  0.001106272    1.495    0.331
        26  -8.4517    118.3718    191.2998   9.4846596205e+01   1.7860266935e+01    0.1487466    0.1143279  -7.08 0.0007030017    1.745    0.427
        27  -8.3297    147.6989    189.3402   8.7468604131e+01   1.3135727604e+01    0.1458733    0.1166515  77.05 0.0007037178    1.670    0.401
        28  -7.7244    146.6450    186.3135   8.7152005822e+01   1.3974968158e+01    0.1511272    0.1160483  70.95            0    1.737    0.424
        29  -8.7415     23.3008    185.8573   1.1743342148e+02   3.2164924701e+01    0.1925713    0.1828719 -48.08 0.0008813933    1.340    0.254
        30  -9.4462     47.5200    186.0096   1.1165368074e+02   2.9531452621e+01    0.2676336    0.1788033  45.97  0.001088772    1.449    0.310
        31  -8.2095     69.4827    183.4787   1.0587418531e+02   2.7336306849e+01    0.1409907    0.1257859  78.67 0.0008098941    1.028    0.027
        32  -9.6152     99.3729    180.8114   9.7850971370e+01   2.3478799050e+01    0.2598042    0.2427304  30.19 0.0007320616    1.128    0.114
        33  -8.8969     46.3200    176.8767   1.1091209016e+02   3.1898947437e+01    0.2311752    0.1689074  52.45 0.0006318878    1.340    0.254
        34  -8.5192     39.3093    176.9346   1.1268606996e+02   3.2674268976e+01    0.2227471    0.1584074  51.40 0.0006615491    1.379    0.275
        35  -9.2877    186.2234    174.5030   7.5868743041e+01   9.1442590671e+00    0.3273121    0.2835228  57.01  0.001603617    1.396    0.284
        36 -10.4038    103.7048    172.0544   9.5231651134e+01   2.4871481696e+01    0.3380981     0.246986  59.52  0.001614285    1.496    0.331
        37 -10.2531     71.8355    161.7441   1.0204505218e+02   3.2410382003e+01    0.5418924    0.3570004  76.49  0.002459139    1.878    0.468
        38 -10.6476     71.3090    170.8885   1.0360970752e+02   3.0186290280e+01    0.4318782     0.301307 -36.14  0.002091039    1.787    0.440
        39 -10.5380     75.7562    166.1079   1.0167602161e+02   3.0748146163e+01    0.4195236    0.2903221 -34.30  0.001514922    1.818    0.450
        40  -9.5006     94.4872    167.4941   9.6863071068e+01   2.7515429498e+01    0.2328006    0.1323812  46.67 0.0009634047    1.795    0.443
        41  -9.9310     32.6026    165.0790   1.1308267643e+02   3.6310631906e+01    0.2587513    0.2065883 -68.91 0.0009098515    1.145    0.127
        42 -12.0875     59.1251    132.8494   1.0074002626e+02   4.1513118815e+01      1.21458    0.4598988 -70.85  0.003829931    3.556    0.719
        43 -11.8664     72.3187    152.8969   1.0043135751e+02   3.4589020174e+01    0.4762574    0.4410402 -57.33 0.0009142954    1.080    0.074
        44 -12.1662     69.0892    144.2892   9.9840602753e+01   3.7245803850e+01    0.9157903    0.5918948  66.52  0.003328845    1.975    0.494
        45  -9.5848     92.7370    149.2439   9.3937858223e+01   3.2360071857e+01    0.3820502    0.2929222 -69.38  0.001732848    1.342    0.255
        46  -9.8393    134.0294    146.1838   8.1997785287e+01   2.5498014531e+01    0.8981104     0.225018 -54.51  0.001967055    6.170    0.838
        47 -10.2718     53.3920    149.1430   1.0523588387e+02   3.8051483497e+01    0.3288719    0.2084427  56.54  0.001564418    1.766    0.434
        48 -11.0741     82.8649    158.5796   9.8459805048e+01   3.1582088350e+01    0.7691297    0.5521951  52.84  0.003745094    1.460    0.315
        49  -9.5872     40.4045    146.8688   1.0863329162e+02   4.0106025417e+01    0.2527533    0.1949269 -48.47 0.0008401849    1.318    0.241
        50  -9.4574    103.4798    138.3568   8.8582726017e+01   3.3221759249e+01    0.5011725    0.2845553 -33.28  0.001892822    2.296    0.565
        51 -10.5826     91.3777    137.2064   9.1849784288e+01   3.5614419344e+01    0.2931304    0.2605214 -35.17 0.0004646315    1.164    0.141
        52  -9.7841     89.2617    152.7503   9.5601249913e+01   3.2045593105e+01    0.3451617    0.2836046 -16.65 0.0006076116    1.498    0.332
        53  -9.3353    106.0301    130.9463   8.6157437937e+01   3.4579135442e+01    0.3532985    0.3161421  79.83  0.001197147    1.244    0.196
        54 -10.5281     44.2792    130.6794   1.0495741427e+02   4.3827433846e+01    0.3282649    0.1873915 -70.37  0.000999853    1.649    0.394
        55  -9.8539    112.9790    128.6637   8.3619801415e+01   3.3818584404e+01    0.4216225     0.295781   5.85  0.001513183    2.095    0.523
        56  -9.4264     99.6668    124.7613   8.6560508853e+01   3.7257428676e+01    0.3029171    0.2566347  -1.85 0.0009953107    1.371    0.271
        57  -8.0401     92.8269    125.5864   8.8813685939e+01   3.8265005755e+01    0.2073875    0.1430831  49.12 0.0005155542    1.585    0.369
        58 -10.0500    119.4057    124.0076   8.0660178574e+01   3.3664302398e+01    0.3917506    0.2009409  45.78  0.001483418    2.036    0.509
        59 -10.1312     72.1244    244.8832   1.1206535946e+02   1.3457320769e+01    0.3914623    0.2285689  58.89  0.001206096    1.586    0.369
        60  -8.8113    135.0000    119.9599   7.5391901644e+01   3.1370460876e+01    0.2729302   0.08929463 -45.80 0.0008102491    2.997    0.666
        61  -8.2775    108.5011    118.0821   8.2289396752e+01   3.7214186579e+01    0.2308005    0.1513732 -48.44 0.0004135356    1.479    0.324
        62  -8.7183    231.1646    113.9904   5.4135814334e+01   1.2058496969e+01    0.2191715    0.2049624  60.34  0.000829389    1.227    0.185
        63 -10.8600     52.8708    110.4861   9.8267013968e+01   4.7938944884e+01    0.4560001    0.2754956 -81.97  0.001928083    2.301    0.565
        64 -11.6640     43.4870    109.1621   1.0119713055e+02   4.9338962004e+01    0.5181698    0.3918131  35.49  0.002834655    1.484    0.326
        65  -8.1482    205.4944    110.4689   5.7545412906e+01   1.7880212233e+01    0.1468992    0.1342282 -47.14 0.0008097693    1.019    0.018
        66 -10.2439    114.9870    109.1662   7.8057121024e+01   3.8004362709e+01    0.3293445    0.2674678 -63.46  0.001038761    1.360    0.265
        67 -11.1811     33.4065     99.5243   1.0275205551e+02   5.2711307729e+01     0.578779    0.2101372 -64.37  0.002223487    2.550    0.608
        68  -9.7535     52.1053     93.8298   9.4644133629e+01   5.2068255011e+01    0.2103018    0.1932741 -87.91  0.000573315    1.272    0.214
        69  -8.5224    128.2124     95.8085   7.0623881580e+01   3.8127700072e+01    0.2141355    0.1858356   5.44 0.0008372579    1.293    0.226
        70  -8.7214    155.9731     88.0172   6.1555419356e+01   3.3335213479e+01    0.3496105    0.1990365 -60.99  0.001173874    2.496    0.599
        71  -8.1461     75.5052     85.4135   8.3898025707e+01   5.0650608824e+01    0.1457448     0.134425 -18.46 5.820088e-05    1.017    0.017
        72 -10.3114    112.4763    242.5027   1.0345405040e+02   8.1900456214e+00    0.2042782     0.128304 -61.25 0.0007385117    1.861    0.463
        73  -8.3062     32.6194     79.2952   9.8405891659e+01   5.7543855999e+01    0.1280852    0.1011046  64.69 0.0007020723    1.756    0.430
        74 -11.0825    185.4622     52.7184   4.6314563847e+01   3.2208717120e+01    0.4562275    0.3958436  24.81  0.001221532    1.450    0.310
        75 -10.2781    120.6539    245.8203   1.0214014955e+02   6.3601178356e+00    0.1854367    0.1468294  32.53 0.0009890428    1.135    0.119
        76  -9.6500     72.0139    249.3067   1.1248173560e+02   1.2621599196e+01    0.2885357    0.1816353  58.00  0.001297093    1.398    0.285
        77 -10.4161    106.9401    250.0638   1.0547411645e+02   7.6148887159e+00    0.3277019    0.1633598  32.42  0.001630333    1.850    0.460
        78  -8.9140     83.7787    245.4055   1.0974095940e+02   1.1774605549e+01    0.2144287    0.1451903  88.88 0.0008944884    1.680    0.405
        79  -8.6478    134.6624    243.3318   9.8891240180e+01   4.6873355614e+00    0.1316632   0.09113732  60.35 0.0007052007    1.739    0.425
        80 -10.3257    102.2604    239.7016   1.0528298028e+02   1.0232433935e+01    0.3827236    0.1980967 -35.74  0.001599839    3.513    0.715
        81 -10.0090     78.8384    237.4900   1.0998091202e+02   1.4004840647e+01    0.3454618     0.215136 -58.06  0.001945961    1.810    0.447
