#   1 NUMBER                 Running object number                                     
#   2 MAG_AUTO               Kron-like elliptical aperture magnitude                    [mag]
#   3 X_IMAGE                Object position along x                                    [pixel]
#   4 Y_IMAGE                Object position along y                                    [pixel]
#   5 X_WORLD                Barycenter position along world x axis                     [deg]
#   6 Y_WORLD                Barycenter position along world y axis                     [deg]
#   7 A_WORLD                Profile RMS along major axis (world units)                 [deg]
#   8 B_WORLD                Profile RMS along minor axis (world units)                 [deg]
#   9 THETA_WORLD            Position angle (CCW/world-x)                               [deg]
#  10 FWHM_WORLD             FWHM assuming a gaussian core                              [deg]
#  11 ELONGATION             A_IMAGE/B_IMAGE                                           
#  12 ELLIPTICITY            1 - B_IMAGE/A_IMAGE                                       
         1 -12.3528      5.9068     61.7684   1.0485158100e+02   6.3416105217e+01     1.790549    0.2696587 -51.64  0.006675655    3.295    0.697
         2 -13.3730    228.5583     29.1645   3.5761684126e+01   2.5377577970e+01    0.8722305    0.6992835  52.41   0.00558727    1.546    0.353
         3 -11.5914     22.5470     12.9620   7.8853599883e+01   7.0870819864e+01     0.525552    0.3870777  39.46  0.003448666    1.883    0.469
         4 -11.8647     32.0054     12.7898   7.3949229177e+01   6.9720368088e+01     1.136746    0.5296833 -22.77  0.005781815    2.226    0.551
         5 -13.2354    162.3177     13.3927   3.9077384031e+01   4.2427424043e+01     1.520694    0.6781826  74.32  0.006729703    2.146    0.534
         6 -11.7882     10.1854     18.5646   8.8281054067e+01   7.1277501203e+01    0.9694278    0.5720621 -12.37  0.005977781    1.564    0.361
         7 -12.8919     51.8186     22.0925   6.9483790724e+01   6.5616333783e+01     1.627454     1.227943  37.74  0.009646868    1.383    0.277
         8 -10.5314     78.4426      9.3820   5.4324500242e+01   6.2139820830e+01    0.3836005    0.2006516  27.87  0.001885906    2.019    0.505
         9 -11.3062     19.6197     20.5767   8.4026298455e+01   7.0079484241e+01    0.6148497    0.3563023  14.16  0.003676102    1.677    0.404
        10 -10.0943     94.2769      2.0059   4.7100153568e+01   5.9400578397e+01    0.2326795    0.1532953  72.96  0.001288627    1.679    0.404
        11 -14.3618     21.9578    201.9892   1.1891113757e+02   2.9060897932e+01     3.512228     1.185758 -59.11    0.0154262    2.923    0.658
        12  -8.3446     16.3415    250.6949   1.2303272645e+02   1.9599697263e+01    0.1201697   0.05740572  61.22 0.0007041171    1.682    0.406
        13 -11.8273     70.6797    203.5563   1.0812081638e+02   2.2934039957e+01    0.8242683    0.7177348 -59.99  0.004306831    1.260    0.206
        14 -13.2727     54.7869    203.9562   1.1181251609e+02   2.4930911767e+01     1.371495    0.8285191  82.89   0.00549372    1.774    0.436
        15 -13.0331     38.9104    206.9455   1.1563804069e+02   2.6152283651e+01      1.16219    0.7652087  63.79  0.005715199    1.369    0.269
        16 -15.0813     31.0547    188.1717   1.1571234353e+02   3.1294812910e+01     7.486384     3.096385  80.04    0.0279357    3.557    0.719
        17 -11.2548     53.8289    175.1601   1.0872584308e+02   3.1819417372e+01    0.2797172    0.2496604 -35.73 0.0004458695    1.351    0.260
        18 -10.3952     66.1337    164.8303   1.0406353964e+02   3.2764457984e+01    0.2339339    0.2279055 -39.56 0.0003618686    1.163    0.140
        19  -8.6595    135.9381    164.5098   8.5677501309e+01   2.1172538827e+01    0.2128332    0.1481769  39.44 0.0003068772    1.419    0.295
        20 -12.6081     51.6311    161.4858   1.0747465087e+02   3.5453651867e+01    0.5247127    0.3095893 -38.33  0.001626794    2.184    0.542
        21 -11.4284     74.9066    157.7087   1.0052991953e+02   3.3300328785e+01    0.5512002    0.4786919 -39.74  0.003039589    1.253    0.202
        22 -10.6913     53.5797    189.1333   1.1047795250e+02   2.8502005683e+01    0.3925204    0.2904052  46.20  0.001534228    1.310    0.237
        23 -12.1255     67.9798    143.7493   1.0004166685e+02   3.7785098824e+01     0.746023      0.46011  62.66  0.002943348    2.079    0.519
        24  -9.4570     90.7493    144.4913   9.3609678484e+01   3.4128338623e+01    0.2845353    0.2552846  -6.85 0.0009673176    1.272    0.214
        25 -11.4391     78.4297    142.4395   9.6750449541e+01   3.6592969141e+01    0.3206343    0.2619228 -52.90 0.0006523935    1.169    0.145
        26  -8.5083     94.3289    141.2870   9.1923591250e+01   3.4319605563e+01    0.1521026    0.1185927 -17.22 0.0003896509    1.614    0.381
        27 -10.1504    105.5683    131.4983   8.6527211491e+01   3.4710365219e+01    0.3782917    0.2986629 -26.70  0.001050998    1.429    0.300
        28 -10.0768     91.5593    128.5055   8.9925955850e+01   3.7928989365e+01    0.2990045    0.2584535   3.49 0.0006500233    1.320    0.242
        29  -9.6641     53.5160    122.9754   1.0052595714e+02   4.4891584524e+01    0.2189287   0.09249979 -42.82 0.0008103353    2.573    0.611
        30  -8.9874    103.6454    120.0945   8.4330052196e+01   3.7787892971e+01    0.2104832    0.1885288 -41.05 0.0003992621    1.085    0.079
        31 -11.2157     43.9372    108.2541   1.0069860586e+02   4.9629520700e+01    0.5233663    0.4304883  41.41  0.003006254    1.379    0.275
        32 -12.0084     13.5592     73.7165   1.0444017048e+02   6.0351390120e+01    0.8958547    0.5251939 -28.83  0.004930897    1.691    0.409
        33 -10.5614     15.7621     82.8647   1.0557437359e+02   5.8139756460e+01    0.4413007    0.2427305 -36.98  0.002063082    1.700    0.412
        34 -10.7097     35.2356     91.0127   1.0000007205e+02   5.4642921034e+01    0.5783869    0.3769155 -22.22  0.002990016    1.735    0.424
        35 -10.5180     35.7889     85.3793   9.8447571593e+01   5.5889611186e+01    0.4630877    0.3054263  -2.71  0.002413467    1.819    0.450
        36  -9.7653     51.8739     89.9889   9.3604041302e+01   5.3036741264e+01    0.2864975     0.228661  57.29   0.00155421    1.602    0.376
        37 -11.6822     24.2962     84.0803   1.0254818680e+02   5.7223473396e+01    0.6332811    0.4968372 -56.40  0.002687324    1.121    0.108
        38 -11.1972      9.8071     52.9682   1.0078769453e+02   6.5020169003e+01    0.8487129    0.1924654 -48.07  0.003430192    2.857    0.650
        39 -11.3767     46.3670    181.5843   1.1136854202e+02   3.1164339203e+01    0.3559313    0.2698431 -49.09 0.0006037799    1.489    0.329
        40 -11.3274     12.2309     60.0092   1.0162374071e+02   6.3404844979e+01    0.7729759    0.2706418  20.05  0.003475125    3.127    0.680
        41 -11.3564      9.3253     88.5239   1.0912243442e+02   5.7243256141e+01    0.5795108    0.3469487 -52.97  0.002470186    1.320    0.242
        42  -9.9817     34.3119     62.6382   9.2770914290e+01   6.0989280525e+01    0.3146234    0.2161072 -37.60  0.001799515    1.239    0.193
        43 -10.7775     41.3000     63.3973   9.0070744137e+01   6.0069174314e+01    0.3925495     0.294569 -56.65  0.002243782    1.459    0.315
        44 -10.0442      1.8164     48.4401   1.0327315516e+02   6.6401555488e+01    0.2808271    0.1415287 -62.88  0.001517259    1.877    0.467
        45 -12.2418    210.5987     42.5279   4.0645900382e+01   2.7631863170e+01    0.5029939      0.32262  59.07  0.002707106    1.609    0.378
        46 -10.9612    132.4714    247.4584   1.0006669364e+02   4.9364817011e+00    0.2286286    0.1938086  37.06 0.0008359814    1.013    0.013
        47 -11.2462    119.3380    244.0859   1.0235092132e+02   7.5138111685e+00    0.3197637     0.171731 -64.17  0.001602226    2.400    0.583
        48 -10.3321     10.6840     30.8999   9.3087457649e+01   6.9169205806e+01     0.381677    0.2325058  10.15  0.002364807    1.653    0.395
        49 -10.1694     12.4586    244.3485   1.2340134107e+02   2.1199440932e+01    0.1752767    0.1364586 -74.97  0.000616905    1.437    0.304
        50 -13.7290     13.1794    208.4016   1.2120688312e+02   2.8497135737e+01     1.254181    0.7400432  48.85  0.001276704    1.515    0.340
        51 -11.7852     53.7840    234.5545   1.1487505619e+02   1.8510605883e+01    0.6342615    0.3704856 -71.08   0.00289004    1.743    0.426
        52 -12.2778    126.0500    230.0714   9.9117352275e+01   9.0609347135e+00    0.6335109    0.3991262  69.61  0.002989595    2.399    0.583
        53 -12.3417    119.5005    229.7017   1.0047999370e+02   1.0158221504e+01    0.5550801    0.3659541  18.72  0.002842585    1.848    0.459
        54 -10.2346     83.2194    229.5619   1.0827449028e+02   1.5609880057e+01    0.2818564    0.1665481 -52.79  0.001493726    1.959    0.490
