#   1 NUMBER                 Running object number                                     
#   2 MAG_AUTO               Kron-like elliptical aperture magnitude                    [mag]
#   3 X_IMAGE                Object position along x                                    [pixel]
#   4 Y_IMAGE                Object position along y                                    [pixel]
#   5 X_WORLD                Barycenter position along world x axis                     [deg]
#   6 Y_WORLD                Barycenter position along world y axis                     [deg]
#   7 A_WORLD                Profile RMS along major axis (world units)                 [deg]
#   8 B_WORLD                Profile RMS along minor axis (world units)                 [deg]
#   9 THETA_WORLD            Position angle (CCW/world-x)                               [deg]
#  10 FWHM_WORLD             FWHM assuming a gaussian core                              [deg]
#  11 ELONGATION             A_IMAGE/B_IMAGE                                           
#  12 ELLIPTICITY            1 - B_IMAGE/A_IMAGE                                       
         1 -14.5274    205.4342     74.5167   6.3642544167e+01   2.4245254300e+01     4.862739     3.618979  84.48    0.0244717    1.843    0.458
         2 -13.8420    217.5374     29.0607   4.9397986240e+01   2.6918345689e+01      2.98788     2.097854 -17.52   0.01599847    1.367    0.269
         3 -13.4879    248.4471     12.8905   4.2650448868e+01   2.1630746897e+01     1.169572    0.4153697 -39.53  0.004403953    2.237    0.553
         4 -12.9388    238.0063      3.5131   4.0925023939e+01   2.4674009565e+01    0.6718524    0.4561543  52.37 0.0006985309    1.692    0.409
         5 -15.7653    244.3804     42.6613   5.0471771306e+01   1.9583332443e+01     5.578105     1.740384 -21.17   0.01723528    3.047    0.672
         6 -14.0441    231.7850     76.2122   6.0425362223e+01   1.8371082636e+01     3.723892     1.622651 -50.34  0.003741286    3.502    0.714
         7 -14.3090    220.8335     73.8756   6.1266160039e+01   2.0958056813e+01     14.74217          nan -35.44   0.02742235   10.646    0.906
         8 -12.5099    134.6893     37.1672   6.4292419615e+01   4.6760462553e+01     1.491613    0.5036535 -28.96  0.004951212    2.858    0.650
         9 -13.8889    233.4156     31.0311   4.8452277482e+01   2.3127505197e+01     1.358046    0.6895438 -10.44  0.006067256    2.211    0.548
        10 -11.4238    127.1299     15.4642   5.7108038286e+01   5.1402496736e+01    0.7577039    0.4151752 -58.12  0.002961897    2.544    0.607
        11 -12.1340    118.6641      9.6431   5.6237553087e+01   5.4197305260e+01    0.9302808    0.7805284 -74.24  0.004082339    1.382    0.276
        12 -11.3347    142.1843     10.8648   5.2614730698e+01   4.7918543277e+01     1.072499    0.5449389 -10.96   0.00383112    2.203    0.546
        13  -9.5693    220.0689     10.6680   4.4041355185e+01   2.8100743141e+01    0.2135524    0.2063394  18.71 0.0005329286    1.140    0.123
        14 -13.3912    241.4625     21.5469   4.5321066486e+01   2.2312795607e+01    0.7638469    0.5039744 -27.70 0.0009263192    1.300    0.231
        15 -10.1398    204.1057      8.7750   4.4778771529e+01   3.2079582242e+01    0.2866358    0.1869761  -8.85 0.0005881449    1.633    0.388
        16  -8.9884    164.2786      9.1621   4.8938057865e+01   4.2223694171e+01    0.2247566    0.2087144   3.88 0.0004269538    1.109    0.098
        17  -9.2696    157.8184      6.2605   4.8686897979e+01   4.4189572741e+01    0.3600402    0.2602966  -3.66  0.001623363    1.488    0.328
        18  -9.7083    209.5269      5.2204   4.3306554140e+01   3.1072052534e+01    0.2509154    0.2009874   5.49 0.0007695112    1.386    0.278
        19  -7.6264    179.4588      6.5435   4.6358615990e+01   3.8486483980e+01    0.1351818    0.1349624  52.12 0.0001113983    1.037    0.035
        20  -7.8287    170.7642      6.5977   4.7293988365e+01   4.0745635784e+01    0.1464472    0.1006291  24.13 0.0004924511    1.672    0.402
        21  -9.7507    137.1797      5.3526   5.1174767195e+01   4.9751689243e+01    0.4241922    0.2085791 -16.37  0.001152128    2.104    0.525
        22 -12.0420     51.9308    151.8842   1.1626002756e+02   3.8242301976e+01    0.8127118    0.6884948 -89.86  0.003553806    1.101    0.092
        23 -11.1753     58.7716    148.4435   1.1414113664e+02   3.8175379957e+01    0.5481169    0.3756626  79.75  0.001489168    1.496    0.332
        24  -7.6972    141.8350    154.6194   9.5198296012e+01   2.4312790701e+01    0.1777989    0.1152121  48.22 0.0002255102    1.520    0.342
        25  -7.8345    146.4794    150.4749   9.3412487327e+01   2.4218843684e+01    0.1335031    0.1222115  30.63 0.0008097065    1.021    0.020
        26  -9.0281    133.7361    147.1421   9.5604987984e+01   2.7078285961e+01    0.3077671    0.1160152 -45.26   0.00120418    2.847    0.649
        27  -8.6834    149.6198    146.8104   9.2021201201e+01   2.4292388916e+01    0.1817361    0.1282209 -54.19 0.0008776073    1.697    0.411
        28  -8.0431    213.3035    139.6613   7.8240866599e+01   1.3680942230e+01    0.1190147    0.1037879 -57.69 0.0004348744    1.672    0.402
        29  -8.1820    132.7490    138.9935   9.4245560061e+01   2.8773396252e+01    0.1794517    0.1178871 -46.08 0.0008965821    1.611    0.379
        30  -9.1616    221.7667    135.7987   7.6014054218e+01   1.2677125560e+01    0.3883525    0.1448702 -39.11  0.001578546    2.941    0.660
        31 -10.3711    198.6884    133.3761   7.9423282762e+01   1.7241927703e+01    0.4106067    0.3425692 -35.45  0.002439492    1.319    0.242
        32  -7.7801    170.9672    133.0102   8.4643643100e+01   2.2614875880e+01    0.1642267    0.1500149  -1.21 0.0003259676    1.047    0.045
        33 -10.3040    236.6676    194.4138   8.4805276436e+01   3.5283816858e+00    0.2683201    0.2193502 -30.96  0.000702265    1.698    0.411
        34  -9.4012    160.0750    128.6948   8.5948314598e+01   2.5465163509e+01    0.3046779    0.2299081 -72.56  0.001486845    2.038    0.509
        35 -10.9842    185.3345    123.6708   7.9696189206e+01   2.1283829385e+01    0.6755653    0.2631022 -36.73  0.002654319    2.539    0.606
        36  -8.5487    212.0707    122.0011   7.4539471040e+01   1.6302943408e+01    0.3057985    0.2210911  87.84  0.001400743    2.932    0.659
        37  -9.5919    211.0785    126.2127   7.5665003405e+01   1.5912518949e+01    0.2960165    0.2387024 -46.00  0.001708118    1.537    0.349
        38  -9.4789    163.1667    121.1991   8.3566823232e+01   2.6141007260e+01     0.319425    0.2615475 -69.15  0.001175828    1.648    0.393
        39  -8.8154    192.5297    194.3394   9.2097343686e+01   1.0013161622e+01    0.3451649    0.1979856 -58.31  0.001437781    5.016    0.801
        40 -11.3142    226.1919    116.1659   7.0936642622e+01   1.4408444366e+01    0.6515964    0.4431984   6.76  0.003136269    1.548    0.354
        41  -9.2441    224.2769    189.0205   8.5851245931e+01   5.8724214201e+00    0.2179337    0.1409608  36.08 0.0009393496    1.430    0.301
        42  -8.4043    215.8608    116.8459   7.2723267365e+01   1.6279707183e+01    0.2103497    0.1671111  10.67  0.001215518    1.190    0.160
        43  -9.5101    167.9664    114.1798   8.0875497443e+01   2.6353662635e+01    0.3000253     0.265687 -82.97  0.001110084    1.474    0.322
        44 -10.1066    135.0318    110.9628   8.7463270573e+01   3.3711061791e+01    0.6486876    0.2188496 -38.20  0.002110302    3.354    0.702
        45  -9.9040    206.2376    110.0683   7.2701713642e+01   1.9113309205e+01    0.3737023     0.192638  45.45  0.001138415    1.951    0.487
        46  -8.7284    157.9668    109.6604   8.1870567893e+01   2.9220576035e+01    0.2355657    0.1999778 -41.15 0.0001570001    1.220    0.181
        47  -9.2823    120.7511    106.9593   9.0052332856e+01   3.7338855700e+01    0.1988027    0.1883171 -43.47 0.0004094251    1.061    0.057
        48  -9.9014    203.4805    103.8879   7.1647398813e+01   2.0556633838e+01    0.4094663    0.2881549  32.40  0.001218654    1.448    0.309
        49 -10.7589    188.3380    101.0496   7.3588381746e+01   2.4164320596e+01    0.6245739    0.3425591 -38.70  0.002790052    1.811    0.448
        50  -8.6606    147.2717    103.8222   8.2762185656e+01   3.2527380807e+01    0.2849792    0.2086421  37.40  0.001053654    1.373    0.272
        51  -9.3866    133.4908     99.4223   8.4881313458e+01   3.6258262726e+01    0.3344641    0.2188725 -53.30 0.0006229426    1.711    0.416
        52  -9.9535    123.3061    103.4364   8.8503244872e+01   3.7546967894e+01    0.3254206    0.2453298 -61.27  0.001598857    1.520    0.342
        53  -9.7036    120.6432     99.0708   8.8062327045e+01   3.8960399108e+01    0.3681768    0.1929402 -47.68 0.0009892109    1.933    0.483
        54  -9.1212    167.8324     98.4005   7.6862383383e+01   2.9038675584e+01    0.3590067    0.2417683  24.50  0.001642736    1.750    0.429
        55 -10.5777    171.1520     91.3831   7.4289256719e+01   2.9463252985e+01    0.5916342    0.4640267  29.07  0.001845296    1.321    0.243
        56  -9.8937    156.5304     98.8684   7.9377556559e+01   3.1428725538e+01    0.4256819    0.2435672  39.17  0.001837243    1.813    0.449
        57  -8.8504    210.0305     96.2149   6.8643776078e+01   2.0278264769e+01    0.4028027    0.2329007 -56.62  0.001642305    2.867    0.651
        58  -9.4086    140.3439     94.0271   8.1749580988e+01   3.5826040217e+01      0.32903     0.262364 -65.59  0.001364492    1.543    0.352
        59 -10.2572    185.2957     92.1540   7.1803498903e+01   2.6190892489e+01    0.4777009    0.2986526 -46.82  0.002180625    1.801    0.445
        60 -10.3355    154.3639     89.9651   7.7400654468e+01   3.3469723163e+01    0.3250192    0.2557994 -29.82 0.0008579487    1.253    0.202
        61  -8.9561    102.5763     87.7931   9.0006403473e+01   4.4847230165e+01    0.2397028     0.203081  41.29 0.0003294484    1.213    0.175
        62  -9.3450    225.3808    184.2426   8.4849131247e+01   6.2367561024e+00    0.2105079    0.1588312  18.12 0.0002961515    1.067    0.063
        63  -7.8298     82.4220     85.5128   9.5576361066e+01   4.8974864190e+01    0.1421056    0.1334352 -60.12  0.000154657    1.023    0.023
        64  -9.1053    160.5158     82.0343   7.3802145984e+01   3.3426750231e+01    0.4627267    0.2745833 -13.77  0.001481094    2.275    0.560
        65 -11.2903    169.4922     78.6350   7.0995973476e+01   3.1898295543e+01    0.4767505    0.3478434   0.97  0.001224149    1.635    0.389
        66  -9.0865    126.4950     76.5112   8.0031824687e+01   4.2156812034e+01    0.1498991    0.1452914 -13.96 0.0008105704    1.000    0.000
        67 -10.4369    129.3472     64.2420   7.5320201141e+01   4.3751015278e+01    0.3542095    0.2866775 -73.97  0.001008246    1.569    0.363
        68 -10.1810    224.8756    178.9311   8.3993130159e+01   6.9090749402e+00    0.3394756     0.205174  51.66  0.001537506    2.342    0.573
        69  -9.5892    125.4560     68.9889   7.7889530085e+01   4.3788948847e+01    0.2298375     0.210445  47.71 0.0005355349    1.123    0.110
        70 -10.1955    117.1452     66.4923   7.9266176787e+01   4.6111853859e+01    0.2690241    0.2372181 -32.80  0.001415188    1.102    0.093
        71  -8.0750    129.8360    224.3045   1.0758113230e+02   1.5183798202e+01    0.1383686    0.1184677  49.29 0.0002294265    1.189    0.159
        72 -12.2328    143.9109     54.7943   6.8694405861e+01   4.1836879568e+01    0.8135903    0.6410645 -15.17  0.003498672    1.322    0.244
        73  -8.2796    146.1377    177.8057   9.8250379989e+01   1.9699934368e+01    0.1755808    0.1525154  43.63 0.0003472775    1.129    0.114
        74 -12.1017    151.7006     48.5758   6.4934993668e+01   4.0838595859e+01     1.084052    0.6159745 -53.44  0.004310218    2.220    0.550
        75 -11.5380    136.4105     71.8023   7.6071313180e+01   4.0775495340e+01    0.8791514    0.4269055  56.50   0.00281687    2.295    0.564
        76  -8.8121    238.1233    212.0378   8.7422873680e+01   1.6094531609e+00    0.1599499    0.1153044  13.24  0.001202987    1.016    0.016
        77 -11.8703    141.1390     40.7681   6.4284445628e+01   4.4622962511e+01    0.6818019    0.5869131 -85.93  0.003522935    1.345    0.257
        78 -10.2675    193.6811    176.1812   8.8830958644e+01   1.2160517323e+01     0.240157    0.1921189  27.53 0.0004386548    1.103    0.094
        79 -13.0864    249.5207     58.2307   5.3875071227e+01   1.6866430825e+01    0.7123755    0.3264002 -27.16 0.0009999187    1.798    0.444
        80  -8.1875    183.3018     42.2974   5.7474712697e+01   3.3718559393e+01    0.1488477    0.1078964  25.21 0.0003500769    1.580    0.367
        81  -9.8300    161.9695     37.6623   5.9285901532e+01   3.9713654177e+01    0.4403588    0.3836941 -44.79  0.001386352    1.164    0.141
        82 -10.6688    145.7386     31.5682   5.9969554220e+01   4.4676832257e+01    0.5004922    0.2762259 -42.24  0.002097683    1.869    0.465
        83  -8.5189    112.4960     29.5355   6.6382873438e+01   5.3346738488e+01    0.1468154    0.1414342  -1.04 5.292814e-05    1.025    0.025
        84  -9.0830    159.1024     26.6740   5.5898575400e+01   4.1788690762e+01    0.4209211    0.2503393 -89.40  0.001178032    2.269    0.559
        85 -10.6952    127.4261     23.3577   6.0345174318e+01   5.0419294747e+01    0.4003264    0.3076068 -11.85  0.002004958    1.336    0.251
        86  -7.9255     92.4697     24.9750   6.9909661738e+01   5.8705530845e+01    0.2221452    0.1373033 -28.54 0.0007968197    1.563    0.360
        87  -9.9905    112.8557     21.4834   6.2788886859e+01   5.4329944420e+01    0.3418367    0.2000675 -28.10 0.0009378285    1.665    0.399
        88  -9.0000     79.3247    176.0447   1.1244185714e+02   2.9975392091e+01    0.1865044    0.1490946  43.49 0.0004390464    1.134    0.118
        89 -11.9694     15.2066    169.9547   1.2639911972e+02   3.8112743634e+01    0.7420339      0.55008  71.62  0.004050735    1.074    0.069
        90  -9.9535    225.0168    172.4741   8.2799701228e+01   7.6279384551e+00    0.2493357    0.1695134  16.47 0.0008348149    1.281    0.219
        91  -7.5426    167.5383     13.5572   5.0080185230e+01   4.0956873215e+01    0.1417389    0.1362089 -56.70 6.818895e-05    1.039    0.038
        92  -7.8331     79.4699     13.0032   6.8040518735e+01   6.3253033160e+01    0.2229542    0.1315243 -25.39  0.001043946    1.629    0.386
        93  -9.4937    228.7043    173.1107   8.2323014454e+01   6.9859965312e+00    0.1738114    0.1525095   2.17 0.0007384301    1.256    0.204
        94  -9.0314    230.2907    167.3018   8.0990572567e+01   7.4047772907e+00    0.2169742    0.1309525 -44.23  0.001163225    2.467    0.595
        95  -8.0075    213.6745    167.5681   8.3765978977e+01   1.0015945159e+01    0.1560792    0.1097337  44.22 0.0009313955    1.554    0.357
        96 -10.0574    127.6865    238.4929   1.0943816690e+02   1.3579015192e+01    0.1858389    0.1467835  34.68 0.0002360497    1.075    0.070
        97  -8.6058     79.0900    160.8890   1.1067614953e+02   3.2978474289e+01    0.1758673    0.1661996  56.45 0.0004146563    1.111    0.100
        98  -8.3564    213.9839    159.5176   8.2174219457e+01   1.0975712222e+01    0.1752114    0.1427726  -2.82  0.001131227    1.090    0.082
        99 -11.9538     68.4687    144.6745   1.1117444795e+02   3.7768748292e+01     1.190742    0.9169963  78.37  0.004941009    1.296    0.228
       100 -10.8187     44.3420    155.9742   1.1855502907e+02   3.8214180000e+01    0.3231574     0.269181  19.07 0.0009209044    1.488    0.328
