#   1 NUMBER                 Running object number                                     
#   2 MAG_AUTO               Kron-like elliptical aperture magnitude                    [mag]
#   3 X_IMAGE                Object position along x                                    [pixel]
#   4 Y_IMAGE                Object position along y                                    [pixel]
#   5 X_WORLD                Barycenter position along world x axis                     [deg]
#   6 Y_WORLD                Barycenter position along world y axis                     [deg]
#   7 A_WORLD                Profile RMS along major axis (world units)                 [deg]
#   8 B_WORLD                Profile RMS along minor axis (world units)                 [deg]
#   9 THETA_WORLD            Position angle (CCW/world-x)                               [deg]
#  10 FWHM_WORLD             FWHM assuming a gaussian core                              [deg]
#  11 ELONGATION             A_IMAGE/B_IMAGE                                           
#  12 ELLIPTICITY            1 - B_IMAGE/A_IMAGE                                       
         1 -14.8707    159.2520     41.9545   8.4047253116e+01   4.0218174861e+01     1.420137     1.007069 -15.53   0.00400268    1.424    0.298
         2 -14.4686    171.3654      9.0071   7.0539563579e+01   4.0867139789e+01     1.112775    0.9656774  13.72  0.003979736    1.187    0.157
         3 -11.2632    189.8084     14.8151   7.0298486744e+01   3.5624568704e+01    0.2010157    0.1561812 -52.19 0.0006317938    1.322    0.243
         4 -13.5562    198.3941    246.3139   1.2164468199e+02   2.9446730263e+00     0.463055    0.2493096  45.74  0.002865705    2.340    0.573
         5 -12.5559    188.3302    250.2899   1.2378361941e+02   3.7856635366e+00    0.3246547    0.1098926  34.12  0.001293411    2.167    0.539
         6 -11.5852    176.1094    250.2395   1.2580786552e+02   5.2978467108e+00    0.1585882    0.1064371  19.86   0.00119461    1.199    0.166
         7 -20.0108     80.4210    194.1692   1.3779122582e+02   2.5513373992e+01     11.97179     5.837551 -68.19   0.06568851    2.336    0.572
         8 -13.7285    176.7083    188.2327   1.1721739676e+02   1.2862140014e+01    0.6835766    0.3782108 -57.16  0.003049781    3.753    0.734
         9 -12.1340     21.9954    242.1371   1.5168810811e+02   2.3563600347e+01    0.1849805    0.1120733  87.09  0.001502968    1.643    0.392
        10 -12.7719    148.0299    188.9142   1.2300485793e+02   1.7121800975e+01    0.3790716    0.2159313  19.05  0.001907908    2.094    0.522
        11 -12.4111    124.6575    186.0403   1.2744918284e+02   2.1047995762e+01    0.4664322    0.2429623  57.02 0.0004075539    2.756    0.637
        12 -12.5714     34.2565    187.2344   1.4695196099e+02   3.1733720004e+01    0.4294849    0.2991433 -83.63  0.003048907    1.389    0.280
        13 -12.1473     28.1983    179.5981   1.4777796079e+02   3.3747791065e+01    0.2731516     0.224731  -4.29   0.00105973    1.753    0.429
        14 -14.3074    207.2055    179.3181   1.1000171888e+02   9.3723575688e+00    0.7469462    0.5661768   6.44  0.004246814    1.097    0.089
        15 -11.1285    154.8602    239.7797   1.2827111381e+02   9.1530721674e+00    0.1673135    0.1306242  66.12  0.001215348    1.967    0.491
        16 -12.3631     31.0019    182.3069   1.4734084066e+02   3.2972810569e+01    0.2435819    0.1895943  38.24  0.000395836    1.283    0.220
        17 -13.0171    157.3801    178.6655   1.1948665542e+02   1.7296120784e+01    0.3757765     0.225187 -46.40  0.001499079    1.949    0.487
        18 -13.6896    174.7332    193.3119   1.1841076468e+02   1.2448890684e+01    0.4147531    0.3941009 -57.79  0.001871428    1.520    0.342
        19 -12.9379    177.2153    177.4144   1.1529480461e+02   1.4342184347e+01    0.3073772    0.2508984 -85.18  0.001736275    2.339    0.572
        20 -13.4600    177.4957    169.9641   1.1391283362e+02   1.5406309861e+01    0.4196692    0.3245185  22.32  0.002560024    1.119    0.106
        21 -12.1505    168.4435    175.8783   1.1676992732e+02   1.5973042124e+01    0.2328608    0.1612399  32.08 0.0005588218    1.262    0.207
        22 -11.9305     26.0725    172.7201   1.4783198265e+02   3.5290447317e+01    0.3035307    0.1767967  43.04   0.00103114    1.500    0.333
        23 -13.6747    196.8189    172.5714   1.1067203270e+02   1.1899179704e+01    0.6469032    0.3755902 -40.69   0.00275554    2.030    0.507
        24 -12.5670    186.2137    168.5088   1.1193548430e+02   1.4193636688e+01    0.3227597    0.2628048 -61.20  0.001702696    1.981    0.495
        25 -12.1075    201.9892    165.8025   1.0843777156e+02   1.1996596368e+01    0.3109169    0.2671883 -63.31  0.001493106    1.996    0.499
        26 -11.5503    223.6738    163.6868   1.0417039449e+02   8.7963959755e+00    0.2207325    0.1878533  -6.95 0.0005045477    1.222    0.181
        27 -10.4465     13.6906    238.7134   1.5295263122e+02   2.4780488096e+01    0.1023226   0.06669044  73.24 0.0004181484    1.313    0.238
        28 -10.8206      7.9572    239.2020   1.5390450827e+02   2.5173982979e+01    0.1125065      0.08111  69.17 0.0007347716    1.171    0.146
        29 -13.0602    196.3932    236.0394   1.2066384812e+02   4.2444294850e+00    0.2660618    0.1587361 -11.96  0.001143637    1.932    0.482
        30 -10.2580     22.9421    156.2924   1.4751416858e+02   3.8932813166e+01    0.1533333    0.1304865  62.53  0.000483991    1.095    0.087
        31 -10.9406     13.3718    155.8884   1.4973911162e+02   3.9762556745e+01    0.1910734    0.1460787 -17.43 0.0009978875    1.932    0.482
        32 -14.0198    134.2012    146.5213   1.1886864208e+02   2.6704469124e+01     1.174142    0.3526933 -54.26  0.003483091    5.085    0.803
        33 -10.7092     17.7370    153.4382   1.4856804679e+02   3.9950878694e+01    0.1851754    0.1145162 -60.18 0.0006819021    1.704    0.413
        34 -11.3661     20.3741    166.7645   1.4874851681e+02   3.6968250422e+01     0.178545    0.1728352  34.26 0.0007725155    1.317    0.241
        35 -12.8807    174.1898    148.5461   1.1043877511e+02   1.9333782319e+01    0.3816024    0.2897581 -37.80   0.00168517    1.414    0.293
        36 -13.7475    155.0373    146.7570   1.1416853988e+02   2.3039425396e+01    0.5278739    0.3752426  52.32  0.002744474    1.634    0.388
        37 -13.0746    148.0361    147.9903   1.1597486004e+02   2.4048307291e+01    0.4255776    0.3260781  19.76 0.0004271907    1.307    0.235
        38 -14.1902    143.3384    144.2456   1.1630156934e+02   2.5554961116e+01    0.7980106    0.4391343 -55.68  0.003512142    2.353    0.575
        39 -10.6518      7.6597    149.6784   1.5075387072e+02   4.1483117796e+01    0.1793076    0.1532288 -67.21 0.0006887434    1.310    0.237
        40 -12.1467     27.5415    145.4361   1.4560493271e+02   4.0891934068e+01    0.2757474    0.2680454 -46.97  0.001169876    1.282    0.220
        41 -12.6349    138.9997    125.7246   1.1340074390e+02   2.9868450338e+01      0.34449    0.2562138  49.44  0.001221261    1.442    0.307
        42 -13.8406    136.0000    124.0228   1.1374867990e+02   3.0759533949e+01     2.117436    0.2553413 -47.50  0.003842694   11.106    0.910
        43 -11.5873    156.2149    139.2287   1.1235098432e+02   2.4166868772e+01    0.1848555    0.1717296  73.34  0.001073645    1.370    0.270
        44 -10.9314      3.8024    138.2135   1.5110007190e+02   4.4213325281e+01    0.1532975    0.1161378 -65.40 0.0004470308    1.360    0.265
        45 -10.3632     26.1655    228.3796   1.5049160892e+02   2.5316032581e+01   0.07964229   0.06190909 -71.91 0.0003044506    1.575    0.365
        46 -13.5223    198.6847    223.3413   1.1854874787e+02   5.3151315830e+00    0.3649452    0.2488336  -0.10  0.001262581    1.410    0.291
        47 -12.6716     22.5750    220.6318   1.5082770449e+02   2.6880218056e+01    0.2034574    0.1447383 -71.49  0.001509621    1.641    0.391
        48 -12.9800    160.6976    127.9742   1.0886987276e+02   2.5345817831e+01    0.4157974    0.3564934 -30.62  0.001966055    1.176    0.149
        49 -10.5336     15.9847    209.5281   1.5160748204e+02   2.9303415374e+01    0.1271704   0.08494225  35.12 0.0004215889    1.427    0.299
        50 -12.9767     11.4539    206.1892   1.5232742391e+02   3.0249076596e+01    0.4017006    0.2244656  25.82  0.002240633    1.938    0.484
        51 -12.1984    167.9774    242.9527   1.2635249434e+02   7.1138845728e+00    0.1777914    0.1521648 -35.86 0.0009110815    1.590    0.371
        52 -11.9004    139.9189    148.9307   1.1800256791e+02   2.5277193341e+01    0.2505109     0.214986  39.14 0.0003614562    1.137    0.121
        53 -12.2206    210.3442    202.4484   1.1338556881e+02   6.0857419467e+00    0.2092577    0.1387111 -27.11  0.001366211    1.614    0.380
        54 -10.7443    205.6391    110.1055   9.5507522463e+01   1.9421101911e+01    0.2615345    0.1950596  30.13 0.0006593833    1.325    0.245
        55 -12.1304    168.8875    202.5953   1.2093578686e+02   1.2029695665e+01    0.2275116    0.1793506  46.05 0.0001256569    1.446    0.309
        56 -10.9846    150.9941    243.7333   1.2937779082e+02   9.1687713772e+00    0.1629119    0.1344569   4.90 0.0004008125    1.301    0.232
        57 -11.8816     27.2763     98.0095   1.4079040081e+02   5.1959374497e+01    0.3784676    0.3090606 -40.83  0.002385251    1.345    0.257
        58 -13.0740    138.0595    198.2143   1.2634120361e+02   1.7135200306e+01    0.5944082    0.2798016  51.03  0.002789662    2.621    0.618
        59 -12.0219     47.5026     92.6280   1.3307399749e+02   5.1428049996e+01    0.3582802    0.2652066  20.39  0.001946047    1.577    0.366
        60 -11.4052     41.9691     91.9977   1.3486890454e+02   5.2142878873e+01     0.263346    0.2082169 -83.81 0.0007119981    1.223    0.182
        61 -11.0448    124.3641     90.7887   1.0833176551e+02   3.9746175722e+01    0.2453389    0.2047452  52.22 0.0007492186    1.317    0.241
        62 -10.0189     17.3650    200.2794   1.5098974907e+02   3.0809653006e+01    0.0875541   0.07730444 -33.37 0.0004057973    1.679    0.404
        63 -14.1270    167.0740    191.0278   1.1953166803e+02   1.3928157192e+01    0.6140856    0.5044598  76.22  0.003777531    2.042    0.510
        64 -10.5397    142.8070     80.1636   1.0039061749e+02   3.7905978238e+01     0.214804    0.1758971   1.71  0.000522803    1.308    0.236
        65 -14.3375    148.5055     56.6989   9.1405542868e+01   4.0665822938e+01      1.10371    0.8433661  -8.14 0.0009925575    1.384    0.277
        66 -13.0736    179.9973    192.4454   1.1727155583e+02   1.1777355541e+01    0.3364068    0.3105667 -59.52  0.001261401    1.631    0.387
        67 -13.0016    162.7948     33.4950   8.0427057834e+01   4.0432729329e+01    0.4358751    0.4004558  -2.74 0.0008040463    1.049    0.046
        68 -10.9700     13.4068     59.8606   1.4012449280e+02   6.2227487266e+01    0.1860399    0.1696765  62.43 0.0004804417    1.276    0.217
        69 -10.6507    160.0115    246.7888   1.2814982586e+02   7.6809356999e+00     0.211561    0.1267497 -20.08  0.001382342    2.374    0.579
