#   1 NUMBER                 Running object number                                     
#   2 MAG_AUTO               Kron-like elliptical aperture magnitude                    [mag]
#   3 X_IMAGE                Object position along x                                    [pixel]
#   4 Y_IMAGE                Object position along y                                    [pixel]
#   5 X_WORLD                Barycenter position along world x axis                     [deg]
#   6 Y_WORLD                Barycenter position along world y axis                     [deg]
#   7 A_WORLD                Profile RMS along major axis (world units)                 [deg]
#   8 B_WORLD                Profile RMS along minor axis (world units)                 [deg]
#   9 THETA_WORLD            Position angle (CCW/world-x)                               [deg]
#  10 FWHM_WORLD             FWHM assuming a gaussian core                              [deg]
#  11 ELONGATION             A_IMAGE/B_IMAGE                                           
#  12 ELLIPTICITY            1 - B_IMAGE/A_IMAGE                                       
         1  -9.6356      5.0201     28.8944   1.2738685879e+02   6.8530766195e+01    0.4362186    0.1328115 -42.86  0.001995161    2.712    0.631
         2  -9.1473     19.8815     17.1160   1.1614472593e+02   7.0029755485e+01     0.300143    0.1619467 -62.30  0.001602793    1.936    0.484
         3  -9.0647     80.4298     12.7880   8.7343662968e+01   6.2486340097e+01     0.363873    0.2500329 -53.32  0.001620703    2.107    0.525
         4  -9.9759     50.2609     11.7097   9.8780329339e+01   6.7679485420e+01    0.2991014    0.2341121 -47.53  0.001809603    1.506    0.336
         5  -8.8020     28.2582     12.9664   1.1004515449e+02   7.0088030491e+01    0.1820926    0.1241904 -38.65 0.0004230694    1.141    0.123
         6  -8.2416    250.0000     10.9372   5.7039348191e+01   2.1031127707e+01     0.220747   0.06885204 -21.41 0.0006943529    2.937    0.660
         7  -8.8376    105.3383     10.8913   7.8773824818e+01   5.7518333326e+01    0.2958864    0.1093913 -31.68  0.001108207    2.529    0.605
         8  -8.1595     92.9759      9.9874   8.1882983187e+01   6.0331619917e+01     0.211089    0.1699702 -56.60 0.0009698424    1.700    0.412
         9  -7.8719    130.2262     12.0126   7.3277672984e+01   5.1457033650e+01    0.1959601    0.1176745 -19.24 0.0002443327    1.643    0.391
        10  -8.3617     41.2921      7.7259   1.0090575839e+02   6.9542171521e+01    0.1804093    0.1361536 -33.18  0.000181602    1.155    0.134
        11  -8.1719     38.5305      6.5257   1.0162799326e+02   7.0088624674e+01    0.2506853    0.1596673 -20.77 0.0006986762    1.452    0.311
        12  -7.6786    110.4471      7.5402   7.5883818121e+01   5.6726350320e+01    0.1475596    0.1247457  17.04 3.657253e-05    1.073    0.068
        13  -9.1393     76.7475      5.0181   8.4632922007e+01   6.4226991309e+01    0.3931988    0.2164996 -40.86  0.001847714    2.072    0.517
        14 -10.1382     60.1195      2.7963   8.9724890589e+01   6.7505735380e+01    0.2468312    0.2034809 -17.52 0.0002677508    1.114    0.102
        15  -9.8228     14.9670      3.3093   1.1275513861e+02   7.3053441523e+01    0.4563549     0.259153 -27.16  0.002050337    1.624    0.384
        16  -7.7191    250.2321      3.9972   5.5225107309e+01   2.1611141049e+01    0.1737644   0.09957694 -22.41 0.0004350427    1.607    0.378
        17  -7.8980      3.5561      3.7389   1.1975018442e+02   7.3747654452e+01    0.1586356   0.09382331 -64.73 0.0009496404    1.720    0.419
        18  -7.8168     67.7958      1.7977   8.6135915514e+01   6.6302325405e+01    0.1680237    0.1445448 -28.98 0.0003455046    1.300    0.231
        19  -8.5469     38.8216      2.1001   9.9050969531e+01   7.0767622741e+01    0.3391281    0.1486581  41.71  0.001614375    2.877    0.652
        20  -7.6332    116.2131      1.3706   7.1665137337e+01   5.5982577057e+01    0.1874366    0.1365963  71.25 0.0005632217    1.591    0.371
        21  -8.6066     56.5627      5.4216   9.2675384178e+01   6.7713613718e+01    0.4419011    0.3191682  81.23  0.001943392    3.929    0.746
        22  -9.1793    171.8039    238.3781   1.1917319295e+02   7.1971192896e+00    0.2466234   0.07728505  40.79  0.001221169    2.358    0.576
        23  -9.8239    248.4422    249.0702   1.0859583069e+02  -4.4508961269e+00    0.2925704    0.1823133   6.36  0.002245844    1.446    0.309
        24  -8.9524    202.4614    249.0107   1.1555456184e+02   1.7665742956e+00    0.2815033    0.1223238  33.04  0.001501015    1.774    0.436
        25  -9.0370    207.5178    249.5337   1.1483506445e+02   1.0186331729e+00    0.1648805     0.131153  24.41 0.0008193782    1.178    0.151
        26  -8.8906    206.5137    245.4341   1.1448185636e+02   1.5370318978e+00    0.2057236    0.1004054 -28.05  0.001186246    2.685    0.628
        27  -9.5555    170.7196    250.5380   1.2071127268e+02   6.0280397586e+00    0.4296928   0.07409503  41.91  0.001670726    4.140    0.758
        28  -9.2534    192.7585    248.7407   1.1703669196e+02   3.1423906580e+00    0.2688549    0.1352743  33.22  0.001151733    1.504    0.335
        29  -8.4607    188.0306    250.4908   1.1798168725e+02   3.6287651527e+00    0.2074527    0.0963995  45.60  0.000613489    1.787    0.440
        30  -8.6931    184.4817    249.5012   1.1842513323e+02   4.2212447354e+00    0.2004263    0.1393447  23.52  0.001060956    1.299    0.230
        31  -9.5117    180.8420    249.2169   1.1896633637e+02   4.7576025688e+00    0.2400535    0.1436598  20.12  0.001570253    1.850    0.460
        32  -9.3237    187.0117    244.9792   1.1749878023e+02   4.3243430748e+00    0.2018803    0.1596283  15.04  0.001070736    1.281    0.219
        33  -8.8086    190.5078    244.4983   1.1688633804e+02   3.8791761688e+00    0.1685992    0.1186267  32.62 0.0005775527    1.020    0.020
        34  -8.1018    153.1890    250.6014   1.2349581739e+02   8.4369518104e+00    0.1494646   0.07332458  34.80 0.0005427199    1.674    0.403
        35 -10.1566    157.1482    245.5604   1.2234546949e+02   8.4601757309e+00    0.3524798    0.2690871 -14.01  0.002226142    1.875    0.467
        36  -9.1858    144.2217    248.5334   1.2472031847e+02   9.8975543899e+00    0.2553721    0.1841326  -4.87   0.00181221    2.333    0.571
        37  -7.2567    133.2978    250.6731   1.2666144622e+02   1.1115356464e+01   0.09975649   0.06224017  59.31 0.0006250224    1.633    0.388
        38  -7.9718     26.3095    250.2972   1.4301301541e+02   2.3509132792e+01   0.06993877   0.06455818  60.44 0.0002793526    1.595    0.373
        39  -8.8897     28.4545    242.6683   1.4241351834e+02   2.4382666353e+01    0.1556119   0.06428579  39.62  0.001085562    1.975    0.494
        40  -7.8851    136.4274    245.8512   1.2571351721e+02   1.1274934392e+01    0.1102908   0.09644616 -18.05 0.0005030048    1.626    0.385
        41  -7.8369     98.3644    241.3052   1.3146695582e+02   1.6839377239e+01   0.09151641   0.07212871  21.46 0.0007037257    1.740    0.425
        42  -9.7090    239.7505    237.0088   1.0822872113e+02  -2.3285610519e+00    0.1829661    0.1487614 -29.57  0.001466261    1.853    0.460
        43  -8.5924    201.3595    240.0123   1.1460873711e+02   2.7851625140e+00    0.1966328    0.1091344  25.24 0.0006353692    1.615    0.381
        44  -8.9867    186.9070    239.6028   1.1686964684e+02   4.8950117378e+00    0.1635977     0.124365  16.17 0.0004089855    1.300    0.231
        45  -7.9024    243.7539    238.9683   1.0789933824e+02  -3.0353117009e+00    0.1141769   0.07730187  -9.26  0.000460878    1.529    0.346
        46  -7.8331    234.5043    239.4797   1.0937217138e+02  -1.8176617577e+00    0.1088533     0.072786  23.49 0.0001338254    1.055    0.052
        47  -7.6842    214.5504    239.5047   1.1246171146e+02   9.6137779753e-01    0.1084006   0.07596095  27.18 0.0001868529    1.021    0.020
        48  -9.6767    249.1448    237.3483   1.0686076363e+02  -3.6305060163e+00    0.2655011    0.1305071  21.49  0.001684071    1.730    0.422
        49 -10.3043    188.6168    232.3340   1.1568497019e+02   5.4203068809e+00    0.4021084     0.280068 -29.72  0.002934321    1.822    0.451
        50  -7.6438    221.4611    237.4461   1.1110580601e+02   1.7620924490e-01    0.1092787   0.07524801  25.76 8.180628e-05    1.039    0.037
        51  -8.5817    194.7131    236.9791   1.1528628278e+02   4.0438750606e+00    0.1911602    0.1144954  24.24 0.0007698963    1.522    0.343
        52  -7.3160    113.5765    242.5053   1.2910537172e+02   1.4735835830e+01     0.101486   0.07575689  48.49 0.0001272273    1.025    0.025
        53  -7.6931    209.2798    236.3557   1.1287632871e+02   2.0100550716e+00     0.108324   0.06560197  16.37 0.0002736396    1.658    0.397
        54  -8.7553    160.0698    235.6562   1.2078970802e+02   9.1960576222e+00    0.2628832    0.1479338  30.01  0.001253271    1.669    0.401
        55  -7.5684    139.2945    250.3395   1.2567823087e+02   1.0352560892e+01   0.09446464   0.06897502  20.42 0.0005001746    1.654    0.395
        56  -7.3713    135.4042    236.2755   1.2494668917e+02   1.2605203221e+01    0.1043864   0.07051337  23.24 0.0006278423    1.766    0.434
        57  -7.7519    244.0248    235.0246   1.0729830327e+02  -2.7476075157e+00    0.1294992   0.08784351  22.99  0.000392518    1.012    0.012
        58  -7.2301    216.3345    235.3378   1.1162385464e+02   1.0985706608e+00     0.113615    0.0640028  18.57 0.0007051784    1.747    0.428
        59  -8.6611    178.9118    234.8803   1.1759333775e+02   6.5592870309e+00    0.1663434    0.1140029  27.48 0.0005747283    1.254    0.203
        60  -7.8338    204.7287    234.4254   1.1334659070e+02   2.8549814569e+00    0.1517612   0.07576582  32.03  0.000432741    1.565    0.361
        61  -7.3471    130.5421    234.5340   1.2558261737e+02   1.3501673774e+01    0.1059975   0.08051869  43.38 0.0001884992    1.047    0.045
        62  -9.5803    183.9468    235.5354   1.1685025535e+02   5.7556736252e+00    0.2997569     0.184001  -5.40  0.001817961    2.587    0.613
        63  -8.6161    170.8975    232.9038   1.1867597753e+02   7.9503700860e+00    0.1645009    0.1195327  24.53 0.0005129156    1.293    0.227
        64  -7.6247    107.5359    233.4866   1.2932234872e+02   1.6735631975e+01    0.1036243   0.07906724  49.11 9.051194e-05    1.043    0.041
        65  -8.6916      3.1721    233.3877   1.4582283901e+02   2.8003945852e+01    0.1336388   0.04880434  48.09 0.0009567927    1.816    0.449
        66  -7.6210    166.4276    232.4565   1.1936522736e+02   8.6540352108e+00    0.1092214   0.08177682  34.51 0.0003107376    1.059    0.055
        67  -7.8800    153.7421    232.4333   1.2148030873e+02   1.0494436688e+01    0.1460804   0.08153649  34.79 0.0004826094    1.491    0.329
        68  -7.5108     85.2484    231.9838   1.3289693287e+02   1.9766658593e+01    0.1074909   0.08019339 -83.29 0.0004241811    1.491    0.330
        69  -7.5597    213.7393    230.9702   1.1143876888e+02   1.8906901411e+00    0.1147851   0.08754544 -11.70  0.000598914    1.474    0.321
        70  -7.8729    115.3723    231.2757   1.2781292933e+02   1.6002612918e+01    0.0991386   0.07345644  23.08 0.0007005371    1.687    0.407
        71  -8.4795    241.5262    229.9668   1.0694638954e+02  -1.9749552098e+00     0.140001    0.0916781  -9.39  0.001011288    1.560    0.359
        72  -7.6430    158.5065    229.4836   1.2034321175e+02   1.0166144469e+01    0.1106044   0.08353843  36.54 -7.366898e-05    1.052    0.050
        73  -8.1115    152.0130    227.9970   1.2126987924e+02   1.1297220091e+01    0.1653227     0.115983  19.29 0.0008559296    1.670    0.401
        74  -7.5860     78.3383    238.2552   1.3446799185e+02   1.9698000061e+01   0.08570418   0.06955751  30.19 0.0002735013    1.575    0.365
        75  -7.5771    138.7313    227.6499   1.2349101959e+02   1.3255550388e+01   0.09867464   0.07714181  13.85 0.0006991245    1.623    0.384
        76  -7.6912    109.3301    227.3188   1.2847117860e+02   1.7362486198e+01   0.09614116   0.07750093  17.24 0.0003855532    1.688    0.407
        77  -8.1146    184.7465    226.1877   1.1553091634e+02   6.6723523384e+00    0.1488033    0.1068265  18.82 0.0008702739    1.356    0.262
        78  -8.7535    248.5296    224.1447   1.0500779703e+02  -2.4508445789e+00     0.278189    0.1277876  18.73  0.001526014    2.273    0.560
        79  -8.1155    212.0555    224.9100   1.1086287795e+02   2.7395409485e+00    0.1843711    0.1058154  17.90  0.001124533    1.784    0.440
        80  -8.0658    127.4585    224.6600   1.2510726050e+02   1.5254237075e+01    0.1719706    0.1121782  28.30 0.0007658092    1.664    0.399
        81  -7.9504    167.8897    224.8750   1.1820146027e+02   9.3445544069e+00    0.1670271    0.1205264  29.23 0.0004596885    1.208    0.173
        82  -8.2396    206.8139    222.2196   1.1133573342e+02   3.7976274605e+00    0.1588711    0.1009485  23.58 0.0006583968    1.346    0.257
        83  -7.2726    200.6732    222.6412   1.1240609887e+02   4.6748131314e+00    0.1173255   0.07085945  16.56 0.0007043412    1.783    0.439
        84  -7.9515    174.8152    221.9447   1.1665241031e+02   8.6591122874e+00    0.1667401    0.1139138   2.27  0.001053495    1.986    0.496
        85  -7.7128    147.7535    221.4068   1.2123920479e+02   1.2772373650e+01     0.153913   0.08579851  34.57 0.0004316693    1.562    0.360
        86  -7.1898     92.7130    221.2832   1.3078425157e+02   2.0412467823e+01    0.1051397    0.0631402  61.67 0.0004809763    1.525    0.344
        87  -8.5886      8.4728    221.0039   1.4464604796e+02   2.9439528749e+01    0.1312821   0.07166483 -87.74  0.001037819    1.617    0.382
        88  -8.2764    246.2164    219.6711   1.0467728927e+02  -1.7346519529e+00     0.176891   0.07643172 -22.50 0.0007008003    2.557    0.609
        89  -8.1898    242.5827    220.1471   1.0531241776e+02  -1.2590044354e+00    0.1432418   0.08549888  -1.81 0.0006603233    1.704    0.413
        90  -7.3618    237.6649    220.6791   1.0615978645e+02  -6.0086047381e-01    0.1178227   0.06442983  17.57 0.0007049909    1.705    0.413
        91  -7.8796    225.0629    219.4501   1.0797052577e+02   1.3579089305e+00    0.1668234   0.06939345  26.28 0.0008079576    2.508    0.601
        92  -7.8052    140.8378    219.1302   1.2218012906e+02   1.4093948138e+01    0.1440785    0.1148674  26.03 0.0004817603    1.311    0.237
        93  -7.5826    194.7017    218.6448   1.1284190101e+02   6.0197392474e+00    0.1152624   0.07345506  15.37 0.0007035608    1.699    0.411
        94  -7.6642    170.8668    217.3473   1.1672996945e+02   9.8212662684e+00    0.1657124   0.08344267  34.43 0.0003963641    1.682    0.405
        95  -8.1754    204.3551    215.8119   1.1081991415e+02   4.8575021113e+00    0.2140716    0.1134658  22.64  0.001185726    1.979    0.495
        96  -7.8210    151.0111    216.4696   1.2008065118e+02   1.2945507973e+01    0.1687347   0.08944403  40.14 0.0003237591    1.490    0.329
        97  -8.3375    248.7662    215.2169   1.0358779841e+02  -1.7014643429e+00    0.1558994    0.0932568  19.03 0.0003498499    1.338    0.253
        98  -7.8363    179.8740    215.3811   1.1491190358e+02   8.6796555649e+00    0.1634169   0.08481941  33.23 0.0004055899    1.638    0.389
        99  -7.5701    144.4511    215.4260   1.2111061949e+02   1.4067870146e+01    0.1129345    0.0887996  40.79 0.0001174245    1.028    0.027
       100  -7.8382    137.1770    215.0148   1.2235067717e+02   1.5201509883e+01     0.163445    0.1240273  -4.11   0.00106811    2.014    0.503
       101  -8.3208    187.1150    210.5392   1.1298278120e+02   8.1396733718e+00    0.2708445     0.151929  17.97  0.001431259    2.311    0.567
       102  -7.4470    180.5005    211.4912   1.1426437269e+02   9.0589391621e+00     0.117586    0.0907943  30.69 -2.626025e-05    1.042    0.041
       103  -7.6089    176.5292    211.5041   1.1495781201e+02   9.6774271930e+00    0.1164158   0.09168113  35.31 0.0001216816    1.030    0.029
       104  -8.2856    170.2374    210.6473   1.1594297659e+02   1.0767805570e+01     0.187243    0.1318582   2.89  0.001052224    1.881    0.468
       105  -7.7980    100.2407    210.5670   1.2848715751e+02   2.1070274102e+01    0.1473272   0.09190638  32.85 0.0009345115    1.666    0.400
       106  -7.5265    243.6600    209.6807   1.0349769253e+02  -4.5168420583e-01    0.1214101   0.06639562  16.80 0.0007049689    1.713    0.416
       107  -7.1875    199.4588    209.4788   1.1070945873e+02   6.3281462349e+00    0.1168811   0.09087937  29.20 8.986634e-05    1.032    0.031
       108  -7.5405    107.8302    209.3851   1.2700044488e+02   2.0224012549e+01    0.1473055   0.09081446  33.60 0.0003383542    1.624    0.384
       109  -7.7037     77.8664    209.3476   1.3238581502e+02   2.4133154235e+01    0.1404264   0.08753303  34.31 0.0004012021    1.668    0.401
       110  -7.5854    236.7028    208.6691   1.0443520581e+02   6.7895960004e-01      0.11885   0.06869806  15.01 0.0005222224    1.640    0.390
       111  -7.9885    163.0981    207.7324   1.1681285953e+02   1.2265936703e+01    0.1859115    0.1143841  21.44  0.000746467    1.939    0.484
       112  -7.8126    147.0262    208.4626   1.1979454124e+02   1.4649372039e+01    0.1733961   0.09307376  40.22 0.0004232177    1.506    0.336
       113  -7.4492    177.2514    207.3478   1.1424735208e+02   1.0089696912e+01     0.111478   0.07999876  11.00 0.0001911679    1.587    0.370
       114  -8.3943    247.7612    205.8962   1.0223861808e+02  -7.0017502482e-01    0.2038365    0.1173216  26.03  0.001066995    1.357    0.263
       115  -9.5295    124.0281    206.0047   1.2368158093e+02   1.8446188128e+01    0.1616091     0.130723  48.36  0.001163476    1.002    0.002
       116  -7.8509     12.5272    206.4632   1.4346795380e+02   3.1426859261e+01    0.0961915   0.06759962  68.24 0.0001096792    1.006    0.006
       117  -7.9472    139.9596    204.9728   1.2063883067e+02   1.6226776640e+01    0.1716381    0.1252817  20.15 0.0005176982    1.623    0.384
       118  -7.7590    150.2003    204.0066   1.1864324174e+02   1.4792486762e+01     0.170939    0.1256768  -0.68 0.0006824377    1.959    0.490
       119  -7.7921     88.0511    204.4391   1.3011789165e+02   2.3650569889e+01    0.1390135   0.09256204  17.09 0.0006494944    2.509    0.601
       120  -8.1053    175.0802    202.8939   1.1399222440e+02   1.1011606628e+01     0.189475    0.1278958  13.98  0.001127782    1.758    0.431
       121  -8.8197    250.4911    198.3205   1.0054046589e+02  -3.8631628463e-01    0.2889132    0.1165675 -18.08  0.001404417    2.885    0.653
       122  -8.6720    243.7545    197.5304   1.0146733303e+02   7.1027911877e-01    0.2765745    0.1402329 -15.91  0.001544153    2.124    0.529
       123  -7.4622    238.4971    198.5513   1.0248111449e+02   1.4141055842e+00    0.1199097   0.08736411  18.61 0.0001483099    1.036    0.034
       124  -8.6753    230.4209    198.0161   1.0370196594e+02   2.7246143186e+00    0.2638378     0.123469  29.50 0.0008093691    1.885    0.469
       125  -8.0781    150.9755    198.3112   1.1773424932e+02   1.5492354056e+01    0.1726117    0.1261086  38.62 0.0004987975    1.138    0.122
       126  -7.7562    224.7403    195.6128   1.0423616433e+02   3.8814589848e+00    0.1226244   0.07541283   9.97 0.0006972706    1.687    0.407
       127  -8.2577    203.1277    195.0945   1.0783149451e+02   7.4405320453e+00     0.195908    0.1345846  18.08 0.0009515886    1.372    0.271
       128  -7.3311    191.6165    195.7302   1.0995715999e+02   9.2514467238e+00    0.1267959   0.07849129  20.61 0.0006991894    1.700    0.412
       129  -7.5843    180.5744    195.4787   1.1189479181e+02   1.1099741864e+01    0.1210719   0.09850591  29.60 0.0002118354    1.018    0.018
       130  -7.5076    195.5735    194.4586   1.0905342362e+02   8.7605950441e+00    0.1227202   0.09629997  24.16 0.0001058476    1.060    0.057
       131  -7.4387    145.2871    194.3277   1.1824991139e+02   1.6984213021e+01    0.1132389   0.08800381  10.15 0.0007011124    1.612    0.380
       132  -8.3557    237.4353    192.2699   1.0157694285e+02   2.2273290113e+00    0.2298884    0.1350991   2.18  0.001091677    1.821    0.451
       133  -7.4138    209.6856    192.7121   1.0630147614e+02   6.6507102267e+00    0.1238539   0.07804213  17.50 0.0003923436    1.586    0.370
       134  -8.5067    243.6010    187.7185   9.9781178945e+01   1.7314617044e+00    0.3109884    0.1634484 -10.13  0.001669599    2.112    0.527
       135  -7.5082    162.3384    190.3044   1.1446191292e+02   1.4824953186e+01    0.1227756   0.08673828  15.78 0.0003140911    1.673    0.402
       136  -8.2628    225.0196    189.2500   1.0310051116e+02   4.5430492844e+00    0.1951512    0.1293827  18.33 0.0007915202    1.328    0.247
       137  -7.5714    191.5605    189.4670   1.0895713941e+02   1.0066591128e+01    0.1240177   0.09988485  25.71 9.118086e-06    1.029    0.028
       138  -7.4413    199.4991    188.5483   1.0738683798e+02   8.8527545952e+00    0.1262222   0.09810256  23.07 8.019548e-05    1.077    0.071
       139  -8.3262    173.2038    188.0627   1.1208725983e+02   1.3339854700e+01     0.186892    0.1469778  15.94 0.0005319887    1.295    0.228
       140  -7.6405    210.4945    187.4547   1.0527010575e+02   7.1477085255e+00    0.1257587   0.09731091  21.60 7.211178e-05    1.051    0.048
       141  -8.2212    238.1565    185.0820   1.0018993489e+02   2.8763766601e+00    0.2353622    0.1240021   1.85  0.001150661    2.445    0.591
       142  -7.7693    215.1300    185.8710   1.0419335691e+02   6.5646160667e+00     0.170612    0.1211641  10.95 0.0004876436    1.328    0.247
       143  -9.0610    230.3442    184.8086   1.0142788494e+02   4.1728358062e+00    0.2425991    0.1505386  28.93 0.0002796936    1.329    0.248
       144  -7.4448    142.5260    184.0119   1.1731698320e+02   1.9027947172e+01    0.1585636    0.1037985 -19.91 0.0008084496    2.517    0.603
       145  -7.8893    211.5771    182.2134   1.0416684322e+02   7.6057995378e+00    0.1628066    0.1084871 -10.75 0.0009060675    1.633    0.388
       146  -7.2460    199.5048    180.5281   1.0601049049e+02   9.8839777213e+00     0.127517    0.1032615  23.52 0.0008099305    1.019    0.018
       147  -7.9621    182.8523    180.1876   1.0900078011e+02   1.2806426149e+01     0.174958    0.1319584  13.94 0.0005122849    1.363    0.266
       148  -8.8470    249.8583    182.6447   9.7868196365e+01   1.2709197239e+00    0.2851343    0.1537056   4.66 0.0007554385    2.082    0.520
       149  -8.2911    242.6941    176.1681   9.7816173343e+01   3.1075799245e+00    0.3262191    0.1553819   1.50  0.001322147    3.498    0.714
       150  -7.1083    219.3258    177.3137   1.0193852647e+02   6.8863449482e+00    0.1320214   0.08175417  15.24 0.0004697712    1.666    0.400
       151  -8.0621    176.8326    176.6744   1.0953322957e+02   1.4354578976e+01    0.2059699    0.1384285  26.10 0.0007578557    1.458    0.314
       152  -7.9896    190.2192    175.8261   1.0687679416e+02   1.2132100744e+01    0.1793795    0.1279542  20.76 0.0005936205    1.355    0.262
       153  -7.8920    183.1668    174.3593   1.0793450308e+02   1.3579231009e+01    0.1773316     0.148634  12.10  0.001029207    1.152    0.132
       154  -8.0473    231.0073    172.3028   9.9015116026e+01   5.4935806348e+00     0.258059    0.1355408   0.12  0.001158689    2.697    0.629
       155  -9.6601    246.3275    167.1534   9.5506116420e+01   3.5008080404e+00    0.2650872    0.1730685  20.57 0.0002543123    1.318    0.241
       156  -7.9785    237.0941    167.4727   9.7073623915e+01   5.0203901381e+00    0.1833357    0.1069266  37.78 0.0004594635    1.523    0.343
       157  -7.2207    160.6926    163.3344   1.1035897636e+02   1.9267375783e+01    0.1264252    0.1018336  76.60 0.0003440066    1.671    0.402
       158  -7.9909    249.2349    161.1548   9.3857033093e+01   3.6823317383e+00    0.2216202    0.1085888  12.49 0.0009427614    2.813    0.645
       159  -7.0714    246.3307    157.3161   9.3548718773e+01   4.6112051159e+00    0.1361041   0.08130535  13.88 0.0003296341    1.682    0.406
       160  -7.7288    188.2824    154.3424   1.0320664590e+02   1.5593370893e+01    0.1372762    0.0966207   8.55 0.0004136917    1.634    0.388
       161  -7.5725    158.6447    152.6958   1.0881956086e+02   2.1406928965e+01    0.1384567     0.100534  11.89 0.0004677785    1.714    0.416
       162  -7.6172    234.6588    161.7165   9.6346297089e+01   6.1170446331e+00    0.1348814   0.08228068  16.57 0.0003243151    1.634    0.388
       163  -7.5261    121.3204    148.7374   1.1615363359e+02   2.8720887720e+01    0.1297176   0.09600365  68.50 0.0002722527    1.552    0.356
       164  -7.2119     85.5370    147.5078   1.2408950238e+02   3.4446021557e+01    0.1221471    0.1115601  79.69 3.907433e-05    1.034    0.033
       165  -7.9877     69.3045    145.6562   1.2758178962e+02   3.6959705704e+01    0.1283217   0.08194525  72.48 0.0007041059    1.686    0.407
       166  -7.6682    230.3635    141.2135   9.2802991450e+01   9.4462779390e+00    0.1704056    0.1161762 -30.97 0.0002701321    1.517    0.341
       167  -8.0075     65.0292    141.4910   1.2804476962e+02   3.8349515520e+01    0.1717589    0.1123296  41.37 0.0004536985    1.536    0.349
       168  -7.6899    186.4912    140.4372   1.0067738209e+02   1.8080319834e+01    0.1397799    0.1234934  19.95  0.000165855    1.011    0.011
       169  -7.7287    132.0000    139.0001   1.1197095224e+02   2.8736940968e+01    0.2196444   0.07715706 -48.55  0.000809051    2.988    0.665
       170  -7.9401    248.3881    134.3357   8.8348809765e+01   6.9584186450e+00    0.2434324    0.1148525 -20.97 0.0009190157    2.051    0.512
       171  -7.7611    188.0080    134.9682   9.9184110702e+01   1.8640659120e+01    0.1718887    0.1548306  -1.23 0.0007122509    1.069    0.065
       172  -7.8861    241.8488    132.5586   8.8994685700e+01   8.3886294340e+00    0.3122438    0.1444403 -12.61  0.001247973    2.738    0.635
       173  -7.2311    118.7100    133.6282   1.1400919596e+02   3.2114700123e+01    0.1350485    0.1058024 -14.97 0.0007022786    1.720    0.419
       174  -8.1391    231.7553    128.9216   8.9831042768e+01   1.0783934919e+01    0.2921456    0.1402805  25.89  0.001163029    2.642    0.621
       175  -7.9259    220.8475    126.9751   9.1249072638e+01   1.3201283402e+01    0.2422966    0.1466795   4.21  0.001081377    2.066    0.516
       176  -7.6713    192.6382    127.6793   9.6625293310e+01   1.8846931797e+01    0.1538299    0.1028645  14.43 0.0003816568    1.774    0.436
       177  -8.4797    239.8308    123.7878   8.7327427598e+01   9.8824134646e+00    0.3280827    0.1912125  -0.50  0.001421497    2.003    0.501
       178  -7.7987    182.2484    123.0279   9.7605752530e+01   2.1750578242e+01    0.1828276    0.1206476 -32.29 0.0004063912    1.542    0.352
       179  -7.5951    177.3267    122.3453   9.8452656463e+01   2.2891582819e+01    0.1534841    0.1080808   9.71 0.0007050422    1.746    0.427
       180  -8.4783    248.5208    116.4603   8.4260336067e+01   9.1278307774e+00    0.3604242    0.1931293   1.80  0.001505297    2.464    0.594
       181  -7.7704    240.4813    116.4775   8.5515575951e+01   1.0693672357e+01    0.1413019    0.1159599   4.77 0.0001708733    1.054    0.051
       182  -8.2388    219.5939    113.2713   8.8208235013e+01   1.5379496044e+01    0.3656422    0.1382717  38.62  0.001319278    2.841    0.648
       183  -7.7322    248.2986    111.3136   8.3080273478e+01   9.8126471452e+00    0.1419328   0.09258585  11.84 0.0003031866    1.606    0.377
       184  -8.1536    193.7826    111.0598   9.2397813774e+01   2.1229565098e+01    0.2487441    0.1620988   3.39 0.0008774616    1.996    0.499
       185  -7.8451    210.5247    110.4744   8.9120644171e+01   1.7704461828e+01    0.1482147    0.1275861   8.15 -1.560708e-05    1.059    0.055
       186  -8.0246    133.9787    106.9795   1.0449680558e+02   3.4624443664e+01    0.2323842    0.1787395  -3.71  0.001128695    1.677    0.404
       187  -7.5801    249.6745    106.6594   8.1761912438e+01   1.0123617719e+01    0.1471841   0.09287212  12.86 0.0007051268    1.731    0.422
       188  -8.0648    241.6349    105.8052   8.2771925238e+01   1.1838950539e+01    0.3006229    0.1746043  10.08  0.001319055    2.159    0.537
       189 -10.2383      4.8275    105.5644   1.3915040580e+02   5.1587020529e+01    0.3133094    0.1762652  70.37  0.001161025    1.721    0.419
       190  -7.8293    248.6212     96.2426   7.9378437515e+01   1.1637526873e+01    0.1981812       0.1179 -13.45 0.0009428939    1.626    0.385
       191 -10.2957      4.8553     95.0070   1.3816359022e+02   5.3900457522e+01    0.2878255    0.1521513 -55.11  0.001734037    1.753    0.430
       192  -8.4835     22.8969     91.7089   1.3254270546e+02   5.3462148562e+01    0.1582391    0.1342452 -86.45 0.0004020042    1.093    0.085
       193  -7.8961    212.4886     84.5056   8.1992784240e+01   2.1059094526e+01    0.1476167    0.1367226 -13.50 0.0008094665    1.074    0.069
       194  -9.2495      2.8863     81.1324   1.3727758308e+02   5.7083936821e+01    0.1697287    0.1257647  86.77 0.0002691065    1.207    0.172
       195  -7.5790    158.9700     80.0300   9.1190425461e+01   3.4306316750e+01    0.3123498    0.1745039  13.26 0.0008684533    3.975    0.748
       196  -8.3363    184.2096     77.6678   8.5200604820e+01   2.8738826936e+01    0.2600956    0.2020474 -36.45 0.0008318812    1.293    0.227
       197  -7.3487     36.3067     67.6681   1.2399583727e+02   5.7820713625e+01    0.1236111   0.08965859  81.57  0.000441281    1.663    0.399
       198  -9.2011      1.4309     58.5723   1.3481676401e+02   6.2186104381e+01    0.4513427    0.1212459 -77.53  0.001725702    3.580    0.721
       199  -8.8085    243.1590     58.1540   7.0300299554e+01   1.7520870705e+01     0.210528    0.1738179   8.11 0.0003814023    1.211    0.175
       200  -7.6655     66.4762     58.4251   1.1084860366e+02   5.6447269314e+01    0.1357964    0.1179948 -39.63 0.0001181567    1.026    0.025
       201  -9.3131     33.1349     57.5451   1.2282141510e+02   6.0371257392e+01    0.2213144    0.1666836 -58.89 0.0002937731    1.079    0.073
       202  -8.5802     94.9674     52.7602   9.9365370585e+01   5.3002022917e+01    0.2389827    0.1878481 -40.99 0.0004527923    1.194    0.163
       203  -7.7252      7.2759     53.3103   1.3176573216e+02   6.3081563874e+01    0.1204743   0.06546431 -49.28 0.0001953798    1.556    0.357
       204  -8.4683     44.1435     51.8150   1.1710170728e+02   6.0582489900e+01    0.1777381    0.1598898 -61.94 0.0004478593    1.149    0.130
       205  -9.4986      2.6778     45.4720   1.3212161092e+02   6.5035921144e+01    0.4726874   0.02062077 -55.68  0.001693085    3.962    0.748
       206  -8.7315     95.5430     45.6959   9.6592480700e+01   5.4223959824e+01    0.2496239    0.2239547  15.46 0.0005912138    1.137    0.121
       207  -7.8517     54.4709     44.0473   1.1062370358e+02   6.1046838637e+01    0.1992056    0.1123102 -48.56 0.0003701716    1.501    0.334
       208  -8.1928     10.2526     42.9671   1.2848260819e+02   6.5213518122e+01    0.1752359    0.1243804 -60.80  0.000577981    1.067    0.063
       209  -8.8441     21.1547     40.1295   1.2315043966e+02   6.5146732436e+01     0.197933    0.1480278 -64.48 0.0003946543    1.188    0.158
       210  -7.8817     77.1880     39.8998   1.0055664221e+02   5.8566929313e+01    0.1876812    0.1476782 -13.76 0.0002847024    1.288    0.223
       211  -9.2809     52.0138     38.5182   1.0964501665e+02   6.2483917480e+01    0.2334743    0.1597984 -44.46  0.001315138    1.224    0.183
       212  -7.2107     41.4923     39.5217   1.1432611658e+02   6.3482719819e+01    0.1289797    0.1061152 -44.56  6.45835e-05    1.029    0.028
       213  -8.9191      8.5490     37.7900   1.2801268779e+02   6.6435967328e+01    0.2821649    0.1034261 -75.28  0.001162755    3.154    0.683
       214  -7.5220     73.5161     37.4847   1.0093347478e+02   5.9620195467e+01    0.1392069    0.1204679 -26.19 0.0001032889    1.009    0.009
       215  -7.9403     24.9098     38.0000   1.2092164749e+02   6.5324442177e+01    0.1626898   0.07077499  22.05 0.0003448616    2.844    0.648
       216  -8.5518    139.4905     34.7951   8.0360292726e+01   4.6294764576e+01    0.2573374    0.2129132  50.18 0.0005691058    1.227    0.185
       217  -8.3022     94.9287     33.7610   9.2052228701e+01   5.6440043008e+01    0.2114351    0.1737101   1.58 0.0003174916    1.213    0.175
       218  -9.4382     14.5518     34.1849   1.2441887739e+02   6.6870133993e+01    0.2337954    0.1725183 -37.61  0.001295918    1.252    0.201
       219  -9.3528      9.1760     32.4101   1.2638245514e+02   6.7564792689e+01    0.3075832    0.1605338 -78.64  0.001320656    2.186    0.543
       220  -8.1713      9.8075     27.2165   1.2464311446e+02   6.8635722654e+01     0.217444    0.1286907 -39.87 0.0003033131    1.455    0.313
       221  -9.2976      4.8660     33.9790   1.2873437387e+02   6.7446305909e+01    0.3360058     0.161855   4.30  0.001345371    2.826    0.646
       222  -9.4588    238.5152    248.5123   1.0999143583e+02  -3.1020654510e+00    0.2017409    0.1702964  73.52  0.001341505    2.991    0.666
       223  -7.6685    162.5183     27.5192   7.2954968069e+01   4.1392467542e+01    0.1547194    0.1401326  21.03 0.0008092625    1.064    0.061
       224  -7.8140    172.6882     25.3127   7.0413572952e+01   3.8989863171e+01    0.1545933    0.1125985 -57.74 0.0001951313    1.632    0.387
       225  -9.0524     91.5463     25.0451   8.9387184417e+01   5.8513028908e+01    0.2441112     0.202563  37.25 0.0003996669    1.264    0.209
       226  -8.3188     81.8285     25.1103   9.2690501423e+01   6.0358687780e+01    0.2015834    0.1782533 -42.20  0.000273045    1.288    0.224
       227  -7.5575    156.3097     24.3121   7.2925764813e+01   4.3393466589e+01    0.1610209    0.1075968  26.88 0.0003619362    1.626    0.385
       228  -8.5295      3.1632     23.6164   1.2684868317e+02   6.9738002613e+01    0.2677884    0.1420358  49.20   0.00143583    2.989    0.665
       229  -7.6615    137.0781     21.9799   7.5895449720e+01   4.8589590234e+01    0.1775442    0.1635669  28.08 0.0003841038    1.043    0.041
       230  -7.5966    127.5352     22.0267   7.8069519054e+01   5.0937289746e+01    0.2155393    0.1085434 -46.21  0.000809037    2.501    0.600
       231  -8.7174     84.6917     21.5781   9.0091495183e+01   6.0381178226e+01    0.2473501    0.2106936 -29.19 0.0007360931    1.168    0.144
       232  -7.8104     59.3220     21.9196   9.9812069156e+01   6.4637637861e+01    0.2717407    0.1065761 -45.45   0.00110514    2.482    0.597
       233  -9.6468     21.6512     30.9158   1.2020309830e+02   6.7076627948e+01    0.4543925     0.184958 -63.45  0.001658202    2.324    0.570
       234  -7.8158    161.4286     18.8333   6.9986492477e+01   4.2681859291e+01    0.2103823    0.1400147  -0.15 0.0008157098    1.660    0.398
       235  -7.6401     31.4172     19.4754   1.1132497973e+02   6.8543440899e+01    0.1252986   0.09772913 -37.65 6.508419e-05    1.023    0.023
       236  -7.8892    233.7290     19.1984   6.0702168951e+01   2.4039094419e+01    0.2106913   0.08783283  57.28 0.0008584935    2.374    0.579
       237  -7.5369    151.9645     17.9526   7.1339808707e+01   4.5254933465e+01    0.1754865    0.1623091  33.50 0.0003930364    1.034    0.033
       238  -9.4929    164.8191    246.1407   1.2117495838e+02   7.3244453301e+00    0.2369803    0.1391672  30.49 0.0003626731    1.495    0.331
       239  -8.8781     74.7562     16.3985   9.1148878057e+01   6.3009843399e+01    0.2864625    0.2412898  81.99 0.0009765184    1.925    0.481
       240  -8.2879    146.1311     14.2001   7.0973930845e+01   4.7176981524e+01    0.2195532    0.1839434  27.98 0.0003539497    1.144    0.126
       241  -7.3469    114.2986    248.3192   1.2947618669e+02   1.3894689756e+01   0.08946684   0.07024082  22.85 0.0005430543    1.618    0.382
       242  -9.6873    226.3088    250.4148   1.1207391770e+02  -1.6231768220e+00    0.3891159    0.1177323  31.38  0.001853209    3.041    0.671
       243  -8.0468    151.1928     12.7926   6.9499601541e+01   4.6009313492e+01    0.2073958    0.1957608 -41.68 0.0004253944    1.152    0.132
       244  -7.6517     63.1553    247.6036   1.3742227583e+02   2.0120469595e+01    0.1242937   0.07397952  36.71 0.0009060238    1.644    0.392
       245  -8.3102     17.6264    247.3001   1.4415488734e+02   2.4730745439e+01   0.09854289   0.03873264  58.75 0.0007028905    1.750    0.429
       246  -8.1745     14.3199    247.3081   1.4462669288e+02   2.5026810415e+01   0.06880487   0.06410498  77.34 0.0007033055    1.639    0.390
       247  -8.0342     43.5429     11.5216   1.0178338409e+02   6.8615768486e+01    0.1931732    0.1183196  45.82  0.001024359    2.289    0.563
       248  -8.7190      9.2369    247.2245   1.4534380854e+02   2.5486402070e+01    0.1395398   0.03172118  45.64  0.000852991    2.434    0.589
       249  -8.1157     15.7469     10.6236   1.1566534575e+02   7.1615986636e+01    0.1268938    0.1090624  19.31  0.000191669    1.468    0.319
       250  -9.0436    212.0242    246.4734   1.1375618826e+02   6.7392204568e-01    0.1676007    0.1313057  13.25  0.000606258    1.229    0.187
       251  -9.0000    171.4530    245.9739   1.2009423986e+02   6.4126899942e+00    0.2044715    0.1123801  30.23  0.001123549    1.602    0.376
       252  -9.5019    150.5167    245.1117   1.2336789119e+02   9.4326266998e+00    0.2123569    0.1565708  -2.23  0.001431921    2.062    0.515
       253  -9.5807    176.8324    243.6962   1.1897463455e+02   5.8983315958e+00    0.2413929    0.1621021 -18.56   0.00172357    2.095    0.523
       254  -9.7283    246.0385    242.5313   1.0805521435e+02  -3.6280834338e+00    0.1952297   0.09266976  32.14 0.0009854428    1.494    0.330
       255  -8.9667      2.4644    244.5090   1.4622305106e+02   2.6449602901e+01   0.08766002   0.05624542  63.32 0.0008095404    1.004    0.004
       256 -10.3877    217.8057    249.0705   1.1319527997e+02  -3.5376401509e-01    0.4590231    0.1823518  31.45  0.002651171    2.011    0.503
       257  -8.9264    237.1489    242.7812   1.0942387668e+02  -2.4545107006e+00    0.1511048   0.08923902  20.16  0.001072815    1.347    0.257
       258  -7.9074    210.4029    242.7213   1.1352996879e+02   1.2456578444e+00    0.1258484   0.08842392  -2.22 0.0007647655    1.576    0.365
       259  -8.0643    146.6123    242.6402   1.2374826060e+02   1.0265177570e+01    0.1454187    0.1064791  19.98  0.001039639    1.590    0.371
       260  -7.4615     60.3294    243.6482   1.3763591316e+02   2.0981176508e+01    0.1040751   0.04932847  61.53 0.0007047454    1.771    0.435
       261  -9.4180    168.8164    241.6248   1.2003135466e+02   7.2614874179e+00    0.2094544    0.1527066   7.23 0.0007876977    1.721    0.419
