#   1 NUMBER                 Running object number                                     
#   2 MAG_AUTO               Kron-like elliptical aperture magnitude                    [mag]
#   3 X_IMAGE                Object position along x                                    [pixel]
#   4 Y_IMAGE                Object position along y                                    [pixel]
#   5 X_WORLD                Barycenter position along world x axis                     [deg]
#   6 Y_WORLD                Barycenter position along world y axis                     [deg]
#   7 A_WORLD                Profile RMS along major axis (world units)                 [deg]
#   8 B_WORLD                Profile RMS along minor axis (world units)                 [deg]
#   9 THETA_WORLD            Position angle (CCW/world-x)                               [deg]
#  10 FWHM_WORLD             FWHM assuming a gaussian core                              [deg]
#  11 ELONGATION             A_IMAGE/B_IMAGE                                           
#  12 ELLIPTICITY            1 - B_IMAGE/A_IMAGE                                       
         1 -12.9342      4.3969     65.9922   8.6640439343e+01   6.1458647446e+01     1.403261    0.5682049 -77.28  0.006666692    2.712    0.631
         2 -13.3650     26.5079     37.9087   7.1141686781e+01   6.5525001907e+01    0.6378062    0.4675972 -20.74  0.001361127    1.312    0.238
         3 -11.7486      3.2164     16.2867   7.4675635023e+01   7.1001288488e+01    0.4082633    0.3112577  71.87  0.002527424    2.441    0.590
         4 -11.7548      2.4752     25.6320   7.8034756218e+01   6.9413148416e+01    0.5810884    0.2385127 -53.62  0.003385014    1.813    0.449
         5 -10.7336     12.8190     23.3062   7.2443128808e+01   6.9192578804e+01    0.5364386    0.2368869  -7.95  0.002255351    3.879    0.742
         6 -10.7046     18.3827     16.3226   6.7237515351e+01   6.9940770993e+01    0.3593152    0.1892014 -22.94  0.002102835    1.965    0.491
         7 -11.6606     11.7262     14.5071   6.9795016401e+01   7.0748812838e+01    0.4264379    0.2219774  -4.10  0.002474286    2.363    0.577
         8 -11.1672     19.2912      3.7644   6.1469249315e+01   7.1781267922e+01    0.4905497      0.30024  15.38  0.003339061    1.652    0.395
         9 -11.3109      9.2752      8.3815   6.8624324209e+01   7.1904248144e+01    0.2775235    0.2277849  12.38  0.001331783    1.392    0.282
        10 -10.6305     10.9553      3.6847   6.5757798276e+01   7.2498594820e+01    0.1981389     0.149842 -39.68  0.001094116    1.292    0.226
        11 -10.5478    186.2060     22.8149   2.0812110487e+01   3.5818686166e+01    0.4217854    0.2109056 -34.55  0.001370722    2.070    0.517
        12 -11.5047     60.9380     13.8239   4.7575365971e+01   6.5231356797e+01     0.404667    0.2924413  26.57  0.001942382    1.303    0.232
        13 -12.4335    132.6536     19.0386   2.8942433642e+01   4.9984322638e+01    0.4347312    0.2488757  52.65 0.0004481081    1.551    0.355
        14 -10.6746    120.5213     17.4722   3.1082658341e+01   5.3051082531e+01     0.546908    0.2864862 -19.19  0.002447405    2.286    0.563
        15 -10.2231     74.1102      1.8850   3.7541209980e+01   6.4408378925e+01    0.2909462    0.2196173 -54.95   0.00156329    2.010    0.503
        16 -10.7420     76.0110     16.0290   4.3111275412e+01   6.2433322135e+01    0.3749288    0.2308661  25.44  0.001113861    1.715    0.417
        17 -10.3467     70.7574     13.7793   4.3961773304e+01   6.3633847848e+01    0.3716171    0.1921277 -29.37  0.001726963    1.914    0.477
        18 -11.4581     77.0356     10.2528   4.0291402210e+01   6.2954755643e+01    0.5161557    0.3491537  47.97  0.003034275    1.475    0.322
        19 -11.1964     28.6956     19.8842   6.3788927366e+01   6.8438427757e+01    0.2585443    0.1632216 -29.60 0.0003088244    1.357    0.263
        20 -12.3366     31.4562     13.3063   5.9805764072e+01   6.9177412181e+01    0.3148895    0.2941594  32.12 0.0005656152    1.503    0.335
        21 -12.2684    238.1006     17.5635   1.3476901821e+01   2.3362781752e+01     0.281682    0.2255688 -61.36 0.0002768617    1.103    0.093
        22 -11.2759    233.3346     15.2534   1.3390575685e+01   2.4789220726e+01    0.3617921     0.174402 -48.61    0.0016973    1.879    0.468
        23 -11.3348    165.3050     13.7785   2.1264045188e+01   4.2331501095e+01    0.5433864     0.210564 -37.54  0.002160463    2.621    0.618
        24 -10.6941     50.9019     15.0130   5.2062006825e+01   6.6546281895e+01    0.2552863    0.2421859 -12.61  0.001392246    1.314    0.239
        25 -10.6674    154.8837      9.2658   2.1516370793e+01   4.5497745241e+01    0.3724453    0.2101672 -56.54  0.001275477    2.168    0.539
        26 -10.2427    226.4333     12.1795   1.3325534169e+01   2.6837419804e+01    0.3195324    0.1170344 -33.76  0.001309326    2.643    0.622
        27 -11.0276    129.7008     11.1284   2.6773105686e+01   5.1576911937e+01     0.450395    0.3214959  81.42  0.002361141    1.579    0.367
        28 -11.2835    106.2110     12.2884   3.2620706640e+01   5.6864319891e+01    0.3918381    0.2306792  27.20  0.000619119    1.958    0.489
        29 -10.3784    176.4336     11.2721   1.8880253008e+01   3.9714316050e+01    0.3023344    0.2076999 -77.84 0.0008666783    1.535    0.349
        30  -9.9878    138.6506     11.5792   2.5152037416e+01   4.9343436574e+01    0.2541149    0.1670796 -32.67  0.001304541    1.663    0.399
        31  -9.8479      5.1642     11.9014   7.2116429046e+01   7.1614999590e+01    0.1548333    0.1241913 -42.55  0.001226022    1.212    0.175
        32 -11.5112    145.6683      7.6639   2.2550215009e+01   4.7996830652e+01    0.4954174    0.3275264 -21.87   0.00256903    1.742    0.426
        33 -10.0943    148.7009      2.0005   2.0178191926e+01   4.7781725771e+01     0.175695    0.1720667  69.23 0.0003883707    1.127    0.112
        34 -12.4651    233.3744      7.0782   1.1496263734e+01   2.5746328310e+01    0.6975952    0.3542634 -78.31  0.002986203    2.069    0.517
        35  -9.8231    118.7686      9.1006   2.8386089147e+01   5.4373251006e+01    0.2905963    0.2488894 -51.55  0.001548531    1.363    0.266
        36 -11.6503     27.5467      3.0306   5.7019568130e+01   7.1062416991e+01    0.2254734    0.2137413  18.17  0.001001214    1.532    0.347
        37 -11.0029     36.8589      7.4726   5.4727739972e+01   6.9400910963e+01    0.3262345    0.2576292  56.28  0.002149845    2.186    0.542
        38 -11.0316     34.4178      1.9511   5.3236755876e+01   7.0426462582e+01    0.3304129     0.179247  32.83  0.002029746    1.861    0.463
        39 -10.9986    193.4897     17.3685   1.8318622415e+01   3.4578535700e+01    0.4830509    0.3057562  46.60  0.001372323    1.778    0.438
        40 -11.1658    237.1305      1.9943   1.0026984230e+01   2.5425722241e+01    0.3266758    0.1985928 -77.42  0.001757295    1.490    0.329
        41 -11.2725    213.9496      5.9924   1.3045361960e+01   3.0645714757e+01    0.4451704    0.3492954 -65.17  0.002618839    1.160    0.138
        42 -10.6198    210.2321      1.9965   1.2419824702e+01   3.2013529850e+01      0.41574    0.2131823 -88.04  0.001640236    1.984    0.496
        43  -9.1306     65.2683      8.6398   4.3656616662e+01   6.5189190142e+01    0.1092187   0.09350911 -52.14 0.0002298506    1.644    0.392
        44 -10.0078     91.8519      6.8571   3.4298801832e+01   6.0475608716e+01    0.1923618    0.1454664  30.07 0.0004100361    1.207    0.172
        45 -10.8863    222.9991      5.3929   1.2033723708e+01   2.8462629539e+01    0.2537373    0.1900576 -34.57  0.001464603    1.474    0.322
        46  -9.5408     68.6330      5.7736   4.1160419182e+01   6.4956106771e+01    0.1519364    0.1054357 -31.32 0.0003827309    1.511    0.338
        47 -10.2131    164.6995      4.7469   1.8601960670e+01   4.3435297439e+01    0.2506597    0.1738643 -43.13 0.0007432429    1.552    0.356
        48  -9.8423     59.8172      5.4261   4.4210811886e+01   6.6454438148e+01    0.2186872    0.1099935  48.30  0.001142706    2.166    0.538
        49 -11.2886    243.7992      3.2961   9.7854616496e+00   2.3711888111e+01    0.3135557    0.1662901 -68.66  0.001571511    1.781    0.439
        50  -9.9325    201.0759      3.9246   1.3847195362e+01   3.4130804287e+01    0.2028336    0.1743865  82.95 0.0003627626    1.069    0.065
        51  -9.5984    171.4968      4.0385   1.7439952147e+01   4.1750631084e+01    0.1930832    0.1344549 -33.34  0.001023434    1.586    0.369
        52  -9.9778    125.9820      2.8118   2.4542127051e+01   5.3291351320e+01    0.2100979     0.153072  39.92 0.0007623976    1.306    0.234
        53 -10.5598    168.0372      1.9059   1.7277613350e+01   4.2852915073e+01    0.2028473    0.1734671  77.70 0.0003160642    1.010    0.010
        54 -10.2464     90.9776      2.0418   3.2515698230e+01   6.1139726951e+01    0.1810939    0.1566436  23.07 0.0003146404    1.040    0.038
        55  -9.1246     38.6708    190.7004   9.2631845979e+01   3.1080955494e+01    0.1036918   0.08838968 -55.82 0.0007030259    1.641    0.391
        56 -11.2386    247.4788    249.9580   6.0431109237e+01  -1.2241338648e+01    0.2539842    0.1474928  29.03  0.001657622    1.355    0.262
        57 -10.9624    238.1537    245.6692   6.1327618448e+01  -1.0438446186e+01    0.2087048    0.1358995  43.42 0.0007183234    1.516    0.341
        58 -12.4692    226.1923    246.2729   6.3437439858e+01  -8.7090875593e+00    0.5723157    0.4289622   5.28  0.004015355    1.340    0.254
        59 -12.1969    232.6303    245.7415   6.2266504113e+01  -9.6242207097e+00      0.40235    0.3108042 -30.21  0.002904507    1.577    0.366
        60 -12.1177     89.0725    249.2888   8.8154373276e+01   1.3019299165e+01    0.4551049    0.1906323  47.75  0.001036393    1.774    0.436
        61 -12.5914      7.0389    245.3388   1.0139247421e+02   2.4113282701e+01    0.5954129    0.3227183  75.01  0.003105826    1.293    0.227
        62 -11.6621     14.4194    244.7366   1.0023075929e+02   2.3437217618e+01    0.3336537     0.156524 -82.21  0.001407765    1.874    0.466
        63 -11.9507     22.5120    248.6645   9.9149865861e+01   2.1864911916e+01     0.365096    0.1894694  55.16  0.002195202    1.376    0.273
        64 -10.5106     17.3605    247.2735   9.9887234056e+01   2.2677754140e+01    0.1660489    0.1147999  54.99 0.0007982568    1.324    0.245
        65  -9.8022    163.3965    188.7968   6.6069378025e+01   1.0969488427e+01    0.1829039    0.1349942 -36.04 0.0009512454    1.653    0.395
        66 -10.0992    244.6640    188.0665   5.0462467940e+01  -4.2641455926e+00    0.1772951    0.1504092  -5.24 0.0005448565    1.095    0.087
        67  -9.3973    226.3108    188.3351   5.3736894162e+01  -1.0683416923e+00    0.1357221   0.09467807   9.13 0.0003544416    1.681    0.405
        68  -9.8139     61.9917    184.5574   8.7233047232e+01   2.9433511820e+01    0.2009053    0.1464226 -83.76  0.001232484    1.221    0.181
        69 -12.2941     16.2818    181.8015   9.6414656789e+01   3.5350537597e+01    0.4390249    0.2213566  55.24  0.002645362    1.705    0.413
        70  -9.6120      1.8160    180.1464   9.9133688529e+01   3.7018407706e+01    0.1398445    0.1090511 -77.64 0.0007107101    1.335    0.251
        71  -9.8265    244.3708    178.4037   4.8673167651e+01  -2.8309095132e+00    0.2470536    0.1097053 -22.24 0.0009422973    3.317    0.699
        72 -10.6456     22.3773    179.5190   9.5027273258e+01   3.5225094325e+01    0.3095441    0.1537094  54.07  0.001236996    1.759    0.432
        73  -9.7101    118.7506    176.9966   7.3742827607e+01   2.1932751298e+01     0.178368    0.1182834 -61.11 0.0008886917    1.590    0.371
        74 -10.7656     18.0304    172.6002   9.5391834438e+01   3.7128319046e+01    0.3179151     0.139559  64.96  0.001655703    2.162    0.537
        75  -9.8556    177.0210    168.9434   5.9602461956e+01   1.1938019068e+01    0.1715069    0.1656805  55.74 0.0005152657    1.053    0.050
        76 -10.7859     35.2967    161.2277   9.0662105618e+01   3.7847967654e+01    0.2417777    0.2290889  83.07 0.0002068316    1.325    0.245
        77 -11.1008     37.2282    166.0059   9.0705796468e+01   3.6574711465e+01    0.3934082    0.1995703  85.51  0.001997984    1.975    0.494
        78 -11.3420     33.1627    166.1742   9.1618399848e+01   3.6982936034e+01      0.22406    0.1740757  78.30 0.0003116081    1.051    0.049
        79 -10.1467     25.9115    169.5129   9.3487569677e+01   3.7012732166e+01    0.1609158    0.1097554  41.01  0.001034757    1.603    0.376
        80 -11.0127      5.3643    168.1125   9.7675301148e+01   3.9228200053e+01    0.1638889    0.1476566  73.93 0.0008447833    1.337    0.252
        81 -11.6338     51.6684    162.2542   8.7042874232e+01   3.5710059553e+01    0.6674183    0.3666875 -79.89  0.002911238    1.683    0.406
        82  -9.0234    210.7247    166.3187   5.2350415014e+01   5.4554271407e+00    0.1323535    0.1116943 -83.82 0.0005280417    1.571    0.363
        83  -8.9657     93.3006    166.7047   7.7963213011e+01   2.8649871020e+01    0.1430271   0.09482294  73.21 0.0002679142    1.573    0.364
        84  -9.9126     67.2285    165.3790   8.3833756746e+01   3.2942548325e+01     0.193431    0.1034069  51.07 0.0009561051    1.749    0.428
        85 -11.6335     21.2529    156.8816   9.3400789506e+01   4.0236132752e+01    0.3897205    0.3166764  -5.34  0.002609332    2.033    0.508
        86  -9.8539    216.2399    154.5973   4.8893722295e+01   6.3438504708e+00    0.1926439    0.1282387  37.32   0.00028168    1.511    0.338
        87  -9.7944    235.8344    152.8979   4.5011150730e+01   2.6844912324e+00    0.1903668    0.1589723 -54.59  0.000666357    1.389    0.280
        88 -11.0362     10.7478    152.9809   9.5406217109e+01   4.2028640830e+01    0.3111435    0.1847294  33.99  0.001963793    1.958    0.489
        89  -9.8888    176.8342    150.0815   5.5806253992e+01   1.5637792238e+01    0.2292943    0.2011358  83.24 0.0005989263    1.241    0.194
        90 -10.4459     20.6357    147.2917   9.2650599731e+01   4.2419692462e+01    0.3035975    0.1474328  71.42  0.001193245    2.177    0.541
        91  -9.6948    207.3070    146.6819   4.8895312990e+01   9.6259978184e+00    0.1441932      0.11596 -83.34 0.0007030357    1.633    0.388
        92  -9.7047     37.3079    146.3555   8.8589291810e+01   4.0981931678e+01    0.1225469   0.08490398 -48.91 0.0007042342    1.724    0.420
        93 -10.2281    216.8155    145.2059   4.6780049323e+01   7.8590192081e+00    0.2013777    0.1675963  12.21  0.000592956    1.343    0.256
        94 -10.4615      7.1833    145.3141   9.5576432430e+01   4.3993689562e+01    0.2274281    0.1122062  20.56  0.001241395    2.936    0.659
        95  -9.9687    187.6130    144.1309   5.2262080299e+01   1.4419262144e+01    0.2510554    0.1933198  55.75 0.0004487704    1.286    0.222
        96 -10.0831     76.9221    142.7754   7.8216986239e+01   3.6729365719e+01    0.2408986    0.1369523  63.78  0.001088237    2.017    0.504
        97  -9.9877    240.0216    140.0656   4.1571811509e+01   3.9467330354e+00    0.2060412    0.1959614 -16.74 0.0004752817    1.020    0.020
        98 -10.0071     13.9985    140.2514   9.3540011979e+01   4.4562680422e+01    0.1591588    0.1300072  83.37  0.000352181    1.097    0.088
        99 -10.4719      9.1958    136.4622   9.4330752787e+01   4.5785530068e+01     0.238085    0.1142039 -71.61  0.001002856    1.630    0.386
       100 -10.7924      2.7904    135.5039   9.5769153625e+01   4.6469483682e+01    0.3681075    0.1035766 -68.68  0.001699645    2.557    0.609
       101  -9.7563    144.1314    137.2035   6.0378900135e+01   2.5496254435e+01    0.2099062    0.1743014  84.52 0.0004327569    1.289    0.224
       102 -10.8468    241.3346    134.3002   4.0104894146e+01   4.6285657618e+00    0.2402523     0.225892 -53.04 0.0004569104    1.132    0.117
       103 -10.0352     20.8516    134.6281   9.1307101389e+01   4.5239217072e+01    0.2339376    0.1395559 -84.06 0.0007621563    1.410    0.291
       104 -11.1602     53.8760    132.5587   8.2577492033e+01   4.2263455153e+01    0.3897594    0.2101101  31.91  0.001211783    2.163    0.538
       105 -11.7852     36.8475    130.8987   8.6796640613e+01   4.4568846592e+01    0.4162877    0.2197613 -61.78  0.002214828    1.636    0.389
       106 -11.1656     73.5978    128.8915   7.6727225467e+01   4.0468985735e+01    0.3253195       0.2824  80.03  0.001740506    1.085    0.078
       107 -10.7669     66.9644    127.8310   7.8327678193e+01   4.1661279916e+01    0.2462122    0.1785634 -68.17 0.0007163535    1.243    0.196
       108 -11.0854     15.1134    125.5694   9.1768406516e+01   4.7751808474e+01    0.3096873    0.2101985  32.14  0.002011396    1.771    0.435
       109 -11.3486     10.6581    122.0643   9.2534624446e+01   4.8873936129e+01    0.3150973    0.1937058 -78.20  0.001971209    1.284    0.221
       110 -10.7065    243.8017    122.1796   3.7037823646e+01   6.1212564214e+00    0.2069884    0.1824525 -52.57 0.0005506261    1.157    0.135
       111 -10.2360     19.8723    121.5000   9.0061940872e+01   4.8283967497e+01    0.2774439    0.1202332 -67.75  0.001420724    1.816    0.449
       112  -9.5024    219.3657    124.3022   4.1643455813e+01   1.1006541314e+01    0.1514454    0.1138321  16.10 0.0007035037    1.735    0.424
       113 -12.0673     52.6700    115.8751   8.0220892055e+01   4.6291569096e+01    0.3543559    0.2305073 -85.62 0.0002502247    1.626    0.385
       114 -10.1341     77.9032    118.0462   7.3506789483e+01   4.2362179877e+01    0.2018721    0.1781868 -82.64            0    1.045    0.043
       115 -10.4659     44.5491    117.8802   8.2836785801e+01   4.6755656483e+01    0.3060333    0.1710214  61.23 0.0009195036    2.140    0.533
       116 -10.7042     30.0703    117.7423   8.6826785246e+01   4.8247112690e+01    0.2451195    0.1743054   5.08 0.0009721351    2.081    0.519
       117 -10.3850     24.3370    118.0209   8.8429444190e+01   4.8695342174e+01    0.2095041    0.1674714  54.66 0.0007177261    1.353    0.261
       118 -10.9374     72.2390    115.9042   7.4677329484e+01   4.3702262300e+01    0.3485692    0.1846337 -65.01  0.001561823    1.823    0.451
       119 -10.1010    179.3106    116.3209   4.7557070302e+01   2.1815664114e+01    0.2677495    0.1978065 -82.69 0.0009878178    1.762    0.433
       120 -10.7184    182.8342    114.0269   4.6254396204e+01   2.1428178603e+01    0.3563713    0.2697785  46.12 0.0007174533    1.324    0.245
       121  -9.6008     86.3725    116.2187   7.0765252607e+01   4.1450856408e+01    0.1997786    0.1274561 -69.19 0.0004713416    1.629    0.386
       122 -12.1143     15.6100    114.0372   9.0298005423e+01   5.0299789360e+01    0.6208411    0.3050303  83.08  0.001489324    2.388    0.581
       123 -10.4073     15.0476    108.2373   8.9722093808e+01   5.1639859949e+01    0.2023276    0.1705973  28.14 0.0009637161    1.489    0.328
       124 -10.2747     37.1546    114.8014   8.4429122608e+01   4.8239305882e+01      0.25567   0.07389034  36.92   0.00103311    3.438    0.709
       125 -10.7200     94.1833    112.3351   6.7738658599e+01   4.1029574826e+01    0.3152762    0.3066747  45.90  0.001753567    1.136    0.120
       126 -10.6254    249.6288    111.7223   3.3806882914e+01   6.6289319852e+00     0.254028    0.2215663 -55.39 0.0005921341    1.151    0.131
       127 -11.6607     54.3662    108.0110   7.8318737839e+01   4.7906877913e+01    0.6148331    0.3168237 -79.72  0.002007146    2.491    0.599
       128 -11.2634      2.4338    107.4040   9.3121395178e+01   5.2667464978e+01    0.4420019    0.1771889 -65.61  0.002369516    1.849    0.459
       129 -10.1251     41.7192    108.3578   8.2085055623e+01   4.9251226437e+01    0.2000587    0.1661206  84.70 0.0003593549    1.187    0.157
       130  -9.9649     84.8477    107.6413   6.9338823201e+01   4.3678668124e+01    0.2920029    0.1690471 -48.08  0.001339665    1.701    0.412
       131 -11.1814     25.0880    105.8593   8.6527464213e+01   5.1384709184e+01    0.3774105    0.2995779 -33.34  0.001414394    1.517    0.341
       132  -9.9036     30.7283    106.4240   8.4974954957e+01   5.0764536845e+01    0.1492588    0.1213845  -0.95 0.0009561348    1.652    0.395
       133 -10.3059    111.7038    105.9152   6.1373756927e+01   3.9227244140e+01     0.291818    0.1989611  44.54  0.001364192    1.488    0.328
       134 -11.2229     19.2761    110.8741   8.8883119762e+01   5.0727125914e+01    0.4320847    0.2158156 -88.58  0.001439452    2.148    0.534
       135 -10.3378    119.4750    103.2443   5.8600579370e+01   3.8244656497e+01    0.4596001    0.1777847 -42.49  0.001547927    2.821    0.645
       136 -11.1591     36.1842    100.5439   8.2388698655e+01   5.1587674722e+01    0.6247364    0.3218087  78.86  0.002580752    3.353    0.702
       137 -11.8844     61.9895     99.2559   7.4285224358e+01   4.8953727553e+01    0.4680566    0.2840747 -45.25  0.001310312    1.652    0.395
       138 -10.2467    144.5167     99.1804   5.1109078221e+01   3.3588099378e+01    0.2943463     0.237938 -88.94 0.0008915283    1.423    0.297
       139 -10.3659      1.3925    118.6485   9.4570909899e+01   5.0262621458e+01    0.2097623   0.08535324 -74.84  0.000422057    1.880    0.468
       140 -10.8026     21.0941     98.5513   8.6605242841e+01   5.3347465477e+01    0.3338229    0.1881306 -63.53  0.001931529    1.415    0.293
       141  -9.6367    107.5204     99.4978   6.0921796760e+01   4.1471843808e+01    0.1490092    0.1397733 -84.96 0.0001247255    1.047    0.045
       142  -9.8122      9.6792     99.0611   9.0056101477e+01   5.4048649060e+01    0.1638681    0.1145405 -75.65 0.0005322631    1.148    0.129
       143  -9.1808     86.2846     98.3621   6.6763492035e+01   4.5551386617e+01     0.143954    0.1078634 -26.75 0.0007019925    1.684    0.406
       144 -10.3412     41.3390     96.9655   8.0168166665e+01   5.1883997572e+01    0.2122799    0.1617191  72.94  0.001273671    1.481    0.325
       145 -10.4734    101.6144     95.7063   6.1623928774e+01   4.3434499531e+01    0.3393142    0.1733752  42.88 0.0009074291    2.011    0.503
       146 -10.7716    227.4910     93.0038   3.2886953549e+01   1.4626551757e+01    0.2852169    0.2490766 -47.59 0.0005143797    1.090    0.082
       147 -10.9919    156.6203     84.1833   4.4139637050e+01   3.3703237335e+01    0.5851336    0.4330927 -39.86   0.00272867    1.400    0.286
       148 -10.8420    162.5002     93.5314   4.5375907621e+01   3.0432140951e+01    0.3067498    0.2344116 -43.96 0.0007976973    1.335    0.251
       149 -11.7029    159.5497     89.9369   4.5065891016e+01   3.1863434734e+01    0.6040354    0.3366947  45.33  0.002413638    1.832    0.454
       150 -10.0442      1.5328     92.9336   9.1656584051e+01   5.5877323262e+01    0.1788163   0.08729956 -71.42 0.0009282678    1.569    0.363
       151 -10.8722     38.3943     88.7101   7.9498986888e+01   5.4028563665e+01     0.553939    0.1365691 -54.22  0.002105335    3.036    0.671
       152  -8.9989     31.2708     92.3526   8.2452423658e+01   5.3883835522e+01     0.127478   0.07724597 -44.62 0.0006996428    1.633    0.387
       153 -11.0383     55.6572     90.5303   7.4359524290e+01   5.1723168587e+01    0.2316519    0.2044187  40.21  0.001459049    1.267    0.211
       154  -9.7205     25.4781     90.9814   8.4029701616e+01   5.4682567401e+01    0.1642612   0.09242275  86.45 0.0008064377    2.327    0.570
       155 -10.1990     10.4529     90.9004   8.8686154157e+01   5.5790488409e+01    0.1806642    0.1428251 -35.59 0.0004657891    1.426    0.299
       156 -10.8305     83.7657     88.9324   6.5170481615e+01   4.8060068521e+01    0.3360864    0.2691122  75.92   0.00179536    1.494    0.331
       157 -10.5107     97.5874     89.0635   6.1049668551e+01   4.5630347813e+01    0.2495693    0.2005985  59.47 0.0007138447    1.343    0.256
       158  -9.9746     74.1315     88.9402   6.8153402633e+01   4.9567465221e+01    0.2022187    0.1768773 -81.61 0.0004574942    1.204    0.169
       159 -10.3177     78.5300     87.6158   6.6448699592e+01   4.9186262761e+01    0.2850628    0.2022316 -76.46  0.001417586    1.722    0.419
       160 -11.3034     66.2576     85.9588   6.9908014814e+01   5.1356708260e+01    0.5281807    0.2807395 -44.58  0.002223532    1.828    0.453
       161  -9.2930     62.4838     82.4858   7.0270535672e+01   5.2627689755e+01    0.1321186    0.1194681 -55.36 4.534995e-06    1.013    0.013
       162  -9.9222     47.7057     88.0961   7.6373222463e+01   5.3192360484e+01    0.1771784    0.1405035 -56.39 0.0003191048    1.097    0.089
       163 -10.6951     22.5473     86.7760   8.4228125474e+01   5.5842882395e+01    0.2140644    0.1770421 -65.79 0.0005540029    1.015    0.015
       164 -10.0962      9.9563     86.3331   8.8157667657e+01   5.6816801773e+01    0.2404597    0.1339288  56.15  0.001185596    2.279    0.561
       165  -9.5062    120.5881     87.2404   5.4023616858e+01   4.1438203597e+01    0.2009016    0.1441221 -36.20 0.0006581931    1.498    0.332
       166 -11.4935    167.5128     83.6420   4.1573447748e+01   3.1100654858e+01    0.7409226    0.3618504  61.91  0.002684059    2.273    0.560
       167 -11.1610    107.3595     84.7844   5.7031320091e+01   4.4677526798e+01    0.2513188    0.2397039  49.00 0.0002783584    1.068    0.063
       168 -11.2661     30.3465     81.7060   8.0732586000e+01   5.6313773426e+01    0.2847432    0.2261798 -64.49  0.001158677    1.076    0.070
       169  -9.4053    116.7808     83.6102   5.4042387899e+01   4.2997329365e+01    0.2072975    0.1403004  57.10 0.0007447006    1.584    0.369
       170 -11.5474     75.7529     82.3887   6.5966569793e+01   5.0751721487e+01    0.5346606    0.2875791  34.98  0.002467017    2.044    0.511
       171 -10.8874     42.8435     82.1480   7.6670483063e+01   5.5025958883e+01    0.3213667    0.2029961  74.27  0.001591402    2.419    0.587
       172 -10.4563     21.6976     81.4104   8.3541099737e+01   5.7079364721e+01      0.28357    0.1167253 -42.11  0.001329365    2.558    0.609
       173 -10.3502      7.2258     81.3352   8.8255926674e+01   5.8060376623e+01    0.2796611    0.1629359 -51.87  0.001749873    1.450    0.311
       174 -10.3011     88.3185     78.0570   6.0823404703e+01   4.9623917084e+01    0.3345799    0.2410151 -48.77  0.000880374    1.327    0.246
       175  -9.6770     58.3075     79.4046   7.0878547030e+01   5.3838315546e+01    0.2293154    0.1308853  26.20 0.0008500484    2.099    0.524
       176  -9.2875    160.5134    249.4820   7.5445716203e+01   1.5265881850e+00    0.1223165   0.09352005  44.30 -3.462517e-05    1.033    0.032
       177 -12.3315     12.5226     47.5219   7.9645683338e+01   6.4731237974e+01    0.5812631    0.3415065 -63.24  0.001993771    1.511    0.338
       178 -14.4336     16.6983     67.5077   8.2562867890e+01   6.0404163005e+01    0.5720081    0.3876233 -66.88  0.001317437    1.275    0.216
       179 -11.3379     10.9840     61.9603   8.3494829619e+01   6.1922097681e+01    0.2108928    0.1766368 -69.29 0.0003277486    1.152    0.132
       180 -11.5249      3.4844     48.4618   8.3481754427e+01   6.5057363058e+01    0.3806058    0.2889673 -59.18  0.002119745    1.097    0.088
       181 -11.0521      7.1145     42.6313   8.0637349024e+01   6.6001737944e+01    0.4302324    0.1303985 -58.75  0.002080204    2.422    0.587
       182 -10.9317     11.7885     56.7007   8.2079190611e+01   6.2947503586e+01    0.3781673    0.2336275  73.73  0.001090428    2.614    0.617
       183  -9.8417    184.2888     76.6028   3.6223187242e+01   2.8137959955e+01    0.2680486    0.1770783 -50.84  0.000531894    1.558    0.358
       184 -11.1091     99.8196     76.5459   5.6880124005e+01   4.7848173650e+01    0.2622181    0.2342571 -50.95 0.0002566242    1.101    0.092
       185 -10.4641     53.9808     72.2161   7.0508206744e+01   5.5909135781e+01     0.234083    0.2126988  85.11  0.001510105    1.269    0.212
       186 -12.1738     50.3515     68.2861   7.0738445620e+01   5.7163233324e+01    0.5710195    0.3758461 -80.66 0.0005909097    2.203    0.546
       187 -11.4701    167.7257     73.3908   3.8652575580e+01   3.2937921129e+01    0.3057019    0.2713417 -75.72 0.0003086109    1.149    0.130
       188  -9.9956    167.5613     69.5273   3.7582635828e+01   3.3668267851e+01    0.2439508    0.1894802  48.49 9.563917e-05    1.293    0.226
       189  -9.9216    107.5013     74.0468   5.3877329916e+01   4.6848784255e+01    0.2205749    0.1414014 -44.81 0.0003851036    1.544    0.352
       190 -10.6477     93.7686     71.8339   5.7321663911e+01   4.9931464172e+01    0.3431597    0.1854917 -43.70  0.001280408    1.798    0.444
       191  -9.5085     61.5411     73.4765   6.8260162639e+01   5.4682936849e+01    0.1305463    0.1178897 -48.12  4.97352e-05    1.015    0.015
       192 -11.6097     44.8766     74.9230   7.4321759891e+01   5.6374403891e+01    0.3237473    0.2350851  57.64 0.0006661771    1.741    0.426
       193 -10.2769     51.4823     62.8602   6.8852471815e+01   5.8144753423e+01    0.3113211    0.1587734 -38.56  0.001503425    1.968    0.492
       194 -10.3478    106.5539     69.4900   5.2770025214e+01   4.7937537739e+01    0.3715911    0.2446128  89.20    0.0012332    3.015    0.668
       195 -11.4465    122.7311     67.2335   4.7533460389e+01   4.4933032096e+01    0.3146579    0.2443487 -45.21 0.0002861056    1.309    0.236
       196  -9.8019    136.3818     68.2369   4.4307863399e+01   4.1611539857e+01     0.206836    0.1399534 -50.54 0.0002621314    1.570    0.363
       197 -10.5783    139.8806     66.0546   4.2779877695e+01   4.1175746514e+01    0.3008372    0.2098076  49.28  0.000894877    1.392    0.282
       198 -10.0174     43.6948     67.8726   7.2987892942e+01   5.7990042941e+01    0.2239885    0.1508715  61.98  0.001203755    2.152    0.535
       199 -11.9166      8.2772     31.7480   7.7196450535e+01   6.7980953500e+01    0.4128098    0.3504355  65.42  0.002318925    1.716    0.417
       200 -11.8547     30.1712     62.4967   7.6542852603e+01   6.0407443662e+01    0.5492745    0.4378176 -51.22  0.003724829    1.045    0.043
       201 -12.8600     38.0483     49.8491   7.0117077067e+01   6.2197204701e+01    0.6843911    0.5762036 -12.33   0.00391852    1.204    0.169
       202 -11.3241     35.2718     41.8930   6.8769623192e+01   6.3979483467e+01    0.6342151    0.2967857 -21.71  0.002579937    3.787    0.736
       203 -10.4222     27.4122     51.0404   7.4630893802e+01   6.2948451607e+01    0.5907001    0.2749504 -63.28  0.002958336    2.217    0.549
       204 -11.6212     28.6292    245.6433   9.8034385784e+01   2.1688591704e+01    0.4406345      0.18673  83.26  0.002567849    2.185    0.542
       205  -9.7673     18.5375     30.9726   7.2379207617e+01   6.7428139324e+01    0.3976839    0.2324093   6.79  0.002459102    1.998    0.499
       206  -9.3626    130.9890     64.9621   4.4661424957e+01   4.3473639665e+01    0.1773927    0.1694428 -43.68 0.0003697839    1.074    0.069
       207 -10.5753     76.8241     62.2415   5.9837308881e+01   5.4736464555e+01    0.3806718    0.2867994  72.70  0.000221708    1.942    0.485
       208  -9.9695     84.0103     63.7432   5.7935429016e+01   5.3257427308e+01     0.238098    0.1814388  18.79 0.0009578896    1.514    0.339
       209 -10.3450     81.4795     61.5169   5.8064235703e+01   5.4116544755e+01    0.3588614    0.2758601 -29.72  0.001403659    1.314    0.239
       210 -11.4984    156.0541     63.4314   3.8249078095e+01   3.7653852591e+01    0.2758496    0.2621456  69.70 0.0003316814    1.013    0.013
       211 -11.5100    202.0182     62.5852   2.9301650629e+01   2.5975213736e+01    0.2581534    0.2430841 -77.25 0.0001785303    1.042    0.040
       212  -9.4976    211.0389     62.4827   2.7849786680e+01   2.3701075684e+01    0.2162747    0.1121473  41.56 0.0008099852    2.581    0.613
       213 -10.3535    119.8419     60.9465   4.6331772741e+01   4.6727957969e+01    0.3385515    0.2086971  57.26 0.0009053549    1.721    0.419
       214  -9.7223    113.5176     60.9381   4.8077182656e+01   4.8103789491e+01    0.2079462    0.1411063 -43.58 0.0004991507    1.494    0.331
       215 -11.0756     98.1217     60.0093   5.2294114607e+01   5.1404548466e+01    0.2513498    0.2201036 -37.31            0    1.124    0.110
       216 -10.5525    100.0268     55.7900   5.0328836039e+01   5.1804356968e+01    0.2949966    0.1904229  34.61  0.001396342    1.654    0.395
       217 -12.2864    105.0044     52.3589   4.7694038795e+01   5.1409480436e+01    0.3847342    0.3280303  67.49 0.0002595604    1.342    0.255
       218 -10.6459    102.7879     47.4365   4.6660958651e+01   5.2699642197e+01    0.3753275    0.2328696  30.02  0.001733753    1.878    0.467
       219 -11.3567     46.4716     59.1214   6.9619548494e+01   5.9477304235e+01    0.5716447    0.2031794 -48.41  0.002484359    2.363    0.577
       220  -9.7544    169.0118     60.2058   3.4586912197e+01   3.4895170162e+01    0.2108798    0.1927942  69.48 0.0004210267    1.037    0.035
       221  -9.8371    138.0451     60.0588   4.1370279121e+01   4.2678453148e+01    0.2209229    0.2112624  73.42 0.0003201956    1.032    0.031
       222  -9.8472    127.2513     58.9587   4.3729702286e+01   4.5409386229e+01    0.1941994    0.1906093  -8.46 0.0001979695    1.051    0.049
       223 -10.9257     58.3239     58.7966   6.5205137986e+01   5.8101911725e+01    0.3008382    0.2422869  23.38  0.001120492    1.347    0.258
       224 -10.4058    134.0911     58.0294   4.1700115899e+01   4.3973066905e+01    0.2262801    0.1782003 -81.84 0.0004670178    1.577    0.366
       225 -10.7252     86.1675     58.5643   5.5587218375e+01   5.3876179059e+01    0.3461462    0.1323712  39.77  0.001326964    2.754    0.637
       226 -10.6552     80.8891     55.5831   5.6346511614e+01   5.5340366774e+01    0.4113102    0.2543243 -12.90  0.001773194    2.591    0.614
       227  -9.9658    115.8126     56.4505   4.5978008527e+01   4.8411250492e+01    0.2629536    0.1407452  54.03 0.0009493443    1.930    0.482
       228  -9.6522     74.8914     56.0968   5.8538475522e+01   5.6224075598e+01    0.1999286    0.1506668  -8.37 0.0007032744    1.571    0.363
       229 -10.4501    182.1075     54.8199   3.0563435678e+01   3.2371892867e+01    0.2289234    0.2133559 -44.82  0.000296296    1.140    0.123
       230 -12.0240    130.2089     49.8124   4.0007406275e+01   4.6265702923e+01     0.708804    0.5092784  68.22  0.001876471    1.537    0.349
       231  -9.9604     61.9222     53.0633   6.2118023690e+01   5.8724627543e+01    0.2271956    0.1365529 -51.68 0.0009629035    1.644    0.392
       232 -10.5683    154.2636     52.5505   3.5331491506e+01   3.9923628560e+01    0.2641341    0.2401861  41.27 0.0002661877    1.142    0.124
       233  -9.1408    120.2993     52.3059   4.3389208876e+01   4.8132425428e+01    0.1457347    0.1121101  15.52  0.000575268    1.592    0.372
       234 -10.1660     75.7160     50.4799   5.6390592007e+01   5.7130600290e+01    0.4982806    0.1788297  35.74  0.001884752    3.171    0.685
       235 -11.9311     52.0191     47.3511   6.3936603668e+01   6.1098029516e+01     0.725294    0.3976081 -49.24  0.003559927    1.688    0.408
       236 -10.5179     54.2015     36.9995   5.9519884388e+01   6.2669402199e+01    0.3276961    0.2384563 -66.27  0.001280326    2.053    0.513
       237 -10.1706     88.8369     50.1537   5.1912848714e+01   5.4929002196e+01    0.1939634    0.1880455  80.59 0.0004749387    1.194    0.162
       238 -10.6681     69.0839     48.0108   5.7867624790e+01   5.8617878029e+01    0.1900531     0.170563 -15.84 0.0003737577    1.028    0.027
       239 -11.6176     67.5037     39.1219   5.5289743581e+01   6.0410191462e+01    0.8085815    0.2923749 -36.93  0.003054344    2.811    0.644
       240 -12.5365     75.0235     35.5233   5.1271184287e+01   5.9797535818e+01    0.4149697    0.3206571 -10.42 0.0006603171    1.327    0.246
       241 -10.5791     71.5522     28.5682   4.9808801676e+01   6.1452299411e+01    0.1956466    0.1534892 -18.38 7.814631e-05    1.207    0.172
       242  -9.7321     78.4772     47.1026   5.4283566820e+01   5.7277971622e+01    0.1899897    0.1236372 -39.36  0.000354501    1.473    0.321
       243 -10.2914    151.5504     45.6898   3.3770632857e+01   4.1685436889e+01    0.2569087    0.2195178  68.47 0.0005050497    1.122    0.109
       244  -9.6373    143.0775     45.7058   3.5622294984e+01   4.3804066175e+01    0.2051482    0.1840325  50.88 0.0005882542    1.069    0.064
       245 -10.3541    119.9704     46.0149   4.1360429988e+01   4.9238548941e+01    0.4018783    0.2017266  36.59  0.001578026    2.378    0.580
       246 -10.8579    112.5200     45.2417   4.3110060449e+01   5.1011522194e+01    0.3142034    0.2515363  13.05  0.001660094    1.425    0.298
       247 -11.1137     44.7292     43.4997   6.5496245120e+01   6.2677661871e+01    0.3823386    0.2875544 -77.06  0.001827712    2.023    0.506
       248 -11.7020     44.8006     38.1127   6.3640408690e+01   6.3641712873e+01    0.2329693    0.2102163  47.30            0    1.433    0.302
       249  -9.3498    171.3401     44.7973   2.9603031634e+01   3.6723402721e+01    0.1877222    0.1441787 -19.55 0.0009096625    1.563    0.360
       250  -9.8216    163.4982     45.4811   3.1285422875e+01   3.8658127463e+01    0.1504552    0.1395924  62.57 0.0008098794    1.050    0.048
       251 -10.9647     72.4750     42.8436   5.4857456621e+01   5.8999251350e+01    0.2688478    0.2517584  35.03  0.001743461    1.191    0.160
       252 -12.1075     57.6262     34.0028   5.7086142122e+01   6.2709870642e+01    0.2919062    0.2228784 -33.98 0.0004915286    1.198    0.165
       253  -9.0690    163.2763     42.2839   3.0354917005e+01   3.9190814656e+01    0.1439884     0.112055  31.86            0    1.508    0.337
       254 -10.9208    147.6866     38.9173   3.2428827894e+01   4.3664892797e+01    0.4081681    0.2574106 -48.39  0.001485507    1.744    0.427
       255 -10.2667    130.3381     41.5058   3.7207218400e+01   4.7535120912e+01    0.2448702    0.1817167   3.13  0.001176584    1.754    0.430
       256 -10.4346     89.4351     41.4381   4.8642702303e+01   5.6295108510e+01    0.2597476    0.2150822  50.00 0.0005244458    1.298    0.230
       257 -11.2234     81.4773     37.8908   4.9948936635e+01   5.8311748137e+01    0.4280155    0.2659838 -52.37  0.002095383    2.018    0.505
       258 -10.6956     83.3368     34.4041   4.8020757964e+01   5.8529986318e+01    0.3305095    0.2216311  52.01  0.001760236    1.672    0.402
       259  -9.4533     62.4640     40.4623   5.7628496234e+01   6.0931220567e+01    0.2076283    0.1215099  34.67 7.913316e-05    1.790    0.441
       260  -9.9155    236.7407     38.2332   1.8437430743e+01   2.0974400497e+01    0.3300844    0.1799331 -14.82  0.001272257    3.344    0.701
       261 -10.1364    225.6846     38.6895   1.9830199492e+01   2.3600312080e+01    0.2940307    0.1248853 -51.58  0.001019161    2.390    0.582
       262  -9.8287    159.4424     38.1191   2.9808354567e+01   4.0782088303e+01    0.2247074    0.1804945  62.87 0.0003375152    1.151    0.131
       263 -10.3809    193.8384     35.6914   2.3294664856e+01   3.2139089117e+01    0.3707803    0.2010522 -48.25 0.0009150953    1.874    0.466
       264 -11.0162    111.6745     35.0730   3.9747221338e+01   5.2752858503e+01    0.3833548     0.294885 -87.84  0.001471452    1.837    0.456
       265  -9.5403      1.4520     37.0072   8.1615403485e+01   6.7370230784e+01    0.1634393   0.08191019 -57.68   0.00100336    1.530    0.346
       266 -10.1147    248.0784     36.3564   1.6790821389e+01   1.8566497907e+01    0.1869407    0.1524003 -84.06 0.0004335152    1.116    0.104
       267 -10.0261    172.4355     35.9039   2.6767761205e+01   3.7714745374e+01    0.3097386     0.162868  46.11  0.001271487    2.037    0.509
       268 -12.8706    139.8448     33.7532   3.2416607355e+01   4.6347832144e+01    0.4187612     0.293325  53.42 0.0005079822    1.315    0.240
       269 -10.4902    128.5251     36.0076   3.5771939539e+01   4.8772006835e+01    0.2514639    0.1796949  42.70 0.0003334667    1.359    0.264
       270  -9.9792    101.6304     36.0906   4.2949935961e+01   5.4736837923e+01    0.1869035    0.1677432 -12.19 0.0004634415    1.112    0.100
       271 -10.1972    202.2389     34.0239   2.1649264393e+01   3.0184736851e+01    0.1967091    0.1783542 -72.14 0.0003653803    1.066    0.062
       272 -10.5151    177.7619     33.1128   2.5053229838e+01   3.6701076071e+01    0.3502753    0.1942966 -33.55  0.001542111    1.908    0.476
       273  -9.2181     34.3119     33.6559   6.6421199266e+01   6.5563189253e+01    0.2012897        0.159 -80.71  0.001258713    2.020    0.505
       274  -9.9821     30.8035     32.2317   6.7425532386e+01   6.6156782966e+01    0.2325485    0.1853126 -83.33   0.00148695    2.023    0.506
       275 -11.0472    221.6762     31.7215   1.8587134678e+01   2.5550256182e+01    0.2485882    0.2016979 -66.75 0.0002479723    1.115    0.103
       276  -9.8900    167.2786     31.9237   2.6467937590e+01   3.9602480031e+01    0.1983736    0.1880349 -46.46 0.0009013329    1.145    0.126
       277 -10.5324    207.6742     30.9771   2.0122580739e+01   2.9195139343e+01    0.1972735    0.1745828 -60.38 0.0004302351    1.114    0.103
       278 -11.1234    101.5790     29.2070   4.0403006984e+01   5.5743690001e+01    0.3720651    0.2891003 -48.78  0.002053742    1.503    0.335
       279 -10.3869     49.5929     29.0339   5.8365862106e+01   6.4599399327e+01    0.3651782    0.1789043 -33.70  0.001337547    1.950    0.487
       280 -11.8384     37.4693    243.2054   9.6470534311e+01   2.1067698065e+01     0.422904    0.2230582  82.08  0.001727063    1.613    0.380
       281 -13.0529     75.2446    239.2601   8.9748485292e+01   1.6768955909e+01    0.6616865    0.4948428 -63.57  0.004587117    1.725    0.420
       282 -11.1685     88.7709    240.9159   8.7482924470e+01   1.4491780478e+01    0.2111991    0.1496972 -60.79  0.001392058    1.805    0.446
       283 -10.0641    109.9098    249.3814   8.4500525905e+01   9.8134372826e+00    0.1965308    0.1436446  78.12  0.001327911    1.348    0.258
       284 -10.1360    195.3885    238.4151   6.7683908161e+01  -2.7938410618e+00    0.2079767    0.1791961  15.02  0.001337617    1.208    0.172
       285 -11.5037     18.5765    236.8884   9.9208567106e+01   2.4370938036e+01    0.4653528    0.1498929  55.44  0.002583066    2.191    0.544
       286 -10.7112    159.9915    235.6879   7.3792459246e+01   3.6504724118e+00    0.1840537       0.1322  43.96 0.0004310052    1.111    0.100
       287 -10.0494    125.0198    245.9580   8.1447006351e+01   7.9421665890e+00    0.1476782    0.1128494  56.08 0.0004852117    1.022    0.022
       288 -10.8073     79.5736     28.2937   4.6917465375e+01   6.0121739017e+01    0.3579624    0.2190827 -26.68  0.001114011    1.660    0.398
       289 -11.6314    198.1466     27.6224   2.0487940708e+01   3.2096069444e+01      0.39428    0.3732622 -87.57  0.001663932    1.114    0.102
       290 -10.6166    162.9604     28.4695   2.6169808719e+01   4.1179229259e+01    0.2459396      0.21468 -39.42 0.0003589345    1.237    0.191
       291 -11.1882    238.0510     27.9168   1.5876173629e+01   2.2054448512e+01    0.2185321    0.1787789 -53.09 0.0003461413    1.150    0.130
       292  -9.6163    156.8119     28.2109   2.7200872522e+01   4.2801008062e+01    0.1937557    0.1520445  45.93 0.0002574565    1.277    0.217
       293 -11.3172    112.4075     27.0675   3.6629405928e+01   5.3704689860e+01    0.3438493    0.2885377  19.18 0.0008753492    1.220    0.181
       294 -10.0584    246.6812     27.3175   1.4883853625e+01   2.0099965435e+01    0.1447237   0.08433849 -65.09 0.0002874453    1.658    0.397
       295 -10.9506    215.3119     25.5388   1.7787012878e+01   2.7961949787e+01    0.4495916     0.241933  56.43  0.002065675    1.873    0.466
       296 -10.2639    122.0059     32.7985   3.6247408516e+01   5.0750576143e+01     0.396002    0.1755872  52.63  0.001622195    2.064    0.516
       297  -9.3876    147.3075     26.3049   2.8402725532e+01   4.5467476099e+01    0.2490197    0.1135646  53.48 0.0005925546    1.949    0.487
       298 -10.1574    144.3148     26.6868   2.9126386389e+01   4.6171823011e+01    0.2078654    0.1211733  53.12 0.0002527803    1.552    0.356
       299  -8.8927    123.2846     26.6249   3.3741585394e+01   5.1283870619e+01    0.1408006    0.1059284 -65.97 0.0007015685    1.715    0.417
       300  -9.6358     15.6837     26.5901   7.2224473084e+01   6.8416789513e+01    0.1793779    0.1009713   8.70  0.001098647    2.053    0.513
       301  -9.7933    203.8390     24.0431   1.8792916798e+01   3.1081873204e+01    0.2564581    0.1451186 -41.35  0.001197426    1.742    0.426
       302 -11.4486     95.4659     43.2727   4.7407652633e+01   5.4845802208e+01     0.534426    0.3332799  -8.74    0.0017607    2.432    0.589
       303 -10.6363    189.6313     23.8899   2.0631619237e+01   3.4789789158e+01    0.2677152    0.1801597 -77.28 0.0004872043    1.584    0.369
       304  -9.7814     23.9120    232.1831   9.8096181616e+01   2.4630834696e+01    0.1769623    0.1262712  48.51 0.0006027714    1.466    0.318
       305 -10.4993    161.5266     20.5136   2.3952766653e+01   4.2537696122e+01    0.3382487    0.2283335   8.50  0.001560435    2.174    0.540
       306  -9.2700    115.6723    235.3216   8.2019785763e+01   1.1228988150e+01    0.1305239   0.07693125  66.13 0.0007048275    1.689    0.408
       307  -9.5759     54.2911     22.9812   5.4065149451e+01   6.4918326514e+01    0.1635923    0.1362288 -17.10            0    1.054    0.051
       308 -11.3769     58.8116     21.1526   5.1531475047e+01   6.4539232977e+01     0.389479    0.2968183  48.27 0.0005294456    1.632    0.387
       309 -10.3744     67.1306     20.8670   4.8278395968e+01   6.3292609176e+01    0.2116733    0.1657905  27.88 0.0003782028    1.219    0.180
       310  -9.9444     63.6970     19.3687   4.8920723050e+01   6.4048622468e+01    0.1941478    0.1477786 -49.95 0.0006993379    1.709    0.415
       311 -10.3105     22.3247     24.1615   6.8330681838e+01   6.8312808423e+01    0.1803117    0.1316503  -8.75 0.0005801565    1.335    0.251
       312 -10.0447    226.4351     23.0548   1.5932881394e+01   2.5502548845e+01    0.2040091    0.1656353 -89.86 0.0002963167    1.091    0.083
       313 -10.3033     93.8241     22.0163   3.9896887974e+01   5.8295299801e+01    0.2186326    0.1782164  42.33 0.0005742316    1.166    0.142
       314 -10.3986     83.2055     21.7618   4.3101277660e+01   6.0378232048e+01    0.2734172    0.1944484  30.64  0.001152127    1.350    0.259
       315  -9.7234    166.6078    232.7334   7.2163563127e+01   2.9513389063e+00     0.147753    0.1210314 -70.72 0.0009462895    1.574    0.364
       316 -10.6901     87.3395    233.3239   8.7055903290e+01   1.6049128741e+01    0.2593136   0.09572326  56.35  0.001169801    2.442    0.590
       317  -9.1677    114.2424     21.3554   3.4039656015e+01   5.4024764775e+01    0.1360318   0.09819946  17.80  0.000227431    1.587    0.370
       318 -11.2533     29.9436    234.1197   9.7199132295e+01   2.3589171949e+01    0.4262113    0.1539964  68.98  0.002135929    2.640    0.621
       319  -9.5340     74.4310     21.2285   4.5827619038e+01   6.2022446183e+01    0.1635164     0.149359  20.21 0.0005847949    1.122    0.108
       320 -10.7447    184.4718    230.0105   6.8456189947e+01   2.4037571855e-01    0.2603105    0.1426185  17.82  0.001052118    3.567    0.720
       321  -9.2999     59.3582    229.2895   9.1788781850e+01   2.0792037335e+01   0.09466194   0.09191138  41.37 0.0007026349    1.686    0.407
       322  -9.9377    151.9206    228.4978   7.4360817440e+01   6.1899395233e+00    0.1985295    0.1036016  44.94 0.0006262237    1.537    0.349
       323  -9.7658     34.2103     20.3571   6.1484890595e+01   6.7798513064e+01    0.2279412   0.08538123 -54.63 0.0008422399    4.697    0.787
       324 -10.5145      3.9737    226.2013   1.0107432392e+02   2.7831618115e+01    0.2340925    0.1156613 -82.43    0.0015732    1.692    0.409
       325  -9.6753    169.5948    228.7961   7.1057936438e+01   3.0285899632e+00    0.1511207    0.1213143 -72.70 0.0006119961    1.639    0.390
       326  -9.2231    145.3519     20.2704   2.6793545726e+01   4.6698704807e+01    0.1483611   0.09685082  39.06 0.0006995442    1.630    0.387
       327  -9.6787     99.3300     20.1495   3.7560286013e+01   5.7408910814e+01    0.1782692    0.1140709 -39.36 0.0003811757    1.719    0.418
       328 -10.8502     42.2406     19.1739   5.7480006311e+01   6.7065242890e+01    0.3026434    0.1980227  27.79  0.001067523    1.569    0.362
       329  -9.7463     24.1436     20.2096   6.6015222145e+01   6.8812732140e+01    0.1401161    0.1195282 -46.64 0.0003336293    1.343    0.255
       330  -9.4940     25.6180    225.7012   9.7452870774e+01   2.5636551648e+01    0.0901705   0.08237223 -65.32 0.0007021234    1.769    0.435
       331  -9.7587    113.1540    222.7635   8.1097748705e+01   1.3859319007e+01    0.2309628    0.1112444  68.24 0.0009620574    2.920    0.658
       332 -11.0542    158.8425     23.8593   2.5462390971e+01   4.2826363096e+01    0.4700406    0.3158717 -82.76   0.00220391    1.790    0.441
       333 -10.1250    108.4276     17.6199   3.4112702346e+01   5.5769573255e+01    0.2497668    0.1877141   7.01   0.00113345    1.488    0.328
       334 -10.4595    174.7892     16.4720   2.0636203447e+01   3.9560241157e+01    0.2989521    0.1208954  64.19  0.001180929    2.131    0.531
       335 -10.7469     78.1352    221.2706   8.7651535746e+01   1.9654067038e+01     0.337654     0.180803  81.39  0.001769421    2.061    0.515
       336  -9.1210    143.4424     16.4881   2.5898677342e+01   4.7614589745e+01    0.1412846    0.1245811  52.01 0.0003617524    1.064    0.061
       337 -10.8540     15.3736    221.9247   9.8986039059e+01   2.7460609778e+01    0.2628389     0.109558  48.18  0.001231959    1.885    0.470
       338  -9.6871    155.4929     13.5312   2.2773986361e+01   4.4888023608e+01    0.1811538    0.1395285  -1.16 0.0005922189    1.634    0.388
       339 -10.5051     21.8399    220.0285   9.7779673368e+01   2.7124370326e+01    0.1834063     0.118917 -86.31 0.0008702478    1.325    0.245
       340  -9.4707    185.5097     14.4567   1.8555841541e+01   3.6994126615e+01     0.142507    0.1233782  85.06 7.762649e-05    1.007    0.007
       341  -9.0741    142.3198    220.6859   7.5168774224e+01   9.1930637483e+00    0.1333206    0.0880995  67.51 0.0004247947    1.653    0.395
       342  -9.5262    126.2272    220.4212   7.8275523847e+01   1.2062081464e+01     0.189448   0.09777913  52.66 0.0007865488    1.639    0.390
       343  -9.7045    211.8488    219.1357   6.1749001018e+01  -2.9627064070e+00    0.1725924    0.1325332  15.54 0.0008926027    1.296    0.228
       344  -9.3620     99.4872     13.5871   3.4918617124e+01   5.8160654656e+01    0.1314338    0.1140185  31.45 -3.002736e-05    1.030    0.029
       345  -9.7942     83.7534     13.3826   3.9463476567e+01   6.1336439013e+01    0.1764937    0.1492262 -75.46 0.0007166076    1.763    0.433
       346  -9.4885    120.7699    219.4186   7.9219181116e+01   1.3181382324e+01    0.1722446    0.1086273  38.47 0.0006585414    1.569    0.363
       347  -9.7979     38.0366    217.1991   9.4745227259e+01   2.5810011524e+01    0.1462757   0.07565868  43.35 0.0008666679    1.781    0.439
       348 -11.3130      9.2986    216.8895   9.9759083856e+01   2.9036115004e+01    0.3384237    0.1231947  54.12  0.001950938    2.042    0.510
       349 -11.9867     11.6102    209.2562   9.8965825333e+01   3.0268342811e+01    0.5471525    0.1923364  86.89  0.002688752    2.742    0.635
       350 -12.3716      5.6067    208.7214   9.9985223762e+01   3.0962961779e+01    0.5400667    0.1958877 -73.01  0.003025653    2.363    0.577
       351  -9.2737     23.3078     11.3930   6.2844325211e+01   7.0281614212e+01     0.120661   0.06703576 -20.44 0.0007008649    1.826    0.452
       352 -10.7117      1.4925    211.0247   1.0080277278e+02   3.0912545195e+01    0.2762661    0.0820417 -82.76  0.001322739    2.827    0.646
       353  -9.3767    206.4642     10.6218   1.4992420680e+01   3.2019696745e+01    0.1383434    0.1154186  88.88 6.706905e-05    1.030    0.029
       354 -11.2238      1.8121    206.4534   1.0053121237e+02   3.1761369082e+01    0.2495749    0.1268872 -79.82  0.001036026    1.630    0.386
       355  -9.6261    136.4901    215.9706   7.5682296189e+01   1.1057036636e+01    0.1589263    0.1142243 -24.67 0.0006062604    2.441    0.590
       356 -11.0445     29.2502    215.5431   9.6211921117e+01   2.7157865934e+01    0.2218255    0.1609536  73.00  0.001087339    1.043    0.042
       357 -10.6063     24.1317    215.8850   9.7139860253e+01   2.7665188470e+01    0.1740098    0.1091773  72.14 0.0004855197    1.162    0.139
       358 -10.8106    169.3673    212.4233   6.8695691392e+01   5.6806579146e+00    0.2301062    0.1716413 -53.03 0.0009892556    1.609    0.378
       359 -10.4205    109.4999    212.1382   8.0565255653e+01   1.6450209178e+01    0.3442086    0.1186296  45.77  0.001429428    2.372    0.578
       360  -9.6790     20.3100    211.6285   9.7563723946e+01   2.8904540124e+01    0.1236309   0.05710881  68.55 0.0007033934    1.771    0.435
       361 -11.1750    237.0975    209.2755   5.5600825499e+01  -5.8848292475e+00    0.2028253    0.1530021  -6.21 0.0006474588    1.341    0.254
       362  -9.3541    184.6700    208.6872   6.5134528047e+01   3.4579631246e+00     0.132873   0.09670896  16.29 0.0005036863    1.673    0.402
       363 -10.1197    247.5604    205.3356   5.3116718601e+01  -7.0713804926e+00    0.2163067    0.1117254 -37.31  0.001140901    2.093    0.522
       364  -9.0108     28.3174    205.6720   9.5739841043e+01   2.9202859391e+01    0.1241219   0.06154103  68.02 0.0007046072    1.679    0.405
       365 -10.7455     20.0787    199.7444   9.6879150316e+01   3.1281191362e+01    0.3784875    0.1429123 -66.54  0.001706941    2.479    0.597
       366 -10.8227    175.3026    202.3034   6.5922795740e+01   6.2671730174e+00    0.2423388    0.2008393  53.28 0.0004342909    1.127    0.113
       367  -9.9715     68.1172    202.3158   8.7784978562e+01   2.4848470909e+01    0.2085617    0.1570813 -71.97  0.001331434    1.395    0.283
       368  -8.9342     53.2636    202.3117   9.0728239176e+01   2.6868366882e+01    0.1026942   0.08854407 -64.41 0.0002454172    1.537    0.349
       369  -9.7799    238.8073    200.7823   5.3804552215e+01  -5.0309965560e+00    0.1549346     0.144718  41.24 0.0006281111    1.307    0.235
       370  -9.6212    215.4602    194.4864   5.6851593243e+01  -1.7743629598e-02    0.1324199    0.1151099  23.57 7.477565e-05    1.026    0.026
       371 -11.7661     15.5438    193.0745   9.7304846773e+01   3.3094793932e+01    0.2954971    0.2140474  48.08  0.001170375    1.448    0.309
       372  -9.9124    186.6957    192.6843   6.2032156334e+01   5.7161682105e+00    0.1357875    0.1030082  12.84 0.0002515834    1.622    0.384
