#   1 NUMBER                 Running object number                                     
#   2 MAG_AUTO               Kron-like elliptical aperture magnitude                    [mag]
#   3 X_IMAGE                Object position along x                                    [pixel]
#   4 Y_IMAGE                Object position along y                                    [pixel]
#   5 X_WORLD                Barycenter position along world x axis                     [deg]
#   6 Y_WORLD                Barycenter position along world y axis                     [deg]
#   7 A_WORLD                Profile RMS along major axis (world units)                 [deg]
#   8 B_WORLD                Profile RMS along minor axis (world units)                 [deg]
#   9 THETA_WORLD            Position angle (CCW/world-x)                               [deg]
#  10 FWHM_WORLD             FWHM assuming a gaussian core                              [deg]
#  11 ELONGATION             A_IMAGE/B_IMAGE                                           
#  12 ELLIPTICITY            1 - B_IMAGE/A_IMAGE                                       
         1 -12.2089     17.9332     24.1499   1.0394833785e+02   6.8338203436e+01       0.4562    0.2651155 -60.50  0.002468448    1.866    0.464
         2 -11.6714      7.1212     18.2479   1.0680905576e+02   7.0147934913e+01    0.2449417    0.1716424 -36.15 0.0005557305    1.089    0.081
         3 -11.3843    182.2082     19.5401   5.3971069500e+01   3.7110401782e+01    0.3726288    0.2492668 -13.08  0.001755606    1.714    0.416
         4 -12.0845     80.2360     15.5723   7.5242102103e+01   6.1620293322e+01    0.3755549    0.2945946 -29.44  0.001358863    1.286    0.222
         5 -10.6983     43.3036     16.2690   8.9481976080e+01   6.7169458140e+01    0.3014677    0.2477293  83.87  0.001734467    2.634    0.620
         6 -12.0728     25.8420     13.0770   9.5834998716e+01   6.9578403494e+01    0.3280768    0.2233595  22.81  0.001534475    1.665    0.399
         7 -12.7166    209.5567      5.8755   4.6515600795e+01   3.1393084406e+01    0.7326391    0.3796685 -40.28 0.0006888707    1.860    0.462
         8  -9.8011     97.9992     12.0297   6.8277681853e+01   5.8580761104e+01    0.1883608    0.1587362 -52.57 0.0003966858    1.544    0.352
         9 -11.0114    179.9761     13.6865   5.2443847210e+01   3.8341770697e+01    0.2095833    0.1740669  71.54 0.0004869651    1.144    0.126
        10 -10.7300     52.0109      6.0203   8.0947801174e+01   6.7476774631e+01    0.1490337    0.1144782 -13.14 0.0003341594    1.061    0.058
        11 -11.8329     45.2539      8.3556   8.4907962535e+01   6.8093717924e+01     0.289414    0.2504247  38.75  0.002017744    1.583    0.368
        12 -11.4543     38.9550      4.1664   8.5543275706e+01   6.9481865325e+01    0.3795952    0.2317339 -50.49  0.002057496    2.558    0.609
        13  -9.7191     13.2251     11.0339   1.0101497000e+02   7.0990869181e+01    0.1596793    0.1070266 -37.13  0.000470592    1.104    0.094
        14 -10.8193    194.9559      8.6950   4.8961176109e+01   3.4908112140e+01     0.200219    0.1729253  77.21 0.0004269089    1.085    0.078
        15 -10.3080     74.2295      8.3845   7.3898547520e+01   6.3598052063e+01    0.2085539     0.164001 -13.18 0.0004824218    1.135    0.119
        16 -10.6510    159.3575      7.5520   5.3497657155e+01   4.4378329224e+01    0.2398572    0.2210195  60.89 0.0006000722    1.022    0.021
        17 -10.0670    128.0176      8.3389   5.9477927170e+01   5.2194274738e+01    0.1967619    0.1622061  51.26 0.0003645619    1.137    0.121
        18 -10.9610    106.7580      7.8875   6.4159912194e+01   5.7154213085e+01    0.3645345    0.1459949  56.56   0.00149507    2.403    0.584
        19 -10.4559     24.7476      6.9402   9.3523361085e+01   7.0655827621e+01    0.1920159    0.1341173 -46.00  0.001274356    1.559    0.359
        20  -9.6666     19.8247      7.1616   9.6028200341e+01   7.1081249698e+01    0.1539815   0.09892701 -24.33 0.0004199863    1.264    0.209
        21 -10.2164     87.5864      7.2170   6.9112345446e+01   6.1230119559e+01    0.2255709    0.1500408  -7.79 0.0007587603    1.468    0.319
        22 -10.4572     14.1549      4.9209   9.7825199595e+01   7.1918434483e+01    0.1549378    0.1239059 -36.96 0.0004204549    1.265    0.209
        23 -10.5956      9.5076      1.5248   9.8637926382e+01   7.2818934000e+01    0.2698885    0.1255524  36.04  0.001266106    3.078    0.675
        24  -9.9421      7.6969      5.4560   1.0139695684e+02   7.2317984648e+01    0.1303158   0.08700198 -12.36 0.0003664276    1.429    0.300
        25 -11.4221    194.0392      3.7996   4.7620135083e+01   3.5632398840e+01    0.3562426     0.205452  56.89 0.0006827687    1.627    0.385
        26 -11.4669    161.2024      2.9494   5.1641624065e+01   4.4327845745e+01    0.4144197     0.294931  81.03  0.001820369    1.449    0.310
        27 -10.4595    217.9248      2.6717   4.4807432883e+01   2.9575560688e+01    0.2227926    0.1950217  -4.87  0.001312513    1.348    0.258
        28 -10.7859     73.6606      2.1596   7.1068680658e+01   6.4408994395e+01    0.2373574    0.2001953  -2.88  0.000997221    1.090    0.082
        29 -11.0550    181.3195      1.8557   4.8551048405e+01   3.9154763801e+01    0.3324841     0.175776  62.08  0.001473851    1.684    0.406
        30 -10.0539     62.7749      7.1716   7.7358944675e+01   6.5685022588e+01    0.1891717    0.1385451 -64.27 0.0009625516    2.899    0.655
        31 -10.5286     50.1486      2.0667   7.9682666136e+01   6.8250321616e+01    0.1876908    0.1490394  11.75 0.0003292635    1.152    0.132
        32 -10.5163    199.2289      1.4256   4.6350561243e+01   3.4503603518e+01    0.2560319    0.1197553  67.00 0.0007535367    1.921    0.480
        33 -10.0119     90.4892      1.3554   6.5555577611e+01   6.1257300690e+01    0.1968367    0.1144767  51.77 0.0002306623    1.673    0.402
        34 -11.2491    197.1678    233.8979   1.0229712938e+02  -2.4886191099e-01    0.2179474    0.1872312  33.39 0.0006453843    1.123    0.110
        35 -10.6540    210.5420    247.1564   1.0192362015e+02  -3.9073235178e+00    0.2131076    0.1529991  36.78 0.0006944643    1.080    0.074
        36 -11.0838    187.0682    248.8855   1.0602432126e+02  -4.0407323327e-01    0.2245954    0.1713419  56.23 0.0009572437    1.416    0.294
        37 -10.8221    187.5122    245.5091   1.0551397564e+02  -7.7252015276e-02    0.2016744    0.1426229  41.69 0.0007635516    1.088    0.081
        38  -9.6433    158.7269    250.6652   1.1093962154e+02   3.8672330198e+00    0.1604101   0.07902838  48.41 0.0005098369    1.572    0.364
        39 -11.3518    111.4306    245.5576   1.1824225355e+02   1.1842050041e+01    0.4170021    0.2376645 -56.25   0.00269598    2.235    0.553
        40 -10.4416    121.2089    247.8227   1.1684661427e+02   1.0053627782e+01    0.1667705    0.1274807  70.88 0.0003706769    1.244    0.196
        41 -11.0397    115.0220    249.9465   1.1806119002e+02   1.0669064589e+01    0.2553953     0.181944  36.94  0.001780908    1.527    0.345
        42 -10.5753    117.7362    246.6200   1.1730309496e+02   1.0748663643e+01    0.2376389    0.1594326 -72.30   0.00165014    1.805    0.446
        43 -12.3802     46.6499    247.2577   1.2862444997e+02   2.0201238619e+01    0.2106511    0.1468543  88.55 0.0004692415    1.311    0.237
        44 -13.5321      8.1392    213.4946   1.3279500888e+02   2.9984816075e+01    0.4413609    0.2864463  51.13   0.00206142    1.441    0.306
        45 -11.7953     19.7413    217.4693   1.3115470996e+02   2.8149622957e+01    0.1877528      0.16906  69.42 0.0007326706    1.531    0.347
        46 -12.5372     31.3169    213.1349   1.2902662583e+02   2.7712208246e+01    0.3875357     0.253009 -86.01  0.002897208    1.308    0.235
        47 -11.6791     19.9319    222.1525   1.3136706042e+02   2.7311201127e+01    0.2819754    0.1668503  41.18  0.001385346    1.810    0.447
        48 -12.8717     27.7882    219.5611   1.2998187359e+02   2.6946274394e+01    0.6072732    0.1705149  50.63  0.001792078    2.569    0.611
        49 -12.6691     39.5341    229.6356   1.2869523116e+02   2.3912280147e+01    0.3491233    0.1827491 -85.19  0.002007006    1.717    0.418
        50 -11.5792     45.9188    229.4809   1.2766908266e+02   2.3201419191e+01    0.4985036    0.2507804  83.43   0.00293237    1.846    0.458
        51 -12.1923     38.6733    218.2306   1.2812979021e+02   2.5989311470e+01    0.4232896    0.2054539 -71.41  0.002533505    1.971    0.493
        52 -12.3825     13.3979    220.8127   1.3231898619e+02   2.8196635115e+01    0.5570616    0.2150277 -80.52  0.002279925    2.201    0.546
        53 -12.3586      6.5551    222.9085   1.3346309954e+02   2.8493289418e+01    0.5479976    0.2521799 -73.26  0.003797771    2.021    0.505
        54 -12.0258     29.8593    237.4338   1.3062354316e+02   2.3682723181e+01      0.30142    0.2488489 -64.19 0.0007663215    1.869    0.465
        55 -12.6942     31.1849    231.2144   1.3009232617e+02   2.4574201767e+01    0.8934636    0.1413441  50.79  0.003257799    3.719    0.731
        56 -14.1021     36.0128    241.9909   1.2993454132e+02   2.2261768893e+01    0.6366021    0.4296406  87.99  0.003397022    1.290    0.225
        57 -13.6254      4.0284    244.6870   1.3469066166e+02   2.5141876520e+01    0.6822691    0.4494087 -63.24   0.00290167    2.239    0.553
        58 -12.4281     10.4846    249.4871   1.3396983761e+02   2.3758378772e+01     0.350284    0.2300291  75.28  0.001459798    1.098    0.089
        59 -13.2941     16.9664    247.0843   1.3296207536e+02   2.3483712635e+01    0.5807852     0.226797  74.35  0.001347846    2.163    0.538
        60 -13.1448     24.3145    246.9564   1.3190340430e+02   2.2739860169e+01    0.5552369     0.293716  76.35  0.002670553    1.433    0.302
        61 -13.1724     21.7031    238.0990   1.3187645836e+02   2.4440243464e+01    0.4512813    0.2424392  62.38  0.001010575    1.302    0.232
        62 -13.2726      3.8877    233.8685   1.3430586662e+02   2.6903237481e+01    0.5281389    0.2279849  78.67  0.002218527    1.793    0.442
        63 -12.8676     11.4426    231.1748   1.3308706643e+02   2.6623398249e+01    0.3306358     0.176567  58.65 0.0002978033    1.350    0.259
        64 -10.7467    231.3404    233.5605   9.6515915821e+01  -5.7063543016e+00    0.2483421    0.1710543  -1.35  0.001060221    1.545    0.353
        65 -10.5326    173.4461    233.3207   1.0629977518e+02   3.7526887124e+00    0.2562041      0.14928  37.05 0.0009956481    1.454    0.312
        66  -9.9090    157.0000    234.0213   1.0924539920e+02   6.3758724941e+00    0.1557362   0.06875141 -49.03 0.0007813718    2.889    0.654
        67  -9.6162    183.2632    232.9823   1.0455539674e+02   2.1657509753e+00    0.1534849     0.131335  33.51   0.00031357    1.107    0.096
        68 -11.4868    143.6741    232.2601   1.1135189784e+02   8.8071575388e+00    0.3384964    0.1606091  44.28  0.001013634    1.668    0.400
        69 -12.3087     73.6202    227.3376   1.2295716893e+02   2.0094840797e+01    0.4940914    0.2403218  83.79  0.001706538    2.510    0.602
        70 -10.7467    152.2394    230.9263   1.0969030618e+02   7.5999356980e+00    0.1953129    0.1545531 -81.63  0.000743201    1.618    0.382
        71 -10.0726     80.9895    231.5246   1.2206338189e+02   1.8397029881e+01    0.1556975    0.1154794  69.03 0.0003180638    1.054    0.052
        72 -10.5215     58.4213    230.2678   1.2570056540e+02   2.1556926573e+01    0.2960788    0.1286263  62.59   0.00152594    2.004    0.501
        73  -9.7363    248.4841    230.4740   9.3242182897e+01  -8.0196408404e+00    0.1154573   0.08587804  21.30 3.832665e-05    1.006    0.006
        74 -10.9147    242.8570    230.2326   9.4112484834e+01  -7.1404172091e+00    0.2301419    0.1230525  26.49   0.00134507    1.625    0.385
        75 -10.1894     96.2266    229.9564   1.1934102363e+02   1.6508561600e+01    0.1787499    0.1183936  65.82 0.0007361411    1.273    0.214
        76 -12.3334    107.3728    227.8586   1.1720927897e+02   1.5202615371e+01    0.2391465    0.1801333  59.90 0.0003082796    1.029    0.028
        77 -10.4605    111.4599    227.5136   1.1645985065e+02   1.4638127377e+01    0.1819048     0.154741  64.68  0.000486535    1.124    0.110
        78 -10.2727    202.8353    227.3772   1.0037192874e+02  -3.8982516089e-01    0.1622612    0.1570492  22.12 0.0003663116    1.295    0.228
        79 -10.8816    174.4385    228.0718   1.0541594246e+02   4.2943233307e+00    0.2718078    0.1421863  44.46  0.001086295    1.521    0.343
        80  -9.5029    125.8893    228.1729   1.1399767547e+02   1.2285815674e+01    0.1468309    0.1205515  39.01  0.001018862    1.308    0.236
        81 -10.7075    164.3750    224.5473   1.0671458367e+02   6.4897527752e+00     0.227235    0.1795273  74.23  0.000782311    1.532    0.347
        82 -10.7962     78.8383    223.7321   1.2176627512e+02   2.0005795029e+01     0.224942    0.1455705 -75.44  0.000930091    1.585    0.369
        83 -10.9442    177.2474    222.9515   1.0420151918e+02   4.5212284729e+00    0.3220779    0.2027678  63.13  0.001750941    2.058    0.514
        84 -10.9884    121.0915    222.1078   1.1416444880e+02   1.4016735781e+01    0.1892138    0.1741479  80.57 0.0003768027    1.222    0.182
        85 -10.6706    187.9097    222.2604   1.0221200080e+02   2.7899565325e+00    0.1897354    0.1680543   2.65 0.0003335692    1.266    0.210
        86  -9.8463    249.4585    221.5103   9.1618087196e+01  -7.2508580923e+00    0.1918877    0.0985959 -13.70 0.0008213028    2.332    0.571
        87 -10.2980    158.9095    221.7412   1.0731302206e+02   7.8273477982e+00    0.2211922    0.1543351  85.03  0.001242302    2.178    0.541
        88 -10.3933     63.8816    221.0406   1.2410338568e+02   2.2455018710e+01     0.303703    0.1331816  70.47  0.001554823    2.549    0.608
        89 -10.2034    228.8920    220.1493   9.4794256345e+01  -3.8374516317e+00    0.1676833     0.145308  33.81 0.0004802692    1.258    0.205
        90  -9.7385    130.9871    219.0369   1.1201694884e+02   1.2920789561e+01    0.1479771    0.1191162  55.70 0.0004185891    1.003    0.003
        91 -11.2090     47.3407    218.3939   1.2670048310e+02   2.4959733608e+01    0.2328546    0.1758774  47.51  0.001183335    1.445    0.308
        92  -9.7869    190.3253    218.2638   1.0118394508e+02   2.9117690686e+00    0.1223275   0.08257644  23.31 0.0001596652    1.563    0.360
        93 -10.5029    173.4462    216.7610   1.0398840937e+02   6.0542095510e+00    0.3101105    0.2128074 -81.28  0.001620119    2.655    0.623
        94 -10.9676     88.3323    217.6727   1.1955259714e+02   1.9726948821e+01    0.2373672    0.1502376  87.10 0.0009801456    1.627    0.386
        95 -11.6247     82.7790    215.6164   1.2034452878e+02   2.0875594524e+01    0.5134989    0.2118725  36.52  0.001712544    2.763    0.638
        96  -9.8801    217.6482    217.1961   9.6228305454e+01  -1.6248874935e+00    0.1570774    0.1068718 -15.47 0.0009465865    1.694    0.410
        97 -10.9160    116.8804    216.6129   1.1429619514e+02   1.5595673073e+01    0.2077087     0.196862  51.00  0.000794597    1.301    0.231
        98 -10.7690    117.5304    212.5292   1.1369907478e+02   1.6186281633e+01     0.197921    0.1612011  55.49  0.001080613    1.066    0.062
        99 -10.2685    101.3321    217.1937   1.1717805187e+02   1.7900641995e+01    0.1566284    0.1426085 -75.70 0.0005228184    1.350    0.259
       100 -11.6848     97.9208    214.1292   1.1747314734e+02   1.8945156466e+01    0.3638536    0.2302891 -49.43  0.002060802    2.143    0.533
       101 -11.7001     96.3291    209.4536   1.1726823367e+02   2.0012386566e+01    0.3255472     0.244058 -64.48  0.001667262    1.500    0.333
       102 -10.7516     86.1504    211.8244   1.1937361133e+02   2.1074506184e+01     0.184335     0.146399  86.05 0.0005096028    1.166    0.142
       103 -11.2669     72.9881    216.3884   1.2214464262e+02   2.2081742326e+01    0.1944718     0.191572  68.94  0.000109214    1.562    0.360
       104 -10.5939     75.3392    212.6969   1.2140022158e+02   2.2424900468e+01    0.1860592     0.130787  67.18  0.001051659    1.131    0.116
       105  -9.3351    157.2701    216.3607   1.0687398043e+02   8.9177432945e+00    0.1153708   0.09201071  11.47 0.0006997007    1.649    0.394
       106  -9.8505    108.0031    216.5330   1.1590126609e+02   1.6997641546e+01    0.1824562   0.09771153  45.87  0.001021965    1.564    0.361
       107  -9.6832    147.5768    215.5358   1.0853723176e+02   1.0707460961e+01    0.1237366     0.101113  53.72  2.06624e-05    1.042    0.040
       108 -11.2123    111.9213    213.4572   1.1484102846e+02   1.6916329131e+01     0.244745    0.2151558 -59.14  0.001048152    1.425    0.298
       109  -9.4275     85.0022    221.2088   1.2047239310e+02   1.9585373991e+01    0.1454853   0.07517482  45.82 0.0005172597    1.632    0.387
       110 -10.8609    134.9188    219.1254   1.1131367331e+02   1.2260328020e+01    0.2567943    0.1571646 -53.15  0.001510565    1.970    0.492
       111 -10.2151    217.9759    212.7262   9.5437026855e+01  -1.1294221548e+00    0.1789325    0.1314516  32.79 0.0005845362    1.109    0.098
       112  -9.4164    164.3401    213.1671   1.0512583646e+02   8.1766486855e+00     0.148836    0.1160388 -65.95  0.000290857    1.647    0.393
       113 -11.8108     39.0195    211.8028   1.2765096189e+02   2.7103841032e+01    0.2798797    0.1685482  66.20 0.0006178924    1.277    0.217
       114 -10.4141    231.1110    211.9873   9.3058318138e+01  -3.2514613154e+00     0.183876    0.1454307  22.97 0.0004226995    1.002    0.002
       115 -11.8875    128.8084    208.7109   1.1112496850e+02   1.4996555433e+01    0.3703683    0.2922449 -64.01  0.002408945    1.445    0.308
       116 -10.6264     14.3572    211.4395   1.3170342618e+02   2.9756633606e+01    0.2358879    0.1127762  67.23 0.0008550045    1.615    0.381
       117 -10.4506     23.1614    208.6581   1.3011173113e+02   2.9380786322e+01    0.1630285    0.1169305  60.16 0.0006377216    1.228    0.186
       118 -10.0846    214.4809    210.4769   9.5671318079e+01  -2.4645337295e-01    0.1252043    0.1016585  28.09 6.304115e-05    1.009    0.009
       119 -10.0055     80.6066    210.2738   1.2022684528e+02   2.2137173402e+01    0.1394747    0.1008544 -67.06 0.0009306904    1.517    0.341
       120 -12.2877     67.2077    207.5954   1.2239933880e+02   2.4441858530e+01    0.2844721    0.1632711  63.42  0.001755666    1.482    0.325
       121  -9.9396     89.9992    208.4903   1.1833316926e+02   2.1120403524e+01    0.1741897    0.1002079  45.23 0.0007845222    1.543    0.352
       122 -10.8368     90.1968    204.9309   1.1792260472e+02   2.1741317654e+01    0.2223207    0.1606059  75.87 0.0003189562    1.238    0.192
       123 -10.7310     14.4532    198.3137   1.3097959942e+02   3.2151994650e+01    0.2517118    0.1504142  69.26  0.001825553    1.260    0.206
       124 -12.2982     19.2278    201.4781   1.3035243886e+02   3.1098340128e+01    0.2624733      0.19778 -88.70 0.0007526066    1.225    0.184
       125 -10.2680     17.2608    207.6751   1.3103117964e+02   3.0152339933e+01    0.1677118    0.1157578  55.70 0.0003467354    1.316    0.240
       126 -10.8537     13.3304    204.4981   1.3150728963e+02   3.1114063189e+01    0.3584526    0.1246142  59.60  0.001224024    2.346    0.574
       127 -10.6390    152.4465    207.0299   1.0644991877e+02   1.1224971079e+01    0.2281726     0.145501  59.59  0.001245092    1.608    0.378
       128  -9.3667    117.4433    207.4583   1.1310297243e+02   1.7079465342e+01    0.1249453   0.09964492  63.31  9.01571e-05    1.059    0.055
       129  -9.9977     62.4525    207.3038   1.2322743354e+02   2.5111811344e+01    0.1502954   0.09073987  89.43 0.0007286833    1.536    0.349
       130 -10.6400     52.8834    206.8887   1.2489502907e+02   2.6382712681e+01     0.205583    0.1511904  56.52 0.0004567823    1.226    0.184
       131 -12.2892     52.1766    202.5758   1.2467585382e+02   2.7274245646e+01    0.2775937    0.2544246  46.58 0.0008762758    1.526    0.345
       132 -10.9096      2.5891    205.2928   1.3329581577e+02   3.1961913326e+01    0.2718953    0.1112854  57.94  0.001755776    1.866    0.464
       133 -11.2983    183.7276    203.5414   1.0006832405e+02   6.1684809809e+00    0.2668965    0.2130048  12.21 0.0007415847    1.405    0.288
       134 -10.4538    111.2933    203.9123   1.1383180492e+02   1.8696796265e+01    0.3145523    0.2929481 -59.30  0.001044642    1.365    0.267
       135 -10.9330    109.4881    197.9853   1.1344618662e+02   2.0065603994e+01    0.2552929    0.1959085  88.58 0.0004369049    1.310    0.237
       136 -11.3925    108.8042    194.1471   1.1309290522e+02   2.0890116479e+01    0.2143168    0.1916921  84.55 0.0003450164    1.130    0.115
       137  -9.6514     78.4761    205.5188   1.2015486512e+02   2.3304977280e+01    0.1178001   0.09256855  70.28 0.0008098778    1.011    0.011
       138 -11.1876    195.3032    204.2375   9.8057075536e+01   3.9775958290e+00    0.2846096    0.1520836  37.96 0.0009473883    1.620    0.383
       139 -10.8144    122.5188    203.3312   1.1162082853e+02   1.6975562085e+01    0.2641295    0.2089116  75.89 0.0008075311    1.236    0.191
       140 -10.5245    121.3787    199.1540   1.1129329152e+02   1.7910504476e+01    0.2085374    0.1519251  48.30 0.0003968501    1.204    0.170
       141  -9.3088    158.6951    203.2516   1.0471418696e+02   1.0729327612e+01    0.1235279   0.08922426  64.37            0    1.506    0.336
       142 -10.0736     62.2814    212.3025   1.2367706390e+02   2.4217865953e+01   0.09162298   0.08518656 -69.84 0.0005995363    1.551    0.355
       143  -9.5633     38.6292    206.1527   1.2733165338e+02   2.8184110928e+01    0.1311139   0.08374494 -73.09 0.0001030449    1.527    0.345
       144 -10.8833     31.3149    202.6993   1.2836099258e+02   2.9627459324e+01    0.1953271    0.1104314  72.98 0.0005487965    1.421    0.296
       145 -10.6416     28.1847    201.3290   1.2881184960e+02   3.0214910212e+01    0.2255162    0.1491299  55.63  0.001072807    1.315    0.239
       146 -12.4503    240.5519    200.8136   8.9501656554e+01  -3.4948654428e+00     0.400977    0.3246897  -2.99  0.001754208    1.170    0.146
       147 -11.6447    190.7352    200.8143   9.8324182532e+01   5.2983053908e+00    0.2283325    0.1981832  25.82 0.0002538942    1.077    0.071
       148 -10.2018    165.7904    201.9678   1.0317505526e+02   9.6597002285e+00    0.2252731    0.1596331  47.20 0.0007126514    1.209    0.173
       149 -11.0242     70.4505    201.5642   1.2125485127e+02   2.5137789528e+01    0.2857656    0.1444455  54.79  0.001123987    1.683    0.406
       150 -11.1610     40.2972    201.6820   1.2672163162e+02   2.8831609007e+01    0.1802858    0.1490052 -43.58  0.001180749    2.031    0.508
       151 -11.2076     95.9460    200.0573   1.1629994624e+02   2.1788202041e+01     0.238141    0.1655269 -70.80 0.0004705517    1.485    0.327
       152 -12.7135      4.9422    199.8843   1.3265410893e+02   3.2739167994e+01    0.2484555    0.1776614  59.61  0.001453474    1.281    0.219
       153  -9.1855    232.3150    200.6822   9.0879765896e+01  -2.0819897708e+00    0.1094911    0.0999295  71.67 0.0004089002    1.650    0.394
       154 -11.0527    208.8789    199.3683   9.4769132349e+01   2.2146066865e+00    0.2284066    0.1804635 -11.85 0.0006429068    1.374    0.272
       155 -10.1748    155.0878    199.8453   1.0488618188e+02   1.1933600353e+01    0.1902138     0.151006  59.03  0.001154623    1.199    0.166
       156 -10.3237    149.8524    199.3997   1.0582428835e+02   1.2945050896e+01     0.188002    0.1671634  88.31 0.0004459791    1.237    0.192
       157 -11.4869     89.4437    199.4526   1.1747164035e+02   2.2870400615e+01    0.3506746    0.1782608  51.32  0.001092163    1.685    0.406
       158  -9.4133     44.3108    200.2968   1.2590511551e+02   2.8635060921e+01   0.09334176   0.08244529 -63.07 0.0002306796    1.597    0.374
       159  -9.9822    169.5086    198.5477   1.0193036633e+02   9.5285343089e+00    0.2380417     0.130906 -44.70  0.001199324    2.125    0.530
       160 -10.8404    224.0285    198.0121   9.1838283329e+01  -3.0231204982e-01    0.1956621     0.160283  22.35 0.0004169818    1.012    0.012
       161  -9.4221    161.9951    198.0191   1.0328044834e+02   1.0985595752e+01    0.1534587     0.133376  46.70 0.0003119112    1.015    0.014
       162 -11.5413     52.8129    192.6854   1.2372619736e+02   2.9092306170e+01    0.2127159     0.152826  72.11 0.0002867711    1.102    0.092
       163 -11.8983     62.7713    196.3797   1.2219711107e+02   2.7133056779e+01    0.2724097    0.2178938  51.61  0.000247691    1.307    0.235
       164 -10.5289     57.0525    195.1054   1.2314871942e+02   2.8101926724e+01    0.2123317    0.1323244  55.08 0.0004138565    1.369    0.269
       165 -10.9703    101.0383    206.3200   1.1604818782e+02   1.9864538003e+01    0.1729907    0.1248649  54.66 0.0003089985    1.158    0.136
       166 -10.8093     24.9116    194.7517   1.2895413361e+02   3.1796313875e+01    0.3167148    0.1224024 -79.84  0.001741345    2.241    0.554
       167 -11.9826    229.2458    194.8812   9.0360060837e+01  -8.1329092657e-01    0.3466327    0.2379618   7.61   0.00197871    1.544    0.352
       168 -11.9271    217.3120    194.5428   9.2400485179e+01   1.3560023821e+00     0.358223    0.2212018  26.07  0.001907267    1.599    0.375
       169 -10.1739    189.0136    196.4772   9.7911280113e+01   6.2584138823e+00    0.2017709    0.1127267  43.78 0.0005044769    1.545    0.353
       170 -10.7089    136.6024    195.6999   1.0785001932e+02   1.5927814926e+01    0.2472829    0.1727671  67.31 0.0007516911    1.518    0.341
       171 -10.6754    139.9752    194.9265   1.0707666496e+02   1.5471241580e+01    0.3452585     0.200568  68.26  0.001601018    2.347    0.574
       172  -9.5834    102.2544    196.3404   1.1464653539e+02   2.1515160081e+01    0.1681154   0.09580036  51.99  0.000251516    1.518    0.341
       173  -9.9486     82.4835    195.8263   1.1840649382e+02   2.4566791522e+01    0.1624525    0.1080474 -72.16  0.000622621    1.489    0.328
       174 -10.3681     95.3307    195.0791   1.1584098652e+02   2.2818628975e+01    0.1901702     0.150233  47.18 0.0003084571    1.270    0.212
       175 -11.7890    122.5492    192.6126   1.1017675879e+02   1.8907795866e+01    0.4558285    0.2565145  65.51 0.0009548728    2.111    0.526
       176 -10.4066     71.2760    194.1205   1.2037256823e+02   2.6450351326e+01    0.1959526    0.1463188  58.36 0.0006366122    1.169    0.144
       177  -9.0878     44.5626    194.5147   1.2540623300e+02   2.9712498319e+01    0.1140975   0.08406641  76.92 0.0001499233    1.024    0.024
       178 -10.1420    164.3994    192.0736   1.0186230525e+02   1.1526398425e+01    0.3440979    0.2114658   2.83  0.001227407    4.580    0.782
       179 -10.7783    146.7276    193.0288   1.0546643530e+02   1.4599017898e+01    0.2607313    0.1713928  36.60 0.0009686845    1.504    0.335
       180  -9.9789    131.1969    191.8489   1.0835497745e+02   1.7563234834e+01    0.1609942    0.1490283  22.22  0.000344503    1.323    0.244
       181 -10.5568     34.8596    191.3509   1.2693347081e+02   3.1409172141e+01    0.3033289    0.1143003  50.05  0.001567698    2.227    0.551
       182 -10.5617     66.6640    191.0878   1.2095172787e+02   2.7655473775e+01    0.2004176    0.1554721  46.50  0.000619356    1.375    0.273
       183 -10.7022     57.2073    190.2097   1.2267448611e+02   2.9037594589e+01    0.2750145    0.1678554  89.37 0.0009854741    1.488    0.328
       184 -11.7713    247.0714    190.6471   8.6530575631e+01  -3.3597759074e+00    0.4085366     0.163334  36.39  0.001095297    2.298    0.565
       185 -10.6714     16.8902    191.0477   1.3013016817e+02   3.3295454383e+01    0.1593485    0.1168479  69.26            0    1.131    0.116
       186 -10.7346    227.0953    189.3407   8.9710629368e+01   2.9750902310e-01    0.2079175    0.1795493 -27.49  0.000341208    1.319    0.242
       187 -12.4533     91.5808    188.9196   1.1584419821e+02   2.4571529663e+01    0.2656628    0.2027971  76.67 0.0005806137    1.167    0.143
       188 -10.3075     81.2416    189.1590   1.1791457254e+02   2.6037578101e+01    0.1928587    0.1492629  45.47 0.0005031793    1.350    0.259
       189 -11.5051    131.8428    186.6245   1.0745203088e+02   1.8410554113e+01    0.2331144    0.2075415 -83.85  0.000312078    1.171    0.146
       190 -11.1078      3.7239    187.8159   1.3223929342e+02   3.5109740459e+01    0.1671066    0.1249234  76.90 0.0003021249    1.118    0.106
       191 -10.2392    205.2066    187.0613   9.3230903737e+01   4.6433184332e+00    0.1911187     0.156657  16.22 0.0002297814    1.176    0.150
       192  -9.8738    221.0039    186.2552   9.0210288526e+01   1.8237920329e+00    0.1824429    0.1476961  31.48 0.0003676683    1.089    0.082
       193 -11.2539    105.0416    183.9248   1.1250032004e+02   2.3456806446e+01    0.3565466    0.3092968 -15.79  0.002189403    1.773    0.436
       194 -11.1688     15.9769    183.6184   1.2982575371e+02   3.4820639861e+01    0.3215099    0.1805369  83.86   0.00215254    1.400    0.286
       195 -10.2058     10.4132    185.7709   1.3095449773e+02   3.4912632684e+01    0.1792206    0.1444392  13.01  0.001355512    2.194    0.544
       196 -10.0069     77.2867    190.5702   1.1884376742e+02   2.6318231045e+01    0.1840155    0.1364595 -52.45  0.000710958    1.719    0.418
       197 -10.6898    226.2869    183.8124   8.8806588359e+01   1.1932575917e+00    0.2217754    0.1611667  44.42  0.001270955    1.360    0.265
       198 -11.1787    175.3820    183.4181   9.8243122134e+01   1.0897296033e+01    0.5332589    0.2131026  50.76  0.002101467    2.519    0.603
       199 -10.9157     55.4085    181.2835   1.2217355053e+02   3.1040904661e+01    0.3533466    0.1765559  84.20  0.001798605    2.229    0.551
       200 -11.2951     58.9851    182.0000   1.2153964921e+02   3.0452225394e+01    0.2565039     0.149834  48.02 0.0007114075    1.583    0.368
       201 -10.4457     60.2872    179.3177   1.2100852733e+02   3.0832403671e+01     0.199274    0.1386648 -68.73 0.0001808497    1.397    0.284
       202 -11.6769     29.0692    181.6175   1.2727192042e+02   3.3934455245e+01    0.3737414    0.3278235 -88.36  0.002965699    1.324    0.245
       203 -11.6766     32.4452    176.6413   1.2623766177e+02   3.4585697853e+01    0.3911139    0.2566665 -67.14  0.002069665    1.504    0.335
       204 -11.8574     79.6996    182.5770   1.1746907621e+02   2.7565255142e+01     0.304177    0.2686433 -42.92 0.0001524163    1.595    0.373
       205 -11.6774     79.6060    174.4368   1.1651054800e+02   2.9237097458e+01    0.3508555    0.2551993  73.77  0.001280867    1.247    0.198
       206 -11.5128    229.6384    180.5439   8.7584290477e+01   1.0285716332e+00    0.2719957    0.2515387 -86.42  0.001704456    1.594    0.373
       207  -9.9869    123.0086    182.5536   1.0863555142e+02   2.0722506880e+01    0.2033748    0.1169378  44.59 0.0006001726    1.584    0.369
       208 -10.0320     88.1677    182.1258   1.1570101218e+02   2.6425606577e+01     0.175773    0.1258643  79.60 0.0004226444    1.324    0.244
       209 -10.3574      4.1559    181.4356   1.3181390082e+02   3.6300275693e+01    0.3269196    0.1236961 -75.69  0.001896875    2.082    0.520
       210  -9.9781      6.2517    176.0411   1.3112150686e+02   3.7178038553e+01    0.1871865    0.1096666 -75.48 0.0008006052    1.437    0.304
       211 -10.4228    132.0177    180.0233   1.0639788064e+02   1.9619481727e+01    0.2199785     0.150455  73.28  0.001128619    1.727    0.421
       212 -10.1284    104.0177    178.0434   1.1190259963e+02   2.4787117587e+01    0.2069294    0.1579954  74.59 0.0007847848    1.244    0.196
       213 -10.6444    106.4824    175.5609   1.1103478685e+02   2.4884777186e+01    0.3336022    0.1614551  50.85   0.00156193    1.929    0.482
       214 -10.8875     91.9491    177.4797   1.1433298016e+02   2.6794045276e+01    0.1867582      0.15299 -81.08 -6.821408e-05    1.160    0.138
       215  -9.3907     70.7059    178.6923   1.1884280557e+02   2.9598077567e+01    0.1069304   0.09363994 -46.19 0.0003579771    1.585    0.369
       216 -10.9001     74.0456    177.0727   1.1797619485e+02   2.9474064991e+01    0.2100082    0.1983641  60.63 0.0004819752    1.320    0.242
       217 -11.6860     47.1201    177.0641   1.2340530610e+02   3.2887045098e+01    0.2769314    0.1653278  44.56 0.0006344293    1.655    0.396
       218 -10.2170    136.5666    176.2166   1.0484377713e+02   1.9520605518e+01    0.1766505    0.1288959 -40.65 0.0008084367    1.644    0.392
       219  -9.8347     68.8829    176.1093   1.1892282520e+02   3.0372289450e+01    0.1472391    0.1345132 -82.11 0.0003575122    1.268    0.211
       220 -10.9805     22.2513    175.4274   1.2809673048e+02   3.5851970545e+01    0.1996802    0.1394043  87.51 0.0003572377    1.082    0.076
       221 -10.7952     15.8542    175.4405   1.2930530494e+02   3.6449927043e+01    0.2578793    0.1993179 -18.13  0.001216231    2.598    0.615
       222 -10.0568    191.8196    174.2241   9.3340820326e+01   9.2123736578e+00    0.1888256    0.1497461  18.55   0.00043414    1.320    0.243
       223 -10.3631    159.8971    173.7011   9.9597723383e+01   1.5579545194e+01     0.264307    0.1734126  43.80 0.0003100769    1.387    0.279
       224 -10.1849    156.1869    173.8418   1.0038240158e+02   1.6271570125e+01    0.1952682    0.1723856  59.91 0.0002283694    1.089    0.082
       225  -9.6820      2.2006    173.8571   1.3173210322e+02   3.7946741319e+01    0.1253388   0.09984832 -82.25 0.0003798916    1.293    0.227
       226 -10.5740     98.1057    172.0837   1.1230592898e+02   2.6940770385e+01    0.2269508    0.1627645 -75.83 0.0009143654    1.384    0.277
       227 -10.2774    199.8503    171.7532   9.1317445895e+01   8.0243977806e+00    0.2011109    0.1669923  22.04 0.0003911799    1.154    0.133
       228 -10.2026    110.3807    171.1291   1.0955307144e+02   2.5134509250e+01    0.1776879    0.1181339 -76.25 0.0002946795    1.661    0.398
       229 -10.4309     63.3187    170.9595   1.1948816272e+02   3.2170306951e+01    0.2104872    0.1372048  56.68 0.0006037275    1.401    0.286
       230  -9.1702     41.4416    171.4933   1.2401673494e+02   3.4674827817e+01    0.1171312    0.0902731  84.31 7.408235e-05    1.009    0.009
       231 -11.7988     46.9899    166.4911   1.2239759659e+02   3.5094241593e+01    0.3666475     0.238823  69.72  0.002009873    1.376    0.273
       232 -10.1233     31.5800    169.9278   1.2584657228e+02   3.6047198612e+01    0.2159227   0.08713593 -70.45  0.001139143    2.070    0.517
       233  -9.5429    171.2983    175.3528   9.7593403923e+01   1.3062546975e+01    0.1379786    0.1058408   7.53 0.0002841122    1.694    0.410
       234 -10.1056    114.1137    168.7650   1.0838784990e+02   2.4982052142e+01    0.2107045    0.1657074  69.80 0.0006793948    1.220    0.180
       235  -9.5492     57.9882    170.0000   1.2048811396e+02   3.3045259226e+01    0.1779118   0.06411239  37.48 0.0007920658    2.871    0.652
       236  -9.3070     14.6378    169.2950   1.2910767815e+02   3.7797731668e+01    0.1173611   0.06024173  67.81 0.0002992817    1.708    0.415
       237 -10.1885      2.2348    168.6638   1.3141698433e+02   3.8975380493e+01    0.1642705   0.09645415 -66.92  0.000666866    1.633    0.388
       238  -9.7655    133.4154    168.4869   1.0420824226e+02   2.1598528361e+01     0.135658    0.1239597  67.15 0.0001205622    1.014    0.014
       239  -9.9612    121.7384    167.3848   1.0652482135e+02   2.3932436359e+01    0.1830651    0.1234894  37.52  0.000716628    1.561    0.360
       240 -10.9986     47.7607    182.0110   1.2373635694e+02   3.1809129733e+01    0.2348088    0.1809263  27.11  0.001031232    1.867    0.465
       241 -10.4522     75.5375    162.1092   1.1579904175e+02   3.2402872074e+01    0.2165443    0.1423708 -62.04 0.0005735573    1.475    0.322
       242 -10.6660     59.1405    165.8037   1.1977959619e+02   3.3784988346e+01    0.1838824    0.1362465  77.18 0.0004444683    1.166    0.142
       243 -12.2610     23.9655    164.0047   1.2686970079e+02   3.8024371158e+01     0.222489    0.1659776  74.59 0.0004149428    1.116    0.104
       244 -11.4025    141.1957    161.1512   1.0123283227e+02   2.1581146219e+01    0.2641438    0.2138242  52.55 0.0003537441    1.152    0.132
       245  -9.9873     32.9617    162.3002   1.2489021396e+02   3.7494361650e+01    0.1479817    0.1209797  84.22 0.0001780776    1.100    0.091
       246 -11.4239     35.9141    158.8621   1.2394875855e+02   3.7917324614e+01    0.5194093    0.1928868  54.29  0.002461174    2.734    0.634
       247 -10.1577     18.7349    160.7635   1.2765873074e+02   3.9182424900e+01    0.1548709    0.1205163 -88.41 0.0008325448    1.099    0.090
       248 -10.7545     45.5699    159.1859   1.2193372284e+02   3.6804811416e+01    0.2328978    0.2018107 -33.64  0.001324286    1.721    0.419
       249  -9.4769    149.1365    159.1873   9.9152679747e+01   2.0420037660e+01    0.1847398    0.1572396  79.17 0.0002782247    1.274    0.215
       250 -10.8504    107.9439    158.4073   1.0807049203e+02   2.8182001119e+01    0.3838644    0.2104772  41.46  0.001477761    1.821    0.451
       251 -11.2004    248.3611    157.6622   7.9699123635e+01   7.2534658775e-01    0.2605799    0.2039338  10.15  0.000752548    1.187    0.157
       252  -9.6107     66.4824    158.5227   1.1731709355e+02   3.4401181512e+01    0.1277174    0.1035032  83.74 0.0002757706    1.045    0.043
       253 -10.5851     11.9824    157.3266   1.2875257226e+02   4.0485208783e+01    0.2533716    0.1068273 -66.70 0.0006163367    1.975    0.494
       254 -11.8505     96.2896    153.6073   1.0991656173e+02   3.1126989062e+01    0.4320728    0.2716529 -59.11 0.0006320573    1.551    0.355
       255 -10.6608     52.1846    155.6638   1.2010848583e+02   3.6801376161e+01    0.2302315    0.1508207 -71.72 0.0007660452    1.328    0.247
       256  -9.8016    164.4944    155.4427   9.5141108322e+01   1.8044105107e+01    0.1434959    0.1338975  47.66 3.970025e-05    1.009    0.009
       257 -10.1586     71.0396    154.5425   1.1577785155e+02   3.4655982803e+01     0.184905    0.1486846 -80.19 0.0002890277    1.097    0.088
       258 -10.1030    113.3796    154.1282   1.0612295645e+02   2.8151377302e+01    0.1930872    0.1248089 -70.48 0.0009376777    1.703    0.413
       259 -10.7447     65.5855    152.1977   1.1669031127e+02   3.5893577257e+01    0.2010657    0.1850072  77.84 0.0002484267    1.180    0.153
       260  -9.5789    137.5033    151.4908   1.0021153894e+02   2.4237279844e+01    0.1417076    0.1337103  65.37 -0.0001096569    1.017    0.017
       261  -9.7554     51.9760    149.3246   1.1939565723e+02   3.8206671804e+01     0.166252    0.1375892  81.12 0.0004030267    1.068    0.064
       262 -10.1985    226.1785    148.6166   8.1572413333e+01   6.3696427166e+00    0.1973443    0.1210794  35.55 0.0003065116    1.612    0.380
       263  -9.5562     91.9518    147.9815   1.1000052780e+02   3.3038236799e+01    0.1578171    0.1396482  88.61            0    1.004    0.004
       264 -10.9830     36.0971    145.2641   1.2249798112e+02   4.0829883392e+01    0.2937986    0.1408911 -76.49 0.0006259585    1.789    0.441
       265 -10.7489      4.7477    143.4784   1.2918313752e+02   4.3958910641e+01     0.213045    0.1120119 -76.48 0.0002550582    1.439    0.305
       266  -9.9362     16.3055    143.0215   1.2665867295e+02   4.3143832101e+01    0.1421276   0.08073654 -77.34 0.0005955943    1.366    0.268
       267 -10.6950    132.3300    140.4085   9.9166573790e+01   2.7545548749e+01    0.2542235    0.2264068 -87.05 0.0004755956    1.146    0.128
       268  -9.8655     72.8410    140.1477   1.1326047954e+02   3.7590877064e+01    0.1687659    0.1465829 -53.29 0.0004155244    1.291    0.225
       269  -9.6709     65.9880    139.0444   1.1473424659e+02   3.8756394938e+01    0.1516287    0.1295004 -87.56 0.0009580607    1.015    0.015
       270 -10.5602     49.7757    136.6236   1.1827160736e+02   4.1274074927e+01     0.402213    0.1797485 -45.69  0.001755977    3.013    0.668
       271 -10.1418     34.7279    138.3609   1.2203174533e+02   4.2482510003e+01    0.2009792    0.1145607  71.08   0.00111092    1.835    0.455
       272 -10.9344     95.2593    136.4587   1.0721398255e+02   3.5060377468e+01    0.3104236    0.2898723  10.23   0.00187113    1.357    0.263
       273 -10.5178     24.1535    136.1744   1.2423042070e+02   4.3953083730e+01    0.1640876     0.112094  77.64 0.0005604208    1.320    0.243
       274 -10.4287     40.6167    133.5870   1.2006394762e+02   4.2946109111e+01    0.2708281     0.150718 -88.50  0.001222632    1.807    0.447
       275 -10.9728     28.5390    132.4189   1.2279582860e+02   4.4384174313e+01    0.2512042    0.1552253 -72.64  0.001003179    1.293    0.227
       276 -10.3487     26.0366    129.8033   1.2309009038e+02   4.5187991046e+01     0.182194    0.1539726  85.67 0.0004468795    1.126    0.112
       277 -10.4660     46.5712    131.5722   1.1835790308e+02   4.2763292633e+01    0.3326672    0.1305036  28.55  0.001276718    3.395    0.705
       278 -10.2149      9.9564    131.0776   1.2697722123e+02   4.6220351152e+01     0.165885    0.1273267 -83.53 0.0003416944    1.048    0.046
       279  -9.4080    122.2527    130.2924   9.9422068230e+01   3.1656589151e+01    0.1343288    0.1144019 -18.08 0.0001724136    1.485    0.327
       280 -10.1574     55.0422    136.2074   1.1695123699e+02   4.0756248216e+01    0.1684818    0.1442822 -89.46  0.001105804    1.050    0.048
       281  -9.3276    156.6992    127.2847   9.0674247871e+01   2.5215025180e+01    0.1483854     0.119229  88.98 0.0002233893    1.553    0.356
       282 -10.5170     91.1580    127.2193   1.0649271425e+02   3.7789870573e+01    0.2684068    0.2018596  23.33 0.0009800453    1.745    0.427
       283 -10.2029     30.1469    125.8193   1.2162262047e+02   4.5702156774e+01    0.1718699    0.1333258  85.70 0.0003306181    1.141    0.124
       284  -9.9381      3.5160    125.0184   1.2790170565e+02   4.7986902209e+01    0.1688856   0.08279038 -74.61 0.0003618535    1.514    0.339
       285  -9.6103     82.2024    124.4000   1.0823340980e+02   3.9806066596e+01    0.1917238    0.1193044  52.86  0.000950374    1.722    0.419
       286  -9.8833     39.4653    121.9883   1.1879234330e+02   4.5667134119e+01    0.1917764   0.09994606 -67.22  0.001019117    1.565    0.361
       287  -9.2123    123.4625    121.4260   9.7162488992e+01   3.3348929893e+01    0.1465137    0.1379958 -89.30 8.938101e-05    1.041    0.040
       288 -11.1856     67.7880    119.3914   1.1104821611e+02   4.2973317179e+01    0.4305184    0.1672112 -43.02  0.001533109    3.682    0.728
       289 -10.7168     18.9236    114.8241   1.2307135869e+02   4.9102893321e+01    0.2298201    0.1501033 -80.04 0.0007716852    1.223    0.182
       290  -9.9070     21.7200    121.3218   1.2315121587e+02   4.7436178888e+01    0.1637447    0.1333361 -83.68 0.0002630389    1.064    0.061
       291 -10.9375     19.7570    118.4280   1.2329568553e+02   4.8237293831e+01    0.3195615    0.1561092  34.85  0.001812461    2.355    0.575
       292 -10.7416     90.8339    116.7842   1.0447306913e+02   4.0199691879e+01    0.3384293    0.2198243  35.04  0.001674884    1.755    0.430
       293  -9.4547     54.9780    117.7359   1.1412712095e+02   4.4947386973e+01    0.1400729    0.1124769  39.79 0.0004158046    1.439    0.305
       294 -10.2100     10.7477    117.8803   1.2546695463e+02   4.9038542564e+01    0.1715632    0.1216932 -71.29 0.0006937591    1.132    0.117
       295  -9.6795     49.2031    115.9290   1.1535220324e+02   4.6015570860e+01    0.1697703   0.08660492 -66.83 0.0003553282    1.668    0.400
       296 -10.3609     60.0289    113.3987   1.1202825144e+02   4.5331448016e+01    0.2799765    0.1674321 -82.16 0.0009725432    1.896    0.473
       297 -11.1496      5.6043    113.6503   1.2628912414e+02   5.0315982674e+01    0.3241675    0.1673959  82.57 0.0009026501    1.925    0.480
       298 -11.2756      2.9442    107.9215   1.2635119386e+02   5.1734650042e+01    0.3227455    0.1965166  79.35  0.001556414    1.580    0.367
       299  -9.2509    120.3229    112.3230   9.5807162488e+01   3.5942972860e+01    0.1481168    0.1188661  -8.78 0.0007046831    1.680    0.405
       300 -10.5108     37.9958    111.9431   1.1769935990e+02   4.8083030860e+01    0.1817874    0.1460241 -73.53            0    1.009    0.009
       301 -11.0830     38.0088    108.5139   1.1716159378e+02   4.8858198256e+01    0.2404536    0.1908493  77.72 0.0007249107    1.289    0.224
       302 -10.3222     73.2806    111.5463   1.0808896342e+02   4.4019328808e+01    0.2368738     0.125256  43.66  0.001116683    2.050    0.512
       303  -9.7497    138.7384    115.6074   9.2046956203e+01   3.1487519705e+01    0.1975521    0.1426951  56.88 0.0002687949    1.462    0.316
       304 -10.2765     86.0977    109.8543   1.0425486423e+02   4.2516340869e+01    0.2791722    0.1609287  63.86  0.001180907    2.480    0.597
       305 -10.7275     20.5633    109.4437   1.2196513039e+02   5.0172037974e+01     0.258752     0.167841 -42.00  0.001593378    1.808    0.447
       306  -9.7314     65.4628    109.1883   1.0975865076e+02   4.5607690394e+01    0.1896393    0.1515562 -62.33 0.0003239571    1.092    0.084
       307  -9.9967     63.3649    105.6720   1.0964762539e+02   4.6678892669e+01    0.2539763    0.1666202 -88.37 0.0008938093    1.860    0.462
       308 -11.5309    112.7820    105.0430   9.5969028812e+01   3.8984104799e+01    0.2437178    0.2314293 -49.64  0.000234166    1.044    0.042
       309  -9.8007      8.9989    106.4508   1.2462313087e+02   5.1670583291e+01     0.187393    0.1298843  87.31  0.001261624    1.288    0.223
       310 -10.5641      9.3368    100.9134   1.2385872978e+02   5.2867491673e+01    0.3474829     0.182089 -74.79  0.001813549    1.471    0.320
       311 -10.1584     18.7721    103.3230   1.2162146285e+02   5.1673374568e+01    0.2185597    0.1499619  70.82 0.0007650155    1.567    0.362
       312  -9.8009    123.3310    102.8883   9.2669852726e+01   3.7384788209e+01     0.244539    0.1812017 -64.99  0.001155421    1.509    0.338
       313 -11.7908     52.1020    101.3892   1.1199037935e+02   4.9003760760e+01    0.4424573    0.3161026  18.20  0.001713787    1.874    0.466
       314 -11.8461     58.5622    100.0839   1.0988495059e+02   4.8545993326e+01    0.3495169    0.2477004  66.01 0.0003969323    1.697    0.411
       315 -11.1179     43.3612    102.4732   1.1466845617e+02   4.9696123034e+01    0.2853862    0.1727783 -58.74 0.0008787877    1.367    0.268
       316  -9.4368     29.4303    103.4318   1.1871782621e+02   5.0790191701e+01    0.1215919   0.09630267 -74.31 0.0001069538    1.024    0.024
       317 -10.9128    135.0073    100.9527   8.9198056304e+01   3.5359374525e+01    0.3226661    0.2143837 -36.86 0.0009770541    1.553    0.356
       318 -11.1325     70.6850    101.6634   1.0675401364e+02   4.6626870487e+01    0.2547743     0.210662 -50.02 0.0002471066    1.150    0.130
       319 -11.8277    149.8080    111.2528   8.8318234543e+01   2.9992731925e+01     0.258842    0.2522802 -62.21  0.000232957    1.026    0.025
       320 -11.1514     85.6004     97.8420   1.0164114985e+02   4.5300695747e+01    0.3771905    0.2824275 -45.52  0.001735265    1.269    0.212
       321 -12.9590    106.3373     97.6389   9.5811342639e+01   4.1806836126e+01    0.3127803    0.2951139  60.54 0.0006716845    1.117    0.105
       322  -9.5177     16.2384     98.6522   1.2166892894e+02   5.2897354984e+01    0.1160868   0.07416012  86.15 0.0005767448    1.566    0.362
       323 -11.0822     37.4595     97.9846   1.1555813748e+02   5.1292550083e+01    0.3383611    0.2193747 -63.74   0.00200605    1.242    0.195
       324 -10.8400     62.8117     96.0312   1.0780233756e+02   4.8938935857e+01    0.2100144     0.189453  66.42 0.0003537053    1.227    0.185
       325 -10.2298     23.5330     95.5657   1.1915321874e+02   5.3039290278e+01    0.3358355    0.1635837  77.92  0.001441018    3.392    0.705
       326  -9.8960      1.4689     92.5062   1.2496457856e+02   5.5182489417e+01    0.1974179   0.08652358 -84.16 0.0007069412    2.131    0.531
       327  -9.9468     54.4290     92.5163   1.0952116928e+02   5.0747678387e+01    0.1308939    0.1098899 -66.17 0.0002988601    1.047    0.045
       328 -11.3889      6.6710     90.1430   1.2318676143e+02   5.5400189338e+01    0.4085107    0.2179407  61.53  0.002255474    2.367    0.578
       329  -9.9714    105.9581     91.2986   9.4232133751e+01   4.3251708919e+01     0.198194    0.1851122  49.88 0.0003007225    1.138    0.121
       330 -10.7037    115.7713     90.4059   9.1301045718e+01   4.1557794057e+01    0.3436391     0.189292  45.36  0.001454049    1.903    0.475
       331 -10.3819     88.3479     89.0868   9.8649458364e+01   4.6802073127e+01    0.2355929    0.2032638  12.59 0.0009720176    1.371    0.271
       332 -10.1575     66.9994     88.7702   1.0490528815e+02   5.0027342214e+01    0.1749739    0.1693272 -72.76 0.0004450535    1.118    0.106
       333 -10.3895     63.6333     86.9142   1.0548239337e+02   5.0881004590e+01    0.2030777    0.1965318  21.43 0.0006179953    1.202    0.168
       334  -9.7370     77.7806     88.0319   1.0149139879e+02   4.8676544185e+01    0.1846898    0.1023354 -53.69 0.0003250945    1.614    0.380
       335 -10.9410     27.3345     86.9743   1.1658879155e+02   5.4652066978e+01    0.3909317    0.1063266 -69.61  0.001364408    3.851    0.740
       336 -10.1888     21.0474     88.2556   1.1869862038e+02   5.4856465716e+01    0.1534311    0.1285515 -70.06            0    1.079    0.073
       337 -10.3918    120.6051     85.8387   8.8703486510e+01   4.1535045948e+01     0.212112    0.1368877 -53.66 0.0003750891    1.629    0.386
       338 -11.6517     48.9701     84.6539   1.0947397853e+02   5.3121955168e+01    0.3993205     0.246366 -26.77  0.002020769    2.219    0.549
       339 -10.0131     53.5137     82.4844   1.0756276126e+02   5.3096559488e+01    0.1955675     0.101741 -49.34 0.0007421612    1.641    0.391
       340 -10.7467      9.4190     85.5765   1.2173300618e+02   5.6234729621e+01    0.2086427    0.1620121  85.54 0.0005812315    1.302    0.232
       341 -10.0040    128.8248     85.6315   8.6480605791e+01   3.9846880916e+01     0.224469    0.1437166  58.55 0.0009582461    1.813    0.449
       342 -10.1913     98.3641     84.0947   9.4385880331e+01   4.6176740661e+01    0.2155149    0.1951055  10.56 0.0004941972    1.230    0.187
       343 -11.5099     42.4051     80.3982   1.1059284875e+02   5.4751083266e+01    0.3138186    0.2201427 -61.35   0.00188438    1.186    0.157
       344 -10.3244     20.0770     82.0653   1.1793486911e+02   5.6296411882e+01    0.1779401    0.1402266 -66.89 0.0003856978    1.026    0.026
       345 -10.3871    133.1237     82.7018   8.4511195928e+01   3.9497886893e+01    0.2445809    0.2090736 -60.89 0.0009154953    1.262    0.207
       346 -10.1651     73.6130     79.1925   1.0044707010e+02   5.1220826432e+01    0.2011706     0.111399 -43.88 0.0009423167    1.654    0.395
       347 -10.2030     67.9659     78.8112   1.0210842359e+02   5.2093842785e+01    0.2007895    0.1631997 -32.22 0.0004914918    1.255    0.203
       348 -10.2045     77.0005     80.6782   9.9802728727e+01   5.0403132036e+01    0.2323429    0.1706175 -39.10 0.0007310761    1.304    0.233
       349 -11.4614     53.2403     75.4770   1.0595102797e+02   5.4668559664e+01    0.3931643    0.2558835 -66.69  0.002129897    1.539    0.350
       350  -9.9938    110.7874     77.6425   8.8962908517e+01   4.5194687902e+01    0.1957243    0.1397671  54.13  0.000393633    1.571    0.364
       351 -10.1483     17.7203     75.6158   1.1751201405e+02   5.7876743789e+01    0.2840061    0.1200759 -75.08  0.001321788    2.418    0.587
       352  -9.3351     98.6756     76.6721   9.2142481101e+01   4.7683029190e+01    0.1479375    0.1112176 -11.27 0.0005026828    1.696    0.410
       353 -10.4103     28.6207     74.7515   1.1381529603e+02   5.7245821716e+01    0.2997644    0.1148358 -48.69 0.0009773704    2.164    0.538
       354  -9.9980      3.7638     75.9821   1.2198896067e+02   5.8646591589e+01    0.1720543     0.109256 -68.30 0.0006407062    1.167    0.143
       355 -10.7033    141.1466     73.8963   7.9817516241e+01   3.9381428868e+01    0.2641228    0.2307819   4.37 0.0002443495    1.255    0.203
       356 -10.9884     80.6143     74.0280   9.6822160125e+01   5.1277558767e+01    0.2220353    0.2026493  31.83 0.0002992552    1.217    0.178
       357 -10.9436     59.0104     73.4966   1.0356466983e+02   5.4408782695e+01     0.311973    0.2436833  69.86  0.001789221    1.697    0.411
       358 -10.7506     58.2826     69.5203   1.0272977786e+02   5.5351745024e+01    0.2297714    0.1925123 -46.88 0.0004880439    1.013    0.013
       359  -9.9315     37.0077     71.5312   1.1033641684e+02   5.7215341411e+01    0.1633882    0.1253854  19.50  0.001036497    1.615    0.381
       360 -10.1418    118.0034     69.7041   8.4489950461e+01   4.5306399201e+01    0.1988767    0.1881683  21.30 0.0002950751    1.082    0.076
       361 -10.2168     80.0040     69.6459   9.5717544042e+01   5.2290037862e+01    0.2161721    0.1623465 -45.10 0.0001164182    1.189    0.159
       362 -12.1401     52.6006     68.2798   1.0428873287e+02   5.6294850714e+01    0.4253331    0.2714922 -47.82  0.001875598    1.311    0.237
       363 -10.8755      2.4102     70.2011   1.2149475050e+02   5.9960861255e+01    0.1643094   0.08712563 -78.86 0.0009499701    1.689    0.408
       364  -9.8454     87.8376     69.3532   9.3180648321e+01   5.1081811505e+01    0.1867214    0.1314063  25.95 0.0003825221    1.667    0.400
       365  -9.4649     69.2944     73.6838   1.0029706916e+02   5.3017793574e+01    0.1295995     0.103266 -85.38 0.0005943472    1.603    0.376
       366 -10.7972     45.1037     68.8018   1.0695171996e+02   5.7006719131e+01    0.2854192    0.1373785 -55.02  0.001037423    1.689    0.408
       367 -10.9269     17.0272     66.6803   1.1600120439e+02   5.9858545882e+01    0.3025581    0.1667917  50.42  0.001087351    2.530    0.605
       368 -11.3278     22.3498     67.8139   1.1443401062e+02   5.9239962878e+01    0.2374633    0.2022332  61.53 0.0003584077    1.463    0.317
       369 -10.4409     21.2446     63.0135   1.1376472607e+02   6.0349287088e+01    0.2348119    0.1347167 -63.43  0.001375632    1.408    0.290
       370  -9.3295    127.2859     66.6681   8.1024425732e+01   4.3882544547e+01    0.1507842    0.1190389 -69.93 0.0003600481    1.619    0.382
       371  -9.6265     75.4605     66.5129   9.6219886518e+01   5.3633665353e+01     0.137773    0.1206106 -38.05 5.502276e-05    1.012    0.012
       372 -10.0615    101.6015     63.9519   8.7288981397e+01   4.9696628996e+01    0.2342249    0.1954949  15.39   0.00062722    1.316    0.240
       373 -11.3574      9.5171     62.8498   1.1779846520e+02   6.1145746498e+01    0.2223238    0.1840262 -26.53 0.0009051706    1.384    0.277
       374 -11.7230      5.0287     59.6082   1.1872077302e+02   6.2079001582e+01    0.3747627     0.232169 -16.92  0.001542715    2.072    0.517
       375  -9.9106     73.8391     61.1637   9.5082199340e+01   5.4966558455e+01    0.2082975    0.1516892 -16.84 0.0005277306    1.590    0.371
       376 -10.7962     69.0370     60.8142   9.6569462922e+01   5.5737472755e+01    0.3856075     0.219635  30.95  0.001353855    2.041    0.510
       377 -10.3841     39.3274     60.6630   1.0681475041e+02   5.9318728897e+01    0.2290527      0.17115 -54.03 0.0008489615    1.113    0.101
       378 -10.1445     31.2722     58.9826   1.0924342045e+02   6.0409973222e+01    0.1742789    0.1413962 -67.04 0.0003540111    1.228    0.186
       379  -9.5634     31.7164     48.0164   1.0605089949e+02   6.2628809851e+01    0.1418424    0.1185765 -39.14 0.0005923812    1.074    0.069
       380 -11.0443     21.8750     57.0411   1.1214837790e+02   6.1565955848e+01    0.3214028    0.1959125  41.19  0.000938126    2.141    0.533
       381 -10.8376     27.5469     56.9630   1.1006963518e+02   6.1144471831e+01    0.1846845    0.1483214 -29.42 0.0004558863    1.268    0.211
       382 -11.2041     30.1198     53.0391   1.0808379031e+02   6.1744715296e+01    0.4491112    0.2901803 -16.37  0.002640404    1.903    0.475
       383 -10.4285     47.5832     58.6601   1.0332831654e+02   5.8881535547e+01    0.2129118    0.1571599  29.57 0.0006245837    1.601    0.375
       384  -9.6633    110.6863     57.3008   8.2409983241e+01   4.9152535717e+01    0.1417419     0.116862 -75.09 0.0004152712    1.611    0.379
       385 -11.1707    225.8641     55.7658   5.8295185185e+01   2.1051575887e+01    0.2425277    0.2142498 -40.95 0.0002849764    1.075    0.070
       386  -9.9447    137.4991     55.9377   7.4870248305e+01   4.3451094884e+01    0.2315221    0.1479278 -32.13  0.000835027    1.555    0.357
       387 -10.2425     79.1663     55.5917   9.1493158495e+01   5.5242461822e+01    0.2716666   0.09232466 -46.65 0.0009886698    2.740    0.635
       388 -10.3802     52.5025     55.9152   1.0076011136e+02   5.8883462472e+01    0.2003582    0.1090681 -50.37 0.0005470808    1.555    0.357
       389 -11.6200     41.7911     52.1570   1.0349995468e+02   6.0828450528e+01    0.3705361    0.1796504 -47.42  0.001849304    1.649    0.393
       390  -9.8224     60.9399     51.7353   9.6422089018e+01   5.8659795789e+01    0.1769295    0.1555237 -24.29  0.001085248    1.072    0.068
       391  -9.5717     53.6240     52.1828   9.9184761729e+01   5.9499636885e+01    0.1795286   0.09909382 -40.97  0.000111364    1.557    0.358
       392 -10.8012    174.0565     50.3447   6.5136656865e+01   3.5189750389e+01    0.2578321    0.2161654 -38.35 0.0002819585    1.199    0.166
       393  -9.8607     82.6742     51.3079   8.8859396021e+01   5.5482101090e+01    0.1304212    0.1097871 -77.73 0.0004720457    1.652    0.395
       394 -10.9807     65.8290     50.2813   9.4207628511e+01   5.8272749157e+01    0.2865533    0.1977938 -55.23  0.001478075    1.552    0.356
       395 -10.9927      4.3854     36.8378   1.1379146083e+02   6.6776410970e+01    0.4883541    0.1664606 -64.78  0.002305349    2.583    0.613
       396 -11.7978     11.4941     39.6066   1.1162644858e+02   6.5825118346e+01    0.3936649     0.291572 -19.71   0.00272753    1.443    0.307
       397 -11.3993     13.2471     50.4588   1.1374298339e+02   6.3519343181e+01    0.2289784    0.1820265  26.99  0.000840449    1.620    0.383
       398 -11.9892     12.3918     46.4487   1.1307737665e+02   6.4393684288e+01    0.3118798     0.242844  86.73 0.0005039456    1.667    0.400
       399 -11.1294     17.2520     46.5532   1.1121964161e+02   6.4057348750e+01    0.2218335    0.1489469 -40.39  0.000603278    1.261    0.207
       400 -11.1900     95.1210     49.4222   8.4230014000e+01   5.3623128436e+01    0.4330671    0.2941747  31.30  0.000889858    1.595    0.373
       401 -11.0736     73.7974     49.9850   9.1353028022e+01   5.7154408723e+01    0.2135279    0.1616817 -24.11 0.0008343026    1.269    0.212
       402  -9.7446    152.8836     48.3575   6.8768940528e+01   4.0919687083e+01    0.2279877    0.1282601  44.93 0.0005682133    1.786    0.440
       403 -10.5743    122.9629     46.3571   7.5186219290e+01   4.8393802811e+01     0.317401     0.203387 -35.99 0.0008590611    1.529    0.346
       404 -11.0404    128.4417     51.1471   7.5476341882e+01   4.6363917717e+01    0.3649322    0.2422582 -16.36 0.0005550117    1.745    0.427
       405  -9.9659    114.3456     47.0394   7.7746046341e+01   5.0173991288e+01    0.2054228    0.1703261 -26.22 0.0003569585    1.156    0.135
       406 -11.1243     61.8500     44.9083   9.3741005987e+01   5.9845578042e+01    0.3046831    0.1936832 -26.85 0.0003916919    1.581    0.367
       407 -11.6640     69.6421     42.6423   9.0135848558e+01   5.9142445747e+01     0.491357    0.1961339 -34.57  0.001535859    2.554    0.608
       408 -10.0032     33.9355     44.3100   1.0406438734e+02   6.3166259782e+01    0.1686055    0.1445875  54.17   0.00114047    1.604    0.377
       409  -9.7686     25.6103     43.8301   1.0718163143e+02   6.3984094538e+01    0.1818057   0.09593608 -55.09 0.0003723881    1.524    0.344
       410 -10.7648     21.5186     40.8583   1.0792730657e+02   6.4892757754e+01    0.4160676    0.1801682  23.43  0.001762309    2.819    0.645
       411 -10.7080    141.4973     42.3590   6.9229288295e+01   4.4655982393e+01    0.2466672    0.2347209  23.95 0.0001967076    1.014    0.013
       412 -10.3735     80.9297     43.1005   8.6442122328e+01   5.7261570516e+01    0.2015442    0.1756582 -18.86 0.0003299718    1.012    0.012
       413  -9.9269     56.9402     41.2675   9.4226513661e+01   6.1180172292e+01    0.1708323    0.1495823 -17.41   0.00041395    1.086    0.079
       414 -10.6692    129.9237     37.3039   7.0128894587e+01   4.8183185714e+01    0.6612898    0.3132724  31.12  0.002272478    3.107    0.678
       415 -11.5687    103.6316     38.9995   7.7776369811e+01   5.3719844977e+01    0.2475363     0.232293 -31.64 0.0003734254    1.148    0.129
       416 -10.2018    116.2846     38.5620   7.4074432157e+01   5.1106054262e+01    0.2675235    0.1439578  56.91  0.001127005    2.075    0.518
       417 -10.3232     86.2095     37.2162   8.2440990257e+01   5.7345778031e+01    0.2051586    0.1687282  -7.64 0.0006198452    1.156    0.135
       418 -11.8741    193.8837     35.2793   5.7086776571e+01   3.2099865403e+01     0.254996    0.2467004 -68.00 0.0002743204    1.024    0.023
       419  -9.8676     72.3309     36.2959   8.6761225385e+01   5.9841257757e+01    0.1355262   0.09464123  -4.34 0.0004698134    1.637    0.389
       420  -9.9496    209.2519     34.9925   5.4799138441e+01   2.8117055953e+01    0.1914053    0.1233997 -29.23 0.0008799316    1.551    0.355
       421 -11.1615    119.2165     34.1924   7.1643237306e+01   5.1102970106e+01    0.3485432    0.2842902 -73.02  0.001047211    1.667    0.400
       422 -11.3345     41.5642     38.1856   9.9020692997e+01   6.3583889639e+01    0.3007857    0.1841154 -17.86 4.172646e-05    1.922    0.480
       423 -10.2116     56.3280     34.2554   9.1812329811e+01   6.2525130947e+01    0.2854998    0.2045451  75.90   0.00133235    3.387    0.705
       424 -11.1754    141.1607     32.6562   6.5842373490e+01   4.6121960124e+01     0.555207    0.3812042  32.47  0.002616526    1.548    0.354
       425 -10.0841    147.5291     29.5389   6.3375370793e+01   4.4943855427e+01    0.2116143    0.1459302  75.21 5.128644e-05    1.696    0.410
       426 -10.6912    112.9046     33.4842   7.3038822318e+01   5.2604615651e+01    0.2552977    0.1863512 -43.51 0.0006406814    1.500    0.333
       427 -11.6599     77.4040     33.1610   8.3752567570e+01   5.9536154329e+01    0.3082962    0.2483883  59.41  0.001224621    1.711    0.416
       428  -9.7728     66.2802     33.3712   8.7758743155e+01   6.1268593733e+01    0.2377294    0.1025312 -40.74 0.0007871487    2.075    0.518
       429 -10.0200     60.5595     34.0223   9.0125604009e+01   6.1987232436e+01    0.2035869    0.1101626 -40.15  0.001032972    1.613    0.380
       430 -10.4043     29.2713     34.0686   1.0256521703e+02   6.5566707946e+01    0.1748096    0.1531581 -19.48  0.000465896    1.180    0.153
       431 -10.9764     86.5694     32.7671   8.0548858670e+01   5.7995625368e+01    0.3097916    0.2000084  54.85  0.001542567    1.960    0.490
       432 -11.6467    107.3179     29.3968   7.2957820183e+01   5.4394750612e+01    0.4058288    0.2823808 -15.00 0.0004599704    1.468    0.319
       433 -10.2800    206.6774     31.5314   5.4152327710e+01   2.9227912403e+01    0.2552134     0.133741  61.10  0.000827832    1.830    0.454
       434  -9.3685    134.2837     31.5866   6.6990787189e+01   4.7947078591e+01    0.1534271    0.1089916 -58.04 0.0002599511    1.813    0.449
       435  -9.8161     45.5025     31.5469   9.4990064541e+01   6.4356662990e+01    0.2052961    0.1123547  15.34  0.001025834    2.431    0.589
       436 -10.8183     33.7722     30.5281   9.9416226891e+01   6.5800683720e+01    0.2450229    0.1855916 -20.95  0.001637022    1.209    0.173
       437 -10.3037    159.0188     29.9654   6.1266291765e+01   4.1950638613e+01    0.2171288    0.2120936  37.29            0    1.018    0.018
       438  -9.8525     24.2878     30.6437   1.0347565202e+02   6.6637901438e+01    0.1063668   0.08712261 -75.10 0.0007024367    1.677    0.404
       439  -9.7837     51.1964     29.0898   9.1747966693e+01   6.4088961801e+01      0.14912    0.1329178 -37.17 0.0002976242    1.255    0.203
       440 -11.4775     77.9658    248.2699   1.2386518145e+02   1.6127285826e+01    0.2663469    0.1545952  89.95 0.0007477993    1.798    0.444
       441 -10.7836     99.0138     27.2430   7.4454186660e+01   5.6423943800e+01    0.3170352     0.206087  40.50   0.00161141    1.517    0.341
       442  -9.8335     75.6837     27.7074   8.2091109351e+01   6.0689213782e+01    0.1344729   0.09336344   2.07 0.0003839639    1.599    0.375
       443 -11.1963    243.0003     25.3470   4.8253242796e+01   2.0864751535e+01    0.2377711    0.1876287 -35.21 0.0003436399    1.214    0.176
       444 -11.8157      1.9191     25.3942   1.1159935562e+02   6.9118015205e+01    0.2634332    0.1249223 -59.48  0.001556477    1.683    0.406
       445 -11.0418    131.4792     22.9412   6.4383152028e+01   4.9740194413e+01    0.4461952    0.2477213 -18.78  0.001107183    1.943    0.485
       446 -10.0013     90.3716     25.1668   7.6198944597e+01   5.8421875179e+01    0.1942455    0.1154326 -38.48 0.0009473996    1.716    0.417
       447 -10.0794     45.8592     24.8057   9.2132484758e+01   6.5477858956e+01    0.1554095    0.1428557 -41.49  0.001077874    1.360    0.265
       448 -10.9277    175.7334     23.1934   5.6121221674e+01   3.8401757788e+01    0.3456485    0.2288124  35.16  0.001479822    1.687    0.407
       449 -10.0583     60.7063     23.6888   8.5792602625e+01   6.3670610960e+01    0.2282663    0.1622438 -32.35  0.001358815    1.244    0.196
       450 -11.4728     10.1027     23.4089   1.0723788078e+02   6.9020121938e+01    0.2247751    0.1521202 -51.24  0.000578916    1.209    0.173
       451 -11.9561     75.6959    240.5673   1.2365279620e+02   1.7638026644e+01    0.4145368    0.2727694  75.31  0.002101567    1.298    0.230
       452 -10.9876    221.8977     22.5980   4.9772601088e+01   2.6401683761e+01    0.2501366    0.1880612 -41.18 0.0002722661    1.274    0.215
       453  -9.7759    153.3203     23.3191   6.0035328351e+01   4.4241905967e+01    0.1567821    0.1045398  30.09  0.000535677    1.665    0.400
       454 -12.1166    117.4360     22.6302   6.7582425404e+01   5.3071565731e+01    0.3533018    0.2409338  41.22 0.0005248727    1.396    0.284
       455 -11.2506    190.2176     20.5090   5.3130731340e+01   3.4881167669e+01    0.2771842    0.2471649 -10.62 0.0003158454    1.223    0.183
       456 -10.1167    101.8500     22.1672   7.1534990875e+01   5.6532438931e+01    0.1899897     0.178253 -10.31 0.0003539226    1.129    0.114
       457  -9.5893     78.8030     22.1469   7.8642378662e+01   6.0979268385e+01    0.1784035    0.1345392   0.44 0.0002268039    1.288    0.223
       458 -11.6681    151.0828    245.6788   1.1164586636e+02   5.7291101033e+00    0.3441858    0.2502228   5.09  0.001011442    2.396    0.583
       459 -10.5245     37.5613     21.1245   9.4069616627e+01   6.7051771010e+01    0.2937979    0.1825503  11.34  0.001726712    1.864    0.463
       460 -10.7867     33.2158     18.2109   9.4724250428e+01   6.8000979094e+01    0.2836697    0.1971036 -65.36  0.001033124    2.530    0.605
       461 -10.7625     91.9959     18.8649   7.3004068943e+01   5.8963012411e+01    0.3526346    0.2641602  49.43  0.001982027    1.436    0.304
       462 -10.1966    198.8939     18.2349   5.1293962387e+01   3.2852650098e+01     0.250859     0.142822  43.81  0.001090944    1.939    0.484
       463 -10.6969    174.0372     18.3241   5.4808549333e+01   3.9407497683e+01    0.2027426    0.1812187  68.16 0.0004099942    1.068    0.064
       464 -11.5683    146.0329    243.1771   1.1221296150e+02   6.8708696720e+00     0.345576    0.2180503 -47.43  0.001737174    2.099    0.524
       465  -9.9227     74.7754     12.8557   7.5819313252e+01   6.2947157984e+01    0.1879418    0.1704506 -29.53 0.0006157224    1.315    0.240
       466 -10.8190     58.8341     17.7894   8.3887678700e+01   6.4842990044e+01    0.2897764    0.1984211  18.52 0.0008717539    1.506    0.336
       467 -10.5215    148.9962    239.4928   1.1128606515e+02   6.9102032790e+00     0.214299    0.1648884 -58.61 0.0005410998    1.659    0.397
       468 -10.5829    115.3376     16.3270   6.5560180831e+01   5.4310335035e+01     0.496704    0.2134511  32.33  0.001787601    3.059    0.673
       469 -10.5021    112.3969     15.7159   6.6039609817e+01   5.5044123393e+01    0.2703487    0.2162139  21.38 0.0002891702    1.188    0.158
       470 -11.1594    136.5829    246.6954   1.1418392715e+02   7.8643138239e+00    0.1739798    0.1359691 -82.87 0.0008396929    1.566    0.361
       471 -10.4732    148.4870     12.9691   5.7245306019e+01   4.6636920458e+01    0.2783222    0.1740278  46.44 0.0006871303    1.499    0.333
       472 -11.6862     98.9973    245.4860   1.2027308469e+02   1.3657717821e+01    0.4358267    0.1812284  57.29  0.002366506    2.121    0.528
       473 -11.6755    200.3640    245.1761   1.0333031075e+02  -2.0879793981e+00    0.2016259    0.1669145  35.15 0.0003358283    1.124    0.110
       474 -11.6824    199.1590    240.3151   1.0286371541e+02  -1.3371277577e+00    0.4578712    0.1629797  45.75  0.001177812    2.299    0.565
       475  -9.8678    163.2784    246.3436   1.0967676682e+02   3.7009089142e+00    0.1064449   0.07908113  20.71 0.0007006809    1.628    0.386
       476 -12.3287     62.8952    243.5436   1.2589962728e+02   1.8817127713e+01    0.2008827    0.1526438  71.87 0.0005622981    1.125    0.111
       477 -10.7692    181.0609    243.2792   1.0630598900e+02   1.2295133327e+00    0.1931121    0.1422447  16.68 0.0008176698    1.577    0.366
       478 -11.6263     91.9582    242.6994   1.2118402869e+02   1.5081618507e+01    0.2789268    0.1831757  48.31  0.001454435    1.277    0.217
       479  -9.9926      7.8845     10.7059   1.0353626311e+02   7.1424817352e+01    0.1287252   0.09106452  25.26 0.0004230998    1.800    0.444
       480  -9.9566      2.3913     10.8356   1.0635351325e+02   7.1742883751e+01    0.1719868   0.07336817  20.55 0.0009968595    2.794    0.642
       481 -11.1695    129.9854    242.2502   1.1482106247e+02   9.5194974439e+00    0.2013554    0.1565938 -89.77  0.001451972    1.481    0.325
       482  -9.8511    246.1883    241.7827   9.5377645096e+01  -8.7813928927e+00    0.1509714   0.09624508  20.02 0.0002466198    1.291    0.226
       483 -11.5127    122.7263    241.2615   1.1594183539e+02   1.0782086851e+01     0.344868    0.1360701  42.79  0.001783892    2.047    0.511
       484 -11.4666    102.5092    240.3488   1.1923951646e+02   1.3939723740e+01     0.262486    0.1640729  45.35 0.0003557992    1.361    0.265
       485 -10.3583     54.6978    240.2026   1.2696332189e+02   2.0369627283e+01    0.1858299   0.09301282  89.32 0.0009049692    1.982    0.496
       486 -10.9260    168.0112    238.6949   1.0793443877e+02   3.9348746431e+00     0.198108    0.1733359 -54.00 0.0006595083    1.486    0.327
       487 -11.4613    142.0114    238.6901   1.1238829830e+02   8.1416936742e+00    0.4131693    0.1855792  47.92  0.001483236    1.733    0.423
       488 -10.4031     87.3344    231.3417   1.2097986802e+02   1.7548584774e+01    0.2345738    0.1127123  65.84 0.0005202928    2.134    0.531
       489 -11.4304     96.8089    239.0068   1.2006672133e+02   1.4971679346e+01    0.2486666    0.1653374  70.26  0.001722844    1.331    0.249
       490 -10.7821     92.7633    233.0982   1.2021807127e+02   1.6493773833e+01    0.5253037    0.1370388  53.83  0.002063557    3.812    0.738
       491 -10.0686    161.9927    238.9913   1.0900183215e+02   4.8767039088e+00    0.1862736    0.1215365  62.59  0.001135922    1.711    0.415
       492 -10.3422    116.1624    238.6835   1.1678984660e+02   1.2168468645e+01    0.1872608    0.1080667  56.15 0.0006820703    1.407    0.289
       493 -10.7070    109.9610    238.9246   1.1785954277e+02   1.3062858288e+01    0.2044148    0.1385493  55.65 0.0003546141    1.123    0.109
       494 -10.3997    106.0449    235.3770   1.1818033452e+02   1.4197049481e+01    0.2135622    0.1382499  87.92            0    1.746    0.427
       495 -10.3243    156.6251    238.1091   1.0981387452e+02   5.8695104694e+00    0.2006014    0.1250226  50.48 0.0005475592    1.303    0.233
       496 -11.4228     44.4404    236.7285   1.2834869457e+02   2.2160185214e+01    0.3561974    0.1409679  57.09  0.001554128    1.913    0.477
       497 -10.3951    191.4400    240.9265   1.0424582381e+02  -1.6284235609e-01    0.2051019    0.1895094  12.92  0.001592759    1.255    0.203
       498 -11.3197    218.5053    233.3876   9.8617027719e+01  -3.6574902885e+00    0.3580433    0.2171139   1.61  0.001479585    2.237    0.553
       499 -10.6253     83.7511    238.1299   1.2215015054e+02   1.6941776777e+01     0.203044    0.1268414  62.40 0.0005380813    1.246    0.198
