#   1 NUMBER                 Running object number                                     
#   2 MAG_AUTO               Kron-like elliptical aperture magnitude                    [mag]
#   3 X_IMAGE                Object position along x                                    [pixel]
#   4 Y_IMAGE                Object position along y                                    [pixel]
#   5 X_WORLD                Barycenter position along world x axis                     [deg]
#   6 Y_WORLD                Barycenter position along world y axis                     [deg]
#   7 A_WORLD                Profile RMS along major axis (world units)                 [deg]
#   8 B_WORLD                Profile RMS along minor axis (world units)                 [deg]
#   9 THETA_WORLD            Position angle (CCW/world-x)                               [deg]
#  10 FWHM_WORLD             FWHM assuming a gaussian core                              [deg]
#  11 ELONGATION             A_IMAGE/B_IMAGE                                           
#  12 ELLIPTICITY            1 - B_IMAGE/A_IMAGE                                       
         1 -15.5795      6.9958     69.8078   2.9224498399e+02   6.9392916631e+00   0.07734603   0.05013514 -61.42   0.00406624    1.569    0.363
         2 -15.3787    119.3281     54.7406   2.9082481167e+02   6.4266746077e+00   0.07301505    0.0470108  -0.47  0.001893307    2.042    0.510
         3 -15.3474    122.6908     36.7497   2.9067519411e+02   6.6121959069e+00   0.07088538   0.04560642  12.05  0.006211347    1.781    0.439
         4 -12.8071    187.3607     13.1238   2.8976689190e+02   6.4860537182e+00   0.04016986   0.02381431 -26.18  0.003580299    2.311    0.567
         5 -14.2218    189.4168     26.4976   2.8982447618e+02   6.3203727548e+00   0.08546807   0.04557906  75.61  0.005960248    4.064    0.754
         6 -12.4055    195.0818     23.4942   2.8973924731e+02   6.3199453618e+00   0.02865258   0.01680973 -65.10  0.002154724    1.797    0.444
         7 -15.1754     42.3035      8.2440   2.9145197506e+02   7.4298202601e+00   0.09295704   0.05671421 -49.19  0.005213661    1.653    0.395
         8 -13.6431      7.9244      3.5945   2.9183070328e+02   7.6923861335e+00   0.04557022   0.02674853  35.07  0.004473573    1.632    0.387
         9 -14.3549     25.1371     31.7928   2.9179881573e+02   7.2646563896e+00    0.0592594   0.03703206  66.63  0.005460925    2.213    0.548
        10 -15.2504      8.1765     29.4915   2.9198557335e+02   7.3942244684e+00   0.06557541   0.04443289  44.32  0.006841207    1.502    0.334
        11 -14.8379     14.0083     20.2483   2.9186019572e+02   7.4646446154e+00   0.05020063   0.03546704   9.45  0.003286663    1.585    0.369
        12 -15.1527     21.9849     13.3208   2.9172351019e+02   7.4954504932e+00   0.07013195   0.03263234  34.44   0.00618059    2.018    0.504
        13 -13.3477    139.4271     21.6409   2.9038507737e+02   6.6826943100e+00   0.03209744   0.02876323  45.31  0.002375245    1.121    0.108
        14 -15.0274    166.1750     30.3433   2.9012235821e+02   6.4190329229e+00   0.07320675   0.03528036  29.44  0.003816948    1.990    0.498
        15 -14.7076    146.0690     30.7697   2.9036242257e+02   6.5374590972e+00    0.0539427   0.02812489  27.00  0.004122419    1.886    0.470
        16 -13.3919    214.0154      9.8039   2.8943206815e+02   6.3601982860e+00    0.0520525   0.02996892  -1.62  0.004333966    2.706    0.630
        17 -13.6685    215.0975     20.5792   2.8948528531e+02   6.2302726740e+00    0.0356245   0.02027354 -53.99  0.002547642    1.740    0.425
        18 -14.2491    218.6920     15.0114   2.8940880437e+02   6.2718655724e+00   0.08325951   0.03003271 -43.27  0.005890433    3.390    0.705
        19 -15.7488     99.5606     12.8766   2.9080276997e+02   7.0271388301e+00   0.07658151    0.0426924  23.67  0.003004624    1.828    0.453
        20 -11.5262    201.9494     11.7081   2.8958606670e+02   6.4126031559e+00    0.0116637  0.008900046 -31.22 0.0004996242    1.442    0.307
        21 -11.4601    162.3013      8.9153   2.9003701128e+02   6.6880766701e+00   0.01612064  0.009319992  53.39   0.00147171    2.061    0.515
        22 -11.5647    126.0536      8.9658   2.9046561818e+02   6.9097416752e+00   0.01123038  0.007841473 -27.17  0.001136913    1.692    0.409
        23 -11.1439    153.8515      8.0963   2.9013181023e+02   6.7492925607e+00   0.01000352  0.008870176  56.94 0.0003520028    1.180    0.152
        24 -12.2465    121.4876      4.3820   2.9049156256e+02   6.9901775471e+00   0.02082607  0.008725896  41.77  0.001693234    2.405    0.584
        25 -12.0541    232.0824      2.1553   2.8917217326e+02   6.3365123993e+00   0.02201618   0.01435281  -2.63  0.001648083    2.033    0.508
        26 -12.3602     81.0478      1.8879   2.9095460901e+02   7.2661266897e+00   0.02905479      0.01126  20.76  0.002113798    3.114    0.679
        27 -11.2511     59.2492      2.0225   2.9121339898e+02   7.3977027935e+00   0.01353875   0.01130492 -81.13  0.001446177    1.315    0.240
        28 -10.9963     62.4824      1.5063   2.9117197742e+02   7.3838786907e+00   0.01196554  0.006470802  27.40 0.0007292622    1.809    0.447
        29 -11.2056     32.9927      1.4509   2.9152075048e+02   7.5643415877e+00   0.01005683  0.006455366  26.69 0.0003516883    1.530    0.346
        30 -12.7932     45.2427    197.5400   2.9256860507e+02   5.2408612554e+00   0.02265839   0.01504004 -64.27  0.002334646    1.561    0.359
        31 -14.7875     96.2316    236.6201   2.9220404939e+02   4.4815009499e+00    0.0973592   0.04695804  52.84  0.007808961    2.727    0.633
        32 -13.9051     27.8167    246.2376   2.9306893203e+02   4.7878741786e+00   0.03433064   0.03308043  73.50  0.003680283    1.077    0.071
        33 -12.6109     26.7237    236.7645   2.9302454873e+02   4.9032716206e+00   0.02458704   0.01416663  -0.65    0.0020625    2.630    0.620
        34 -11.7726      2.7591    249.9778   2.9338698923e+02   4.8972412641e+00    0.0171956   0.01096992  36.25  0.001745299    1.514    0.339
        35 -14.2846      8.9815    245.7259   2.9328794087e+02   4.9082513414e+00   0.04936701   0.03371862  50.16  0.003049625    1.571    0.363
        36 -12.6403     41.8628    201.1290   2.9263024239e+02   5.2202416594e+00   0.01494433   0.01421093 -85.75  0.001400657    1.100    0.091
        37 -13.4678     39.5047    195.1047   2.9262156693e+02   5.3037525290e+00   0.02433111   0.02313805  66.31  0.001807394    1.092    0.084
        38 -11.4215    213.1910    200.7223   2.9060771434e+02   4.1781304066e+00   0.01364381   0.01219028 -76.02  0.001625083    1.182    0.154
        39 -13.0602    164.7899    194.8075   2.9114192662e+02   4.5423374076e+00   0.03677602   0.02190756 -87.83  0.003219659    2.477    0.596
        40 -13.0544    201.8988    192.0281   2.9068776289e+02   4.3469981034e+00   0.03248502   0.02149662 -52.07   0.00234661    1.512    0.339
        41 -13.9304     30.0690    169.9371   2.9258039425e+02   5.6500862702e+00   0.04932005   0.03513439 -17.42  0.004189528    1.718    0.418
        42 -14.3242     22.4634    181.0699   2.9273768486e+02   5.5685652028e+00   0.04179715    0.0350495 -16.56  0.003733123    1.302    0.232
        43 -15.1986      8.4982    183.4721   2.9291712045e+02   5.6259015043e+00   0.06779989   0.06011544  21.62  0.008123004    1.114    0.102
        44 -15.6351     15.4496    175.3940   2.9278610619e+02   5.6763780151e+00    0.1320239   0.08594531  81.79   0.01194765    2.166    0.538
        45 -10.7877    107.5299    192.9808   2.9180600325e+02   4.9133426301e+00   0.01022429  0.006531739 -59.59  0.001023897    1.577    0.366
        46 -10.7515     81.2591    193.3922   2.9211843609e+02   5.0689628198e+00  0.009931093     0.005831  37.68 0.0009526663    1.647    0.393
        47 -11.8501    249.1911    193.8949   2.9014236120e+02   4.0357114836e+00   0.01469399  0.009598486 -57.70    0.0015035    1.534    0.348
        48 -12.9352     97.5394    188.1854   2.9189473730e+02   5.0293723338e+00   0.02238008   0.01641816  76.37  0.002331713    1.700    0.412
        49 -12.5247    231.3215    185.7917   2.9030329769e+02   4.2381637314e+00   0.01242516   0.01023571  22.89  0.001419624    1.203    0.168
        50 -12.5034    110.3892    183.0479   2.9171192618e+02   5.0098617491e+00   0.02453186   0.01354744  -2.60  0.001913514    3.073    0.675
        51 -12.8846     48.7209    180.9206   2.9242678713e+02   5.4104512519e+00   0.03151119   0.01743615 -53.16  0.002981154    1.786    0.440
        52 -11.7008    122.5612    181.8982   2.9156134824e+02   4.9486846953e+00   0.02313773   0.01166325  61.66  0.001706234    3.397    0.706
        53 -13.7872     86.7202    180.5676   2.9197613558e+02   5.1828297552e+00   0.04352873   0.01737792  43.63  0.003406736    2.653    0.623
        54 -12.7016    194.8668    176.9390   2.9067871100e+02   4.5630972373e+00   0.02174258   0.01635542 -74.10  0.002074998    1.458    0.314
        55 -10.5233    218.6722    177.3191   2.9040060560e+02   4.4128385728e+00  0.007094299  0.004979729  60.64 0.0007047015    1.683    0.406
        56 -12.6259    131.9226    173.1294   2.9139760041e+02   4.9920676364e+00   0.02126215   0.02044382  81.98  0.002642787    1.085    0.078
        57 -13.6088    124.0343    166.6325   2.9145113935e+02   5.1148313911e+00   0.03616926   0.02396412 -85.62  0.003531539    1.943    0.485
        58 -11.1109    177.4866    167.4939   2.9082600927e+02   4.7778751439e+00  0.006625115  0.006483188  22.60 0.0003621967    1.004    0.003
        59 -12.9605    239.0028    160.0000   2.9005561727e+02   4.4866517619e+00   0.02411431   0.01046476  21.64  0.001916957    2.578    0.612
        60 -13.2693     25.2983    156.9828   2.9255816890e+02   5.8278094355e+00   0.03025415   0.02329061  33.29  0.002777711    1.261    0.207
        61 -12.9915    111.6322    155.7683   2.9153140018e+02   5.3152749397e+00   0.02841378   0.01650609  64.60  0.002443649    2.520    0.603
        62 -12.7599     77.6312    157.2274   2.9194163284e+02   5.5061397468e+00   0.02113089   0.01650169  16.37   0.00120683    1.318    0.241
        63 -13.6303     73.9986    153.5490   2.9196217115e+02   5.5705120769e+00    0.0374643   0.02570084  18.90  0.002846351    1.516    0.340
        64 -12.7216    122.5913    155.4711   2.9140026197e+02   5.2517022569e+00   0.02397166   0.01780645 -48.86   0.00210637    1.362    0.266
        65 -12.1982     55.5875    156.0917   2.9219502507e+02   5.6535906232e+00   0.02177876   0.01353967   0.41   0.00158363    2.173    0.540
        66 -13.1178    208.3539    154.4084   2.9038249176e+02   4.7387444173e+00   0.03587815   0.02191567  26.82  0.003558411    1.610    0.379
        67 -11.8822     41.8126    154.5176   2.9234815272e+02   5.7555763059e+00   0.01537765    0.0098424  64.33  0.001447988    2.048    0.512
        68 -12.2460    103.5214    149.8092   2.9159088389e+02   5.4332009186e+00   0.01871113    0.0137119 -36.18  0.001534274    1.477    0.323
        69 -12.6702      6.4486    148.0458   2.9272664333e+02   6.0450178085e+00   0.02475073   0.02076663 -82.11  0.002857435    1.307    0.235
        70 -12.2510    244.3756    147.2157   2.8991436393e+02   4.6001751685e+00   0.01752306   0.01201005 -63.64  0.001831539    1.506    0.336
        71 -12.4518     85.8065    153.3681   2.9182165573e+02   5.5005373510e+00   0.02799636   0.01696718 -43.01  0.002730637    1.755    0.430
        72 -11.2687    155.3951    157.6072   2.9102627450e+02   5.0265278432e+00   0.01407052  0.004149555  40.43 0.0009565749    3.310    0.698
        73 -11.7133     44.7002    145.2607   2.9225784007e+02   5.8442272123e+00   0.01193888   0.01062523  10.21 0.0005506579    1.142    0.124
        74 -11.7616     38.6126    145.6851   2.9233232963e+02   5.8764330304e+00   0.01190455     0.010024 -23.17 0.0007276268    1.280    0.219
        75 -11.1719    162.6786    142.6747   2.9084940777e+02   5.1531890303e+00  0.007091102  0.005005077 -25.42 0.0004576269    1.682    0.406
        76 -11.6212    149.3193    141.0008   2.9099679517e+02   5.2541807263e+00   0.01334001  0.008802109  51.75  0.001333936    1.672    0.402
        77 -11.7047     89.1786    140.9305   2.9170621119e+02   5.6226631606e+00   0.01344816  0.008697504 -11.89  0.001052654    2.114    0.527
        78 -11.1476     39.4749    136.4737   2.9226620339e+02   5.9768912183e+00   0.01433182  0.008853284  20.04  0.001397142    1.699    0.411
        79 -13.1666     42.6191    139.5583   2.9224779164e+02   5.9223438582e+00   0.05607081    0.0116519 -53.80  0.003546173    4.027    0.752
        80 -11.9091     47.0064    135.1560   2.9216921637e+02   5.9461346379e+00   0.03025697   0.01042933 -55.47  0.002327391    2.715    0.632
        81 -12.4612     62.6917    134.4231   2.9197946267e+02   5.8589399319e+00   0.02351736   0.01543719  41.64   0.00241326    1.517    0.341
        82 -12.7727    246.6641    134.0886   2.8980729391e+02   4.7365300452e+00   0.02383947   0.01960448  70.24   0.00251008    1.376    0.273
        83 -13.7806    233.3873    127.5101   2.8992347706e+02   4.8934246122e+00   0.03742526   0.02470482  50.20  0.003794251    1.641    0.390
        84 -12.9087    223.7953    128.8141   2.9004442712e+02   4.9373653586e+00    0.0345537   0.02115738  46.19   0.00339064    1.709    0.415
        85 -13.3175    132.8365    131.4587   2.9113315980e+02   5.4644871762e+00   0.04375812   0.01679786 -61.06  0.003468066    2.608    0.617
        86 -12.3235    110.6992    131.8962   2.9139713766e+02   5.5948416611e+00   0.02533422   0.01692967 -11.55  0.002447296    1.971    0.493
        87 -13.2205    109.8773     96.1443   2.9118905056e+02   6.0098987123e+00   0.02121323   0.01500305  71.07 0.0003344984    1.791    0.442
        88 -14.8722    105.0272    123.0864   2.9141047138e+02   5.7305617460e+00    0.1094434   0.04804352  19.93  0.008651455    2.665    0.625
        89 -13.7912     28.0700    124.1009   2.9232581575e+02   6.1883046470e+00     0.052404   0.02402368 -39.79  0.004202321    2.683    0.627
        90 -14.0221     32.6574    111.6084   2.9219568507e+02   6.3037135373e+00   0.04155359   0.01911643 -56.98  0.003634695    2.117    0.528
        91 -14.0309     22.4662     86.2784   2.9216216753e+02   6.6563067213e+00   0.05080029    0.0314086  12.16  0.004608511    1.885    0.469
        92 -14.2291      2.7440     96.9070   2.9246002406e+02   6.6543396593e+00   0.05505095    0.0275634 -64.20  0.003924415    2.096    0.523
        93 -15.4192     16.9863    109.3443   2.9236718235e+02   6.4250593570e+00   0.08366237   0.06333728  49.20  0.006416827    1.379    0.275
        94 -14.0384     89.4184    109.4524   2.9151180649e+02   5.9823039099e+00   0.05611177   0.03286268   8.77  0.005059118    2.183    0.542
        95 -15.2667     26.5680     94.5459   2.9216394145e+02   6.5365169963e+00   0.09851135    0.0485993  18.07  0.008318387    2.363    0.577
        96 -11.8593    184.5441    124.0475   2.9047797097e+02   5.2327810983e+00   0.01368348   0.01014854  57.31 0.0008534665    1.506    0.336
        97 -12.6358    180.6468    121.0966   2.9050592981e+02   5.2905007920e+00   0.01838296   0.01431506   8.37  0.001621446    1.388    0.280
        98 -15.3790    105.2936    109.2682   2.9132316506e+02   5.8874213230e+00   0.07513382   0.06150746 -26.09  0.008347062    1.327    0.246
        99 -12.6863      4.1419    119.8874   2.9258305816e+02   6.3821895140e+00   0.03249139   0.01123833  26.91  0.002393085    2.862    0.651
       100 -11.4038    192.8093    117.5932   2.9034113454e+02   5.2560821922e+00   0.01014525  0.005729944  39.20  0.000952839    1.726    0.421
       101 -12.4247    176.9192    112.0368   2.9049461913e+02   5.4172065660e+00   0.02161426    0.0160443 -80.71  0.002310085    1.554    0.356
       102 -12.2443     46.2660    109.5419   2.9202226668e+02   6.2445310258e+00   0.01957352   0.01443153 -42.35   0.00164834    1.410    0.291
       103 -12.5503    121.0450    111.5616   2.9115112779e+02   5.7648116110e+00   0.01766973   0.01006106  44.14  0.001640446    1.805    0.446
       104 -13.3443     62.3411    100.8311   2.9177927336e+02   6.2464525438e+00   0.04826235    0.0268241 -72.08  0.004387672    2.122    0.529
       105 -11.3337    222.4858    109.6448   2.8994281623e+02   5.1650535466e+00   0.01198823  0.006220488  27.24  0.001080297    1.893    0.472
       106 -13.4045    231.5625    133.3494   2.8998061682e+02   4.8377183238e+00   0.04052097   0.01837157  34.06   0.00351939    2.065    0.516
       107 -10.8679    152.1660    105.3818   2.9074607200e+02   5.6451807292e+00   0.01040045  0.005620902  38.77 0.0009570533    1.795    0.443
       108 -13.3435    123.0157    103.1492   2.9107658367e+02   5.8492219704e+00   0.02800881   0.01790805  16.45  0.002775093    1.701    0.412
       109 -13.0189    137.1191     96.3091   2.9086834768e+02   5.8413353822e+00   0.02233053   0.01768032 -76.31  0.001900395    1.383    0.277
       110 -12.9044    135.9542    103.3127   2.9092481397e+02   5.7681711626e+00   0.02963973   0.01595949  25.19  0.001886272    1.863    0.463
       111 -11.8656    128.8003    102.3848   2.9100361892e+02   5.8225941398e+00   0.01390595   0.01043428  19.73  0.001137639    1.355    0.262
       112 -13.0097     43.0077     91.0686   2.9194840514e+02   6.4762841062e+00   0.06072947   0.01540585 -64.82  0.003603374    4.770    0.790
       113 -12.4500     47.5957    100.6972   2.9195275000e+02   6.3378867415e+00   0.02591216   0.01713737  51.40  0.002619519    1.661    0.398
       114 -12.6886     52.7008     98.1411   2.9187685005e+02   6.3360893633e+00   0.02619169   0.01725345 -34.55  0.002365164    1.730    0.422
       115 -11.9860    249.3014     99.4683   2.8956476758e+02   5.1168966695e+00   0.01201408  0.008517905  83.17  0.001205608    1.820    0.451
       116 -12.4932    128.1409     95.9961   2.9097244881e+02   5.8998783215e+00   0.01588297  0.009222182  40.06  0.001528869    1.692    0.409
       117 -13.1907     99.1304     94.7411   2.9130745234e+02   6.0916832534e+00   0.03567226    0.0120407  39.36  0.002663743    2.828    0.646
       118 -11.3955     76.0280     95.8429   2.9158714561e+02   6.2201508609e+00  0.009687582  0.009312744  20.31 0.0002818084    1.020    0.019
       119 -11.7129     49.1953     94.4304   2.9189570886e+02   6.4000190754e+00   0.01636794  0.009296237 -83.61  0.001388004    2.569    0.611
       120 -11.4140    144.3510     91.5259   2.9075378825e+02   5.8518853165e+00   0.02083043  0.007194218 -57.72  0.001590147    2.744    0.636
       121 -13.5373     84.1652    115.6406   2.9161153978e+02   5.9434019030e+00   0.04935364   0.02616582   9.87   0.00408667    2.593    0.614
       122 -13.8543    188.3587     84.2390   2.9018997769e+02   5.6656169340e+00   0.03606815    0.0214102  19.30   0.00193086    1.806    0.446
       123 -12.7261    178.2776     85.6292   2.9031739389e+02   5.7115322410e+00    0.0303432   0.01760637  84.14  0.002477263    2.915    0.657
       124 -15.3787    165.4389     78.2493   2.9042382322e+02   5.8748269705e+00   0.09771202   0.05277648  12.09  0.004403008    2.378    0.579
       125 -11.8824     89.5918     87.5518   2.9137634482e+02   6.2324025473e+00    0.0203281   0.01110871  37.55  0.001913805    1.762    0.432
       126 -12.1804    125.5910     86.6032   2.9094527348e+02   6.0231669310e+00   0.01691187   0.01297498  71.71  0.001822555    1.552    0.356
       127 -12.8111    131.3335     85.6276   2.9087150390e+02   5.9992031485e+00   0.03252802   0.01397138  37.48  0.002741779    2.204    0.546
       128 -10.6015     79.0154     87.4947   2.9150098859e+02   6.2976473843e+00    0.0101426  0.006432149  28.86 0.0004492062    1.531    0.347
       129 -13.0722    241.7863     83.9848   2.8955863371e+02   5.3404001108e+00   0.02881485   0.01390915  31.92  0.002569005    1.958    0.489
       130 -13.7683    237.8846     80.3312   2.8958225912e+02   5.4062199387e+00   0.03262501   0.01462137  36.26  0.002526805    2.100    0.524
       131 -12.7576    192.9016     75.0983   2.9008054788e+02   5.7424569992e+00   0.01734358   0.01237355  47.21  0.001840079    1.452    0.311
       132 -13.7834    199.7038     70.0304   2.8996934852e+02   5.7587498163e+00   0.03923918   0.02148039  21.99  0.002258535    1.916    0.478
       133 -14.0420    214.1800     78.8380   2.8985248824e+02   5.5689703433e+00   0.05547942   0.01995092  39.74  0.003647292    2.683    0.627
       134 -12.0844    219.7882     75.1719   2.8976396957e+02   5.5765073494e+00   0.01345965   0.01177033 -25.45 0.0007005154    1.207    0.171
       135 -12.1679    113.9636     80.6217   2.9104613110e+02   6.1628753567e+00   0.01757354   0.01620448  70.66  0.001264289    1.151    0.131
       136 -14.1775     38.7973     68.1653   2.9185877659e+02   6.7645752764e+00   0.09489092   0.02492125  30.79  0.006476102    3.360    0.702
       137 -14.4756     61.4849     65.9284   2.9157682817e+02   6.6519052701e+00   0.08207904   0.03658421  24.26  0.006841288    2.324    0.570
       138 -13.0759     56.4116     79.0820   2.9171695168e+02   6.5320404484e+00   0.02391787   0.01643251 -47.57   0.00105233    1.480    0.324
       139 -13.9335     60.8390     75.4375   2.9164240343e+02   6.5468256033e+00   0.02848794    0.0267272  68.29  0.001106219    1.118    0.105
       140 -14.0554    170.0386    242.1085   2.9136761523e+02   3.9676807848e+00   0.05694645   0.03958188  20.44  0.005987823    1.473    0.321
       141 -10.8991     98.2526     84.1823   2.9125346715e+02   6.2181160086e+00  0.009431839  0.007558852  57.30 0.0005190959    1.353    0.261
       142 -13.4134    135.0897     79.5598   2.9079012218e+02   6.0457583753e+00   0.04238714   0.01731568  32.06  0.003507051    2.276    0.561
       143 -13.9461    131.6860     66.6860   2.9075174329e+02   6.2141429988e+00   0.06166326   0.04021459  27.40  0.006335147    1.500    0.333
       144 -14.4603    101.3583     50.3178   2.9101018708e+02   6.5872843470e+00    0.0459518   0.02700283  40.89  0.002302249    1.685    0.407
       145 -12.6813    145.0019    231.4020   2.9159754838e+02   4.2435586962e+00   0.02527886   0.01334472 -47.51  0.002320139    1.942    0.485
       146 -11.8688     91.1919     80.3002   2.9131323754e+02   6.3057711859e+00   0.01885332   0.01454102  -4.82  0.001583788    1.489    0.328
       147 -12.1748     69.4738     80.1840   2.9156923382e+02   6.4397187638e+00   0.04536293  0.009378774 -51.79  0.002804544    4.223    0.763
       148 -12.8760     77.2120     73.4794   2.9143689932e+02   6.4693549303e+00   0.02664719    0.0147794  21.34  0.001943273    1.900    0.474
       149 -12.9043     81.6032     70.1829   2.9136489511e+02   6.4803326994e+00   0.02923393   0.01605489  34.14  0.002773506    1.733    0.423
       150 -13.9310     87.7952     65.4592   2.9126289503e+02   6.4966569385e+00    0.0383415   0.02777587 -51.01  0.001591718    1.389    0.280
       151 -13.6344     92.6148     58.6576   2.9116443462e+02   6.5451641566e+00   0.03432506   0.02432521 -87.84  0.002784039    1.755    0.430
       152 -12.2133     41.9320     77.2117   2.9187678324e+02   6.6417494081e+00   0.01572466   0.01443403 -23.52  0.000815108    1.124    0.110
       153 -11.2420    241.5376     71.4653   2.8948501070e+02   5.4852774772e+00  0.006608061  0.006461409   8.63 -2.771818e-05    1.012    0.012
       154 -13.2740    111.1456     42.0685   2.9084413455e+02   6.6219330158e+00   0.02859274   0.01496378  21.22   0.00145375    2.045    0.511
       155 -11.7328    100.5980     64.8466   2.9110783207e+02   6.4254326814e+00   0.01667067    0.0119191 -37.37  0.001091446    1.511    0.338
       156 -12.0551    158.0509     63.7485   2.9042246444e+02   6.0862687766e+00   0.01833434   0.01034778 -78.95  0.001599384    2.380    0.580
       157 -13.6279     79.2572     60.3259   2.9133252726e+02   6.6076485457e+00   0.03294854   0.02347134 -20.75  0.003395277    1.697    0.411
       158 -14.0124    177.8275     57.6966   2.9015204783e+02   6.0342983466e+00   0.03554235   0.02878027  69.74  0.002223626    1.409    0.290
       159 -12.8956    147.0702    238.3909   2.9161561165e+02   4.1507414164e+00   0.01769023   0.01485756  88.62  0.001158691    1.338    0.253
       160 -11.9924     38.8795     60.4728   2.9181095471e+02   6.8522640528e+00   0.01747414   0.01212183  63.20  0.001766889    1.756    0.431
       161 -13.0179     25.5440     59.5883   2.9196333383e+02   6.9436180535e+00   0.02249539   0.01606356 -30.07  0.002352769    1.596    0.373
       162 -12.9329     63.5045     57.6843   2.9150269526e+02   6.7340868120e+00    0.0216688   0.01643233  59.98  0.001985887    1.489    0.328
       163 -12.1978    248.5520     55.5285   2.8930488952e+02   5.6245670321e+00   0.01415128   0.01014582  40.80  0.001185577    1.379    0.275
       164 -12.8513    249.2841     49.8694   2.8926163493e+02   5.6848284642e+00   0.02947519   0.01636242 -35.56  0.001511621    2.213    0.548
       165 -12.1976    230.9581     55.1347   2.8950977927e+02   5.7372798484e+00   0.01770881  0.008244389  38.62    0.0015372    2.066    0.516
       166 -13.4967     65.2831     51.4413   2.9144359652e+02   6.7947863557e+00    0.0317049   0.02112275 -67.22  0.003262787    1.595    0.373
       167 -12.0920     69.5097     49.5296   2.9138194899e+02   6.7908990016e+00   0.01960356   0.01350874 -76.70  0.002010429    1.675    0.403
       168 -12.8760     67.4714     42.5026   2.9136319611e+02   6.8838656558e+00   0.02348903   0.01659578 -43.19  0.002493047    1.472    0.321
       169 -12.0163      5.5957     50.7621   2.9214565833e+02   7.1661541414e+00   0.01529292   0.01143759 -29.41  0.001467673    1.495    0.331
       170 -11.7774     86.4322     49.4955   2.9118162841e+02   6.6879422817e+00   0.01140785    0.0112522  16.51   0.00057138    1.009    0.009
       171 -13.0788    152.4898     46.9135   2.9038526539e+02   6.3132128779e+00   0.03288638   0.01404058  19.28  0.001039018    2.856    0.650
       172 -10.5081    136.6616    237.3089   2.9173169099e+02   4.2267568413e+00  0.007114232  0.004947794  59.26 0.0006140266    1.684    0.406
       173 -12.9603     16.0760    197.5298   2.9291278465e+02   5.4184505115e+00   0.03755439   0.01381116 -45.64   0.00276792    2.999    0.667
       174 -14.3721    217.5535     41.9891   2.8958736608e+02   5.9701625332e+00   0.06067665   0.02747003  26.92  0.005013875    2.184    0.542
       175 -13.6222    205.3436     40.3328   2.8972122376e+02   6.0641628270e+00   0.04282804   0.01533562  43.72  0.003143705    3.019    0.669
       176 -13.8148     10.6339    210.6167   2.9305621149e+02   5.3012877759e+00   0.05037563   0.03472018  26.34  0.005318433    1.427    0.299
       177 -13.1747    158.6323     43.5847   2.9029238403e+02   6.3136764100e+00   0.02829787   0.01639454  17.64  0.002348145    1.911    0.477
       178 -13.6838      9.0194     42.9146   2.9205735645e+02   7.2352818531e+00   0.05578786   0.03095721  46.21   0.00518962    1.918    0.479
       179 -13.0924     34.4661     32.9340   2.9169535498e+02   7.1947674174e+00   0.02484084   0.01504586  41.95  0.001923578    1.652    0.395
       180 -12.5347     24.5970    217.5833   2.9293360751e+02   5.1364107666e+00   0.02763642   0.02271996  69.78  0.002946347    1.373    0.271
       181 -14.0013     25.6082    227.6399   2.9298252108e+02   5.0148080684e+00   0.04622568   0.02086183 -46.46  0.003898705    2.327    0.570
       182 -13.7160     20.3609    224.3672   2.9302462441e+02   5.0842900723e+00   0.02672732   0.02384649 -15.99  0.001650471    1.180    0.153
       183 -13.4927    236.5321    229.8733   2.9051043466e+02   3.7009577633e+00   0.02473748   0.01580774  62.14  0.002354862    2.005    0.501
       184 -11.9878     40.9818    248.6722   2.9292842236e+02   4.6798309012e+00    0.0249735  0.009805951 -66.53   0.00189836    2.913    0.657
       185 -13.8594     57.4820    202.6217   2.9245497637e+02   5.1079790611e+00   0.05476963   0.02160722 -62.30  0.004352377    2.593    0.614
       186 -12.0317     25.8226     42.8964   2.9185836854e+02   7.1332470944e+00   0.01155923  0.008790793 -46.92 0.0004264153    1.336    0.252
       187 -12.7608    243.3041     36.5355   2.8925047048e+02   5.8741997144e+00    0.0430191   0.01267843  35.47  0.003099049    3.000    0.667
       188 -12.3873    104.8226     36.5889   2.9088541320e+02   6.7233879243e+00   0.01871971   0.00884414 -56.62  0.001648452    2.067    0.516
       189 -12.9170     75.9166     37.5558   2.9123312423e+02   6.8889840905e+00   0.01798017   0.01237539  25.63 0.0009398996    1.434    0.303
       190 -12.2543     70.7118     36.6936   2.9128942524e+02   6.9306439860e+00   0.01342177   0.01246122  -0.55 0.0007575118    1.097    0.088
       191 -13.1578     56.1988     27.7842   2.9140676153e+02   7.1212836624e+00   0.02745429   0.01659181  27.39  0.001725745    1.618    0.382
       192 -11.7645     45.4568     36.5035   2.9158705423e+02   7.0868927639e+00   0.01191882  0.009650356 -11.51  0.000569273    1.380    0.276
       193 -12.7379     47.4034     32.1382   2.9153739768e+02   7.1250412559e+00    0.0236499   0.01456778 -21.57  0.002145298    2.240    0.554
       194 -13.1909     53.0499    214.3129   2.9257811974e+02   5.0007744606e+00   0.03120319   0.01879916  55.48  0.002923633    2.003    0.501
       195 -13.9432     68.2339    222.4989   2.9244860848e+02   4.8142978720e+00   0.04567133   0.02831624 -35.77  0.004414602    1.862    0.463
       196 -12.5336    152.4870     31.5044   2.9029110497e+02   6.4896986494e+00   0.02029701  0.009361535 -48.32  0.001203857    2.208    0.547
       197 -14.7514     63.1180    215.0518   2.9246382332e+02   4.9309562111e+00   0.06270824   0.05403848  51.76  0.007384778    1.199    0.166
       198 -11.6587     51.4263     36.3558   2.9151551870e+02   7.0521893459e+00   0.01991055  0.008201683  22.33   0.00154298    2.687    0.628
       199 -11.5420    211.3306     33.1001   2.8960635329e+02   6.1101533003e+00  0.009329917  0.008568089 -68.32 0.0005336662    1.126    0.112
       200 -12.0631    222.7352     21.5225   2.8940099655e+02   6.1725095330e+00    0.0176928    0.0155979  65.29 0.0005880981    1.218    0.179
       201 -13.0098    216.0242     29.0133   2.8952598873e+02   6.1280694009e+00   0.02119228   0.01418971  65.07  0.001653618    1.901    0.474
       202 -11.8591    248.4994    224.5080   2.9033698240e+02   3.6891225049e+00     0.016252  0.009385103  61.72   0.00140514    2.427    0.588
       203 -10.8345    163.4933    225.4745   2.9134366116e+02   4.1985016275e+00  0.006649178  0.006451497  -2.45 0.0002122346    1.031    0.030
       204 -14.4922     97.7023    217.1321   2.9206852458e+02   4.6961780560e+00   0.04258876   0.03322973  -6.18  0.004676196    1.465    0.317
       205 -12.2966     97.9022     27.1712   2.9090971568e+02   6.8735853385e+00   0.01367153   0.01296298 -65.91  0.001200419    1.085    0.078
       206 -13.3357     57.4351    246.7836   2.9272300823e+02   4.6013406418e+00   0.04083278   0.02775726   4.00  0.004091152    1.771    0.435
       207 -11.4220     70.7923     16.9793   2.9116813559e+02   7.1559750947e+00   0.01107283  0.009335469  29.42 0.0004081308    1.157    0.135
       208 -13.4315     85.2862    215.3290   2.9220401830e+02   4.7926229728e+00   0.01917969   0.01560833  59.13    0.0018584    1.336    0.252
       209 -13.1177    185.6382    213.1592   2.9100790440e+02   4.2042571326e+00   0.02308502   0.01280702 -67.60  0.002136431    1.974    0.493
       210 -10.2879    157.6528    213.3036   2.9133851311e+02   4.3738342668e+00  0.007139895  0.004926653  58.52  0.000510587    1.693    0.409
       211 -11.3073    136.6757    211.0042   2.9157179112e+02   4.5284693108e+00  0.009675182  0.008629208 -61.44 0.0008308938    1.146    0.127
       212 -11.1451     39.7437    211.0137   2.9271512496e+02   5.1196692707e+00   0.01629935  0.008037229  35.97  0.001459951    1.923    0.480
       213 -12.0261     80.4838    208.5057   2.9221928095e+02   4.9002277537e+00   0.01511419   0.01090395  72.61  0.001550786    1.734    0.423
       214 -11.6151    169.0627     42.9736   2.9016549932e+02   6.2566944305e+00   0.01391138  0.009271345  37.41 0.0008303472    1.457    0.314
       215 -12.1019     72.0119    206.4182   2.9230656217e+02   4.9758463945e+00   0.01557862   0.01273573  24.80  0.001780758    1.204    0.170
       216 -10.8030    149.9844    206.5400   2.9138778112e+02   4.4983210581e+00   0.01038315  0.006542071  24.26  0.001024627    1.590    0.371
       217 -12.1305    133.3829    202.0233   2.9155604513e+02   4.6516364981e+00   0.02061897   0.01968923 -44.15  0.002463262    1.062    0.058
