#   1 NUMBER                 Running object number                                     
#   2 MAG_AUTO               Kron-like elliptical aperture magnitude                    [mag]
#   3 X_IMAGE                Object position along x                                    [pixel]
#   4 Y_IMAGE                Object position along y                                    [pixel]
#   5 X_WORLD                Barycenter position along world x axis                     [deg]
#   6 Y_WORLD                Barycenter position along world y axis                     [deg]
#   7 A_WORLD                Profile RMS along major axis (world units)                 [deg]
#   8 B_WORLD                Profile RMS along minor axis (world units)                 [deg]
#   9 THETA_WORLD            Position angle (CCW/world-x)                               [deg]
#  10 FWHM_WORLD             FWHM assuming a gaussian core                              [deg]
#  11 ELONGATION             A_IMAGE/B_IMAGE                                           
#  12 ELLIPTICITY            1 - B_IMAGE/A_IMAGE                                       
         1 -11.9474    179.3421     23.7357   5.4610023436e+00   3.8147116662e+01    0.8580951    0.3088757  64.21  0.004306281    2.614    0.617
         2 -12.3606    221.8469     40.2152   5.2151218370e+00   2.8433215972e+01     2.637762     0.691092 -56.49   0.01074649    4.083    0.755
         3 -12.5787    231.3749     22.5838   1.4908018949e+00   2.8908658583e+01    0.8851732    0.3592437  69.48  0.005489707    2.570    0.611
         4 -12.6532    198.7627     20.7918   3.2852272865e+00   3.4765721085e+01      1.38525    0.5733031  53.00  0.006802248    3.748    0.733
         5 -14.2232    237.0421      6.1571   3.5844096284e+02   2.9739790347e+01     4.168437    0.9687646  76.93    0.0206688    4.199    0.762
         6 -10.9905    247.7743     24.8450   9.6136206413e-01   2.6086948715e+01     0.326966    0.2752601 -55.46 0.0004524267    1.393    0.282
         7 -12.3630    207.6577      3.6454   3.5945946217e+02   3.4953008975e+01     1.830101    0.1002641  68.19    0.0063415    7.211    0.861
         8 -10.4094    120.3341      9.2080   8.4201618496e+00   5.2254947660e+01    0.2891651    0.2367772 -79.94  0.001066709    1.116    0.104
         9  -9.1133    101.8420      6.2174   1.0335714266e+01   5.6716661209e+01    0.1580962    0.1229629  55.47 0.0004884104    1.284    0.221
        10  -9.8016    141.2551    222.5858   5.1524431393e+01   9.3332229834e+00    0.2303044     0.186345  54.77  0.001078619    1.685    0.407
        11 -11.6819    247.4303    248.9258   3.5998844417e+01  -4.9040005742e+00     0.548257    0.3499174 -18.97  0.003345737    1.128    0.114
        12 -10.9872    243.9276    242.0370   3.5579724882e+01  -3.7478619830e+00     0.280865    0.1425261 -21.95   0.00173777    1.668    0.400
        13 -16.0154    192.2920    173.3285   3.3341379799e+01   1.2149666988e+01     3.078586     1.444161  49.27   0.01398254    3.190    0.687
        14 -14.9682    206.0320    170.7537   3.0609537447e+01   1.0844371313e+01     1.029386    0.8121534 -59.06  0.004611072    1.470    0.320
        15 -18.7496    240.5453    140.7976   2.0790097072e+01   1.1428033379e+01     5.366269     4.428146 -49.82   0.02341823    1.141    0.123
        16  -9.6590     21.9395    197.9943   8.0383628058e+01   2.8800291840e+01    0.2066851    0.1893238  47.11  0.000328409    1.009    0.009
        17  -9.4908     54.5347    197.0205   7.0676569136e+01   2.5753099826e+01    0.2101844    0.1437753 -70.11 0.0005244613    1.562    0.360
        18 -10.1648    149.5308    190.6422   4.4726532670e+01   1.4600257119e+01    0.2963776    0.1986363  46.71  0.001527832    1.801    0.445
        19 -11.0290    156.3706    189.9138   4.3122789280e+01   1.3817353403e+01     0.285654    0.2125415  43.23 0.0008079396    1.553    0.356
        20 -10.3808    147.7912    184.5799   4.4090708837e+01   1.6075723756e+01    0.2342535     0.166537  38.47  0.001172822    1.495    0.331
        21 -11.6873    154.8560    179.4121   4.1657037070e+01   1.6125041728e+01    0.3986714    0.3391353 -13.02  0.001449339    1.151    0.131
        22 -10.6018    247.2486    221.1406   3.2203247521e+01  -1.1574959904e+00    0.2793641     0.169161  31.36  0.001468795    2.118    0.528
        23 -10.2601    130.8475    180.5473   4.7328436790e+01   1.9369988446e+01    0.2719434    0.2269131  74.72  0.001462996    1.583    0.368
        24 -10.7982     97.6655    179.8922   5.5844460926e+01   2.4384739065e+01    0.4004654    0.2930477 -42.35  0.001475394    1.403    0.287
        25  -9.2591     83.9827    220.9841   6.5291587781e+01   1.6598610230e+01    0.1669479    0.1544238  15.08 0.0004187516    1.033    0.032
        26 -11.4190    107.0205    172.9348   5.2114565145e+01   2.4656729393e+01    0.4672399    0.3199207 -48.60  0.001937205    1.462    0.316
        27 -10.7125    126.9093    158.8308   4.4375148929e+01   2.4772715377e+01    0.4402116    0.1760319 -54.41   0.00162257    2.586    0.613
        28 -11.3954    110.8603    150.4151   4.6931044573e+01   2.9339347706e+01    0.6946625    0.4700806  63.30  0.003071804    1.973    0.493
        29 -11.1260     67.8970    144.0880   5.8791272280e+01   3.7728330618e+01    0.8169481    0.4355578  57.25  0.002987985    2.583    0.613
        30 -10.0618    108.1456    134.3107   4.4400950062e+01   3.3548239101e+01    0.2792904    0.2544958 -87.76 0.0006165723    1.186    0.157
        31 -10.5206    112.5293    133.8035   4.3088974934e+01   3.2884668712e+01    0.3637108    0.2535802 -48.23  0.001062111    1.431    0.301
        32 -10.1752    113.1301    139.3560   4.4090854222e+01   3.1510726999e+01    0.3229451    0.2550803 -66.98 0.0004003871    1.383    0.277
        33 -10.3363      9.7833    136.2050   7.8835296227e+01   4.6250926762e+01    0.2401263    0.2154785 -33.72 0.0002358205    1.130    0.115
        34 -10.0220    113.1901    143.8218   4.4988453184e+01   3.0474127917e+01    0.3012856    0.2403459 -41.44 0.0004323233    1.272    0.214
        35 -11.4202    182.3818    212.1998   4.1475350895e+01   6.4673942641e+00     0.380376    0.2199256 -37.87  0.002047904    1.524    0.344
        36 -10.9414     80.1641    112.0525   4.7976250681e+01   4.3725512139e+01    0.8817824    0.5273345 -71.56  0.002306303    2.291    0.563
        37 -11.7713     70.8778     97.1381   4.7551091306e+01   4.8801708593e+01    0.6641068    0.5855744  67.80  0.001276753    1.234    0.190
        38 -12.6485     53.3116     96.0442   5.4024419442e+01   5.1937680476e+01    0.7417923    0.5978687 -46.27 0.0007808544    1.275    0.216
        39 -12.7901     68.9406    103.3232   4.9804033629e+01   4.7709570441e+01    0.9999978    0.6217768  41.94  0.001353009    1.557    0.358
        40 -13.3179     63.4590     98.6564   5.0687922318e+01   4.9714912995e+01     1.907269    0.8795434  35.52  0.002836658    2.051    0.512
        41 -10.1006    186.5134    219.4603   4.1803881886e+01   4.7746489816e+00    0.2285706    0.1972743 -51.54  0.001272688    1.485    0.327
        42  -8.8123     97.7480    105.7463   4.0881493046e+01   4.1918329931e+01      0.20375    0.1714027  76.83 0.0009761538    1.330    0.248
        43  -8.0682    149.3076    105.2827   2.8095434824e+01   3.1911188926e+01    0.1268996    0.1091291   1.25 0.0002017654    1.563    0.360
        44 -10.5539    165.2561    100.2692   2.4026717819e+01   2.9789480525e+01    0.3007461    0.2758033 -72.11 0.0002856226    1.032    0.031
        45 -10.8353    168.7433     93.9138   2.2070770254e+01   3.0236205787e+01     0.479284    0.3405086 -26.89  0.000935646    1.844    0.458
        46 -10.3668    159.9659    100.9770   2.5116895091e+01   3.0662491085e+01    0.5129122     0.297464 -79.63  0.002027119    3.269    0.694
        47 -11.2622    188.2046    216.0300   4.0973751480e+01   5.1726825154e+00    0.3325298    0.3122802  75.13  0.001993168    1.664    0.399
        48 -13.2912     28.3859     91.4147   6.3811922717e+01   5.6339508714e+01     1.089542    0.9483041   6.72   0.00395034    1.111    0.100
        49  -9.4913    176.2625     87.8364   1.9592722456e+01   2.9839589544e+01    0.2121342    0.1913311  43.75  0.000280642    1.384    0.278
        50  -9.2512    114.9769     87.5070   3.1515505702e+01   4.2200705787e+01    0.2551466     0.191768 -67.16  0.001307488    1.467    0.318
        51 -10.0251     84.9996     86.6516   3.9893193600e+01   4.8453849790e+01    0.2546146    0.2103287 -46.17 0.0002268635    1.283    0.220
        52 -10.9701      5.9470     83.1921   7.3137079064e+01   6.0334446966e+01    0.2457793    0.1951322 -60.08  0.000927824    1.237    0.191
        53  -9.2737    176.1536     83.1751   1.8620098729e+01   3.0614553385e+01    0.1691408    0.1598064 -52.26 0.0003981991    1.218    0.179
        54  -9.5973    163.2282     80.8531   2.0102424639e+01   3.3483838955e+01    0.3396868    0.2040252  57.69  0.001353707    1.713    0.416
        55  -8.6072    139.5052     79.4524   2.4003938031e+01   3.8536258362e+01    0.1336198    0.1230712 -88.64 0.0001462069    1.032    0.031
        56  -9.9348    147.4819     77.4372   2.2008571049e+01   3.7223826832e+01    0.2198227    0.2159077  11.86 0.0004876948    1.281    0.219
        57  -8.5252    104.5799     76.6084   3.1301531010e+01   4.6418277234e+01    0.2657251    0.1306864 -30.11 0.0009422241    3.436    0.709
        58 -11.4906    186.8596    208.7935   4.0111923454e+01   6.5561427821e+00    0.4475196    0.2947566 -27.44  0.001691846    1.357    0.263
        59 -12.3141     10.3806     72.1235   6.8567805779e+01   6.2656872330e+01     0.657419     0.258958 -50.40  0.001936485    2.274    0.560
        60 -10.9680    169.2120    210.6315   4.3798061541e+01   8.2584924017e+00    0.4304337    0.1744998 -50.20  0.001615861    2.480    0.597
        61 -10.5245    247.7347     72.1983   8.7152061895e+00   2.0336139769e+01     0.290053    0.1788324  51.89  0.002033562    2.343    0.573
        62 -14.9329    225.4080    164.9341   2.6723606513e+01   9.4570005168e+00      1.16663    0.8073274  83.93  0.006145939    3.531    0.717
        63  -9.0827    229.5367     70.8193   1.0030523944e+01   2.3232981590e+01    0.2210336     0.172321 -15.43  0.001505029    2.157    0.536
        64  -9.4528    194.3134    223.0381   4.0912470401e+01   3.3728392428e+00    0.2145525     0.136824  -8.88 0.0005706411    1.562    0.360
        65  -8.6903    233.9833     69.2884   9.3698611657e+00   2.2754601872e+01    0.1388493    0.1134653 -74.41  0.000284607    1.175    0.149
        66  -8.8323     69.4701     69.0130   4.0131288596e+01   5.4978617491e+01    0.2041164    0.1406693 -42.46  0.001014983    1.586    0.370
        67  -9.9180    241.0767     66.5827   8.3136603931e+00   2.2044864819e+01    0.1729473    0.1172063 -47.77 0.0003331838    1.201    0.168
        68  -9.0796    139.9873    210.0550   4.9956288707e+01   1.1946021707e+01    0.1943831    0.1792572  -4.43 0.0004247248    1.079    0.074
        69 -11.0093    172.2304    200.0734   4.1531635019e+01   9.8303194810e+00    0.4035728    0.2750266 -55.45  0.001154349    1.684    0.406
        70 -11.1106      3.2959     63.7094   7.0666104677e+01   6.5106816737e+01    0.3173145    0.2230988 -69.01  0.001755132    1.545    0.353
        71  -9.7569    221.4751     61.8662   9.1576369287e+00   2.5728501123e+01    0.2920134    0.1920985 -72.92  0.001321558    1.407    0.289
        72  -9.2305    232.8975     62.1322   8.2199885058e+00   2.3872370076e+01    0.2651267    0.2007228 -13.13  0.001114752    2.488    0.598
        73  -9.0017    198.4290     60.5509   1.1159466394e+01   2.9868109868e+01     0.295194    0.1695064 -71.34  0.001690167    1.824    0.452
        74  -9.0816    196.1826     56.0763   1.0505730290e+01   3.0889117349e+01    0.1923164    0.1429272 -41.40 0.0004496808    1.405    0.288
        75  -9.8009    184.3802     59.1091   1.2438035088e+01   3.2671929002e+01    0.2313559    0.1757576 -64.47 0.0007648431    1.107    0.096
        76  -9.1836    144.3389     59.7175   1.8245709428e+01   4.0689789309e+01    0.2189358    0.1721458 -79.71 0.0005680528    1.209    0.173
        77  -9.7279    216.8596     63.1604   9.8180325252e+00   2.6315639429e+01    0.3672681    0.1951957 -63.93  0.002174509    1.804    0.446
        78 -11.1028    216.3547    247.6229   4.0618694868e+01  -2.3761482592e+00    0.3245854    0.1844456 -30.92  0.002199195    1.396    0.284
        79  -8.6155    140.2557    246.1877   5.4965324286e+01   5.0769569179e+00    0.1538002     0.134239  28.66 0.0004313667    1.305    0.234
        80 -11.5181    219.9304     25.5138   2.7071085553e+00   3.0482335854e+01    0.3658774    0.3042454  77.23   0.00111189    1.465    0.318
        81  -9.1068    131.1707    244.7664   5.6785983562e+01   6.3111852768e+00    0.1984327    0.1223672  55.55 0.0007987439    2.770    0.639
        82 -10.2156    181.5042     30.9638   6.7996410392e+00   3.6882731131e+01    0.2583272    0.1737296  60.75 0.0009503544    1.675    0.403
        83 -10.2753    244.1829    232.8820   3.4285598934e+01  -2.5326718374e+00    0.2371424    0.1326487  21.60  0.001691632    1.964    0.491
        84  -9.6777    168.4214    201.2195   4.2475325202e+01   1.0087547485e+01    0.2223906    0.1221254 -58.68  0.001046528    2.374    0.579
        85 -11.1616     15.5025     54.8898   6.1213663965e+01   6.6016807052e+01    0.3220561    0.1842346 -52.96  0.001628674    1.765    0.433
        86  -8.8142    126.8013     53.2522   1.9740358025e+01   4.5452537359e+01    0.2332126    0.1781424  -1.48  0.001219156    2.213    0.548
        87 -10.0135    147.0821     52.2581   1.5949477493e+01   4.1194293294e+01     0.238684    0.1919583 -43.72 0.0004272053    1.344    0.256
        88 -10.7590    237.9005     50.7761   5.8780609739e+00   2.4550318550e+01    0.3691855    0.1690629  72.30  0.002309688    2.448    0.592
        89  -9.4869    178.6181     50.9212   1.1373642809e+01   3.4912984956e+01    0.1838703    0.1516707  72.91 0.0004192649    1.274    0.215
        90 -10.4416    246.5230     49.5319   5.0636081964e+00   2.3397974991e+01    0.1832185    0.1462313 -82.88 0.0008151319    1.284    0.221
        91  -8.7674    197.0866     50.4355   9.2876587885e+00   3.1478308623e+01    0.1547286    0.1014011  77.28 0.0003425926    1.512    0.339
        92  -9.0065    212.7810     48.4221   7.4477752168e+00   2.8949480509e+01    0.2188436   0.08234309  58.21  0.001122283    3.081    0.675
        93 -10.5365    192.1908     40.3878   7.7417489963e+00   3.3679036158e+01    0.3334049    0.2746073  31.53  0.001709272    2.067    0.516
        94 -10.2266    200.3293     36.8475   6.3024962818e+00   3.2608285408e+01    0.4809765    0.1588661  58.35   0.00203377    3.416    0.707
        95 -10.0684    244.4216     40.2192   3.6651551524e+00   2.4835222747e+01    0.1742015    0.1282457 -69.36 0.0004840636    1.115    0.103
        96  -8.1203    175.2952     41.2676   9.6563553747e+00   3.6838980565e+01    0.1013591    0.0893804  52.62 0.0002016278    1.513    0.339
        97  -9.9855     77.3003    222.3493   6.7208239740e+01   1.7078120233e+01    0.2525389    0.2208969  -8.91 0.0004729102    1.171    0.146
        98 -10.3765    186.4595     35.2169   7.2227013647e+00   3.5408396370e+01    0.4035082    0.2093398  78.02  0.002333468    1.865    0.464
        99  -9.0949    238.7990     34.2471   3.0229650590e+00   2.6401538701e+01    0.1223287    0.1028905 -58.02 0.0004995183    1.318    0.241
       100  -8.5205     82.3950     32.7924   2.3748342253e+01   5.8172865014e+01    0.1588215    0.1287718 -14.39 0.0008266342    1.605    0.377
       101  -9.9992    153.9156     26.8972   8.7961179622e+00   4.3002285761e+01    0.1729695    0.1505369  73.55 0.0005668124    1.252    0.201
       102 -10.3818    205.0029    221.3272   3.8785967502e+01   2.5829191843e+00    0.2470297    0.2060964 -60.50  0.001406896    1.797    0.444
       103  -8.1615     87.7189     22.2970   1.8665877725e+01   5.8276171427e+01    0.1232448   0.09076233 -82.39 0.0002466585    1.540    0.351
       104 -11.3335    175.0198    222.0106   4.4374769610e+01   5.5769231553e+00    0.4923341    0.2439694  10.86  0.001719433    2.506    0.601
