#   1 NUMBER                 Running object number                                     
#   2 MAG_AUTO               Kron-like elliptical aperture magnitude                    [mag]
#   3 X_IMAGE                Object position along x                                    [pixel]
#   4 Y_IMAGE                Object position along y                                    [pixel]
#   5 X_WORLD                Barycenter position along world x axis                     [deg]
#   6 Y_WORLD                Barycenter position along world y axis                     [deg]
#   7 A_WORLD                Profile RMS along major axis (world units)                 [deg]
#   8 B_WORLD                Profile RMS along minor axis (world units)                 [deg]
#   9 THETA_WORLD            Position angle (CCW/world-x)                               [deg]
#  10 FWHM_WORLD             FWHM assuming a gaussian core                              [deg]
#  11 ELONGATION             A_IMAGE/B_IMAGE                                           
#  12 ELLIPTICITY            1 - B_IMAGE/A_IMAGE                                       
         1 -13.0726    185.7203     22.2788   7.2879124773e+01   3.6019953615e+01     1.850462     1.228143 -13.05  0.006904126    1.547    0.353
         2 -12.9528    191.8034     15.9226   7.0170357915e+01   3.5138340088e+01     1.354017    0.9750102 -43.08  0.005214271    1.353    0.261
         3 -13.0243    198.5684      8.4427   6.7198863864e+01   3.4160120171e+01     1.482137    0.6952993  53.48    0.0014659    2.166    0.538
         4  -9.6868     57.8040      7.6768   9.6600766965e+01   6.8354042890e+01     0.259177   0.09811176 -29.51  0.001018072    2.531    0.605
         5  -9.9681     41.3877     17.7782   1.1041230195e+02   6.9372711245e+01    0.1998386    0.1062117 -34.47 0.0009573228    1.711    0.416
         6  -8.9077    125.5142    185.2783   1.2618923513e+02   2.1713051965e+01    0.2668563    0.1339192  25.53  0.001252109    2.295    0.564
         7 -10.4287    163.3513    248.8366   1.2689801725e+02   7.6883688636e+00     0.221099    0.1978436  13.60  0.001930877    1.285    0.222
         8 -10.8630    128.1882    243.6001   1.3243749573e+02   1.2710994484e+01    0.2141201    0.1680094  62.84  0.001678956    1.543    0.352
         9 -10.7302    124.9717    243.4621   1.3299145326e+02   1.3125896220e+01    0.2634567    0.1807495  82.92  0.001779562    2.448    0.591
        10 -10.9823    114.1234    248.8253   1.3537525072e+02   1.3746461125e+01    0.3321259    0.2340479 -37.44  0.002531461    2.001    0.500
        11 -11.0778    108.0848    248.5349   1.3640267816e+02   1.4499590644e+01    0.3240412    0.2837113  52.06  0.002217314    1.218    0.179
        12 -12.6803     52.7818    228.9549   1.4490690515e+02   2.3477000144e+01    0.6937274    0.4248862 -56.87 0.0009124765    2.127    0.530
        13 -15.2959     60.8575    215.6882   1.4255722979e+02   2.4773426454e+01     6.029179     2.997972  48.68   0.03793827    1.613    0.380
        14 -10.4181     87.0304    176.1236   1.3342842596e+02   2.8739459403e+01    0.2134942    0.2080247  36.99 0.0003643012    1.144    0.126
        15 -12.5289     75.0265    173.5311   1.3586332175e+02   3.0763126660e+01    0.4223111    0.2615081 -39.32  0.001665456    2.234    0.552
        16 -10.7748    115.1138    174.6860   1.2694000999e+02   2.5096458321e+01    0.7514866    0.1318212  37.06  0.002272226    4.856    0.794
        17 -12.7735     58.3541    131.8859   1.3491905198e+02   4.1571047160e+01     1.846262    0.4105985 -64.61  0.006132042    4.087    0.755
        18 -11.8147     93.0105    167.6119   1.3098421664e+02   2.9578330100e+01     1.065198    0.4912657  47.96  0.005032344    2.127    0.530
        19 -11.1164     82.3596    162.6943   1.3285376139e+02   3.1982342936e+01    0.9899024    0.4043674  57.64  0.003644871    3.869    0.742
        20  -9.9606     51.6169    157.5880   1.3972241630e+02   3.6708259002e+01    0.2353784    0.1808264  67.37 0.0008214868    1.196    0.164
        21 -11.1412     49.4643    151.9892   1.3968474955e+02   3.8125516188e+01    0.3534572    0.1747974 -87.69  0.001697202    2.355    0.575
        22 -11.2197     40.5095    149.9925   1.4174196850e+02   3.9464070747e+01     0.298181    0.2044785  81.95  0.001449876    1.386    0.278
        23 -11.9548     40.2300    144.1040   1.4124275355e+02   4.0772652694e+01    0.4609393    0.2751997  85.55  0.002359323    1.702    0.412
        24  -9.5942    104.1077    150.5298   1.2580317709e+02   3.1365831922e+01    0.3355424    0.2573144 -37.26  0.001145376    1.481    0.325
        25  -8.5381    106.6268    146.0679   1.2443424485e+02   3.1880964630e+01    0.2770663     0.142282 -37.85 0.0009373027    2.533    0.605
        26 -11.3579     93.1561    150.1821   1.2845249841e+02   3.3053054402e+01    0.2527156    0.2348158  -8.51 0.0005024761    1.230    0.187
        27  -9.6896    134.0415    145.7827   1.1779131502e+02   2.7437644720e+01    0.8746606    0.1944838 -52.89  0.002028573    8.292    0.879
        28  -9.6373    113.4981    136.1162   1.2090457806e+02   3.2804585240e+01     0.324883    0.2286186 -27.43 0.0009956715    1.760    0.432
        29 -12.5566     45.2505    130.3225   1.3836801730e+02   4.3354662742e+01    0.7793321    0.2997365 -75.90  0.003235818    2.763    0.638
        30 -11.7701     50.0496    130.0159   1.3698536753e+02   4.2921725707e+01    0.3993336    0.3179161 -73.43  0.001708432    1.167    0.143
        31 -10.0042    101.2180    133.4091   1.2354537437e+02   3.5349535661e+01    0.2772701    0.2167553 -27.42 0.0007925369    1.517    0.341
        32 -10.3702     71.6080    134.8782   1.3171330341e+02   3.9278003772e+01    0.2651394    0.1827538  43.36 0.0009453711    1.417    0.294
        33  -8.4308    118.6369    128.6898   1.1811713173e+02   3.3449460052e+01    0.1445859    0.1087607  -3.24  0.000703994    1.750    0.428
        34  -8.8928     73.6712    128.3224   1.3011044752e+02   4.0469216719e+01    0.1392388   0.09582891  68.72 0.0005033641    1.693    0.409
        35  -8.8992    109.3257    123.2500   1.1939479887e+02   3.6172872731e+01    0.1922296    0.1786473 -23.92 0.0006341236    1.119    0.106
        36  -8.0260    192.2733    143.7076   1.0502074863e+02   1.7375845283e+01    0.1156202    0.1086956 -69.54 0.0002346372    1.518    0.341
        37 -12.5487     67.9540    144.7814   1.3409633769e+02   3.7568045293e+01     1.055075    0.6526746  73.80  0.005398604    1.963    0.491
        38 -10.0235    168.4054    113.4135   1.0287591727e+02   2.6833212496e+01    0.3839468    0.3094891 -77.77  0.001483182    1.888    0.470
        39 -14.4501     14.4619    244.9249   1.5221173075e+02   2.4581718903e+01     2.132009    0.9761698 -67.57   0.01284234    2.650    0.623
        40 -10.7720    161.3125    225.8184   1.2456460262e+02   1.0683979897e+01    0.2304035    0.1793893  42.93    0.0016935    1.326    0.246
        41  -8.7136    153.5124     75.5141   9.5658633426e+01   3.6595105000e+01    0.1509694    0.1429547  -9.39 -3.989935e-05    1.020    0.020
        42 -11.0996    175.0465    221.1474   1.2150296180e+02   9.3965499564e+00    0.3286534     0.175629  27.13  0.001964829    1.591    0.371
        43 -10.1493    191.8097    192.5938   1.1424071108e+02   1.0589335148e+01    0.3954276     0.238967 -57.39  0.001854779    3.796    0.737
        44  -9.2310    249.1813    249.6259   1.1335116099e+02  -2.7342978638e+00     0.148713   0.06301884  25.98  0.000959155    1.749    0.428
        45 -11.1092     74.8016    195.2614   1.3810992792e+02   2.6722969255e+01    0.3503189    0.2404079 -47.26  0.001447321    1.846    0.458
        46 -10.9319     79.1802    188.1482   1.3648772807e+02   2.7484224876e+01    0.2634645    0.2165128 -38.03 0.0007602109    1.559    0.359
        47 -16.4781      2.4564    138.8101   1.5055962143e+02   4.4939188212e+01     16.26245     1.478373 -79.51   0.04303339    8.226    0.878
