#   1 NUMBER                 Running object number                                     
#   2 MAG_AUTO               Kron-like elliptical aperture magnitude                    [mag]
#   3 X_IMAGE                Object position along x                                    [pixel]
#   4 Y_IMAGE                Object position along y                                    [pixel]
#   5 X_WORLD                Barycenter position along world x axis                     [deg]
#   6 Y_WORLD                Barycenter position along world y axis                     [deg]
#   7 A_WORLD                Profile RMS along major axis (world units)                 [deg]
#   8 B_WORLD                Profile RMS along minor axis (world units)                 [deg]
#   9 THETA_WORLD            Position angle (CCW/world-x)                               [deg]
#  10 FWHM_WORLD             FWHM assuming a gaussian core                              [deg]
#  11 ELONGATION             A_IMAGE/B_IMAGE                                           
#  12 ELLIPTICITY            1 - B_IMAGE/A_IMAGE                                       
         1 -12.0314     51.4071     35.1863   1.0524909210e+02   6.3852061498e+01     1.151566    0.8257732  -4.83  0.006788772    1.435    0.303
         2 -12.2026     58.0858     69.1943   1.1441215471e+02   5.6582214750e+01     1.649378    0.9865457 -68.81  0.007450242    2.449    0.592
         3 -12.0062    114.7854     61.6054   9.3418789673e+01   4.7764076872e+01     1.965863     1.159473  12.48  0.006769551    3.461    0.711
         4 -11.6825     17.9803     40.5914   1.2192423151e+02   6.6489586952e+01     1.205807    0.8264978 -46.34  0.004516268    1.197    0.165
         5 -11.2338     54.3484     17.3042   9.6294174731e+01   6.6096402227e+01    0.4132092    0.2830178 -10.37  0.002464555    1.408    0.290
         6 -10.3898     78.4610      7.1345   8.2860992153e+01   6.2973417850e+01    0.6708284    0.4579767   0.43  0.003613939    1.510    0.338
         7  99.0000     40.7935      4.7305   9.5945586647e+01   6.9711726983e+01      1.05557     0.282686  43.44  0.003904026    3.979    0.749
         8 -10.6758     26.2739      4.8192   1.0300829215e+02   7.1581233180e+01    0.6339301    0.2586989 -23.42  0.002899907    2.971    0.663
         9  99.0000     31.0381     12.2559   1.0433714363e+02   6.9997502937e+01    0.6062568    0.2384953 -31.15  0.002509423    2.453    0.592
        10 -10.6679     17.6817      2.8117   1.0653212779e+02   7.2788968434e+01    0.5996378    0.3407784  30.89   0.00383095    1.898    0.473
        11 -11.8973      9.3358     25.9667   1.2113448458e+02   6.9806422779e+01     1.274958    0.5015557   7.54   0.00593199    3.574    0.720
        12 -12.2117     18.7815     13.6132   1.1120531621e+02   7.1100590648e+01     0.578228    0.5006965   3.39  0.004239782    1.281    0.219
        13 -11.6642     41.3187     17.3765   1.0192826855e+02   6.7972842990e+01     1.015008    0.5670603 -30.07  0.005774312    1.625    0.385
        14 -11.4073     50.6183     10.7928   9.4729805409e+01   6.7512725557e+01    0.5157726    0.3342927  23.33  0.001877191    1.442    0.307
        15 -11.1562     68.8706      4.4541   8.4726564943e+01   6.5090932025e+01    0.7386563    0.3440883  36.99  0.003637069    1.964    0.491
        16 -12.0644     57.8885      4.1673   8.8539243522e+01   6.7088800581e+01    0.7436047    0.4048911  50.14  0.004019883    1.962    0.490
        17 -13.2555      4.5311     14.6892   1.1936401965e+02   7.2072547918e+01     1.110537    0.5048879 -43.28  0.004544832    1.674    0.403
        18 -11.0244      2.3413      3.0421   1.1548668163e+02   7.4081834473e+01    0.3297472    0.2042392   6.40  0.001902308    1.586    0.369
        19 -11.9990     29.9812     24.0590   1.1018111276e+02   6.8316128842e+01    0.4822384    0.2781834 -34.79  0.001561789    1.478    0.323
        20 -12.3789    163.8404     10.4126   6.6041383820e+01   4.2359771472e+01     1.313609     1.109485  21.02  0.007614117    1.395    0.283
        21 -11.1208    162.5624     25.2689   7.0812903821e+01   4.1128171391e+01     2.319835    0.4871735  65.71  0.006341763    4.517    0.779
        22 -11.1979    106.8362     29.9905   8.4216878354e+01   5.4352450827e+01     1.291317    0.5647935  58.58  0.005164123    2.404    0.584
        23 -12.1412     91.6569     18.3343   8.3788217568e+01   5.9074601648e+01      1.12632    0.4691304  -9.91  0.002605055    4.980    0.799
        24 -12.1228    132.4862      4.6290   6.9057415424e+01   5.0892553268e+01      1.10517    0.3932081  59.88  0.004204453    2.232    0.552
        25 -11.5056    123.7418      9.8783   7.2600490270e+01   5.2585506911e+01    0.4392887    0.3581309  44.76  0.001227621    1.101    0.092
        26 -11.1065    149.4657     16.9205   7.0313718750e+01   4.5429738866e+01    0.7477897    0.3652479  32.88  0.002541923    2.816    0.645
        27 -12.2738    112.2542     21.5041   7.9553714550e+01   5.4136763617e+01    0.7413031    0.6379991 -54.21  0.002285669    1.395    0.283
        28 -12.0680    126.6697     15.6269   7.4111746253e+01   5.1310095945e+01     2.342508    0.3212554  46.68  0.005375704    7.009    0.857
        29 -12.2779    117.1699     15.5868   7.6137153668e+01   5.3615099362e+01    0.2896933    0.2639356  58.26 0.0004019508    1.096    0.088
        30 -12.1380     66.4742     30.3989   9.7329974302e+01   6.2289810252e+01     1.243132    0.7977356  43.26  0.006804532    1.627    0.385
        31 -11.6103     67.1485     21.7406   9.3343406735e+01   6.3392400798e+01    0.4692167    0.3727219  25.67  0.002096733    1.150    0.130
        32 -11.2723     72.7417     17.6351   8.9510994748e+01   6.2909969188e+01     1.065721    0.3259944  48.33  0.004128343    3.095    0.677
        33 -13.5184     99.8290      6.1734   7.6488292427e+01   5.8534661620e+01    0.7051125    0.4539653 -31.57  0.001358229    1.731    0.422
        34 -11.7225     93.1896      8.2334   7.9073566493e+01   5.9805963617e+01    0.6179178    0.3067701  42.67   0.00277159    1.769    0.435
        35 -11.3771     78.0044     29.2374   9.2706091979e+01   6.0411954535e+01    0.7510719    0.4319327 -31.13  0.002556907    1.732    0.423
        36  -9.5863    186.7037     21.3950   6.6184849449e+01   3.5283852423e+01    0.6338432    0.2754351 -45.97  0.002599196    2.384    0.581
        37  -9.9869    185.0533     14.3538   6.4424292240e+01   3.6469739701e+01    0.4907033     0.255158  50.55  0.002020296    1.955    0.488
        38 -10.1126    182.7897     21.9537   6.6854561490e+01   3.6234475334e+01    0.4478128    0.2283956 -45.86  0.001292955    2.032    0.508
        39 -10.9676    177.3176     29.8222   6.9895417949e+01   3.6743846552e+01    0.5499914    0.4549494  -7.56  0.002177017    1.464    0.317
        40 -11.5796    114.2261      8.3983   7.4033930812e+01   5.5011348228e+01      1.47772    0.5198342  45.42  0.005799994    2.530    0.605
        41 -10.7570    213.9250     23.2407   6.3492509246e+01   2.8179867431e+01     0.865078    0.4442609 -25.86  0.003956277    2.196    0.545
        42 -11.2144    223.3901      2.4915   5.7593376934e+01   2.8126263540e+01     0.727007    0.3967771 -59.24   0.00374674    1.726    0.421
        43  -9.4240    230.0070      3.0246   5.7199127966e+01   2.6511987512e+01    0.3155431    0.2000785  40.78  0.001551146    2.237    0.553
        44  -9.8208    218.4732     13.8327   6.0716680579e+01   2.8124001988e+01    0.3440593    0.2275322  75.96  0.001813984    1.383    0.277
        45  -9.6943    221.6938     11.5663   5.9876598015e+01   2.7590325425e+01    0.4171902    0.3211853 -66.55  0.001812853    1.158    0.136
        46 -10.2354    212.4892     13.0685   6.1099784080e+01   2.9670211512e+01    0.3982126    0.2772703 -46.77  0.001197925    1.383    0.277
        47 -11.1376    246.6882      4.7943   5.6372520249e+01   2.2526180136e+01    0.7688484     0.347417 -65.95   0.00363854    2.241    0.554
        48 -10.1213    243.2498     12.4257   5.8280440342e+01   2.2470264837e+01    0.3816588    0.2701278 -32.60  0.001665937    1.489    0.329
        49  -9.7919    231.9109     19.7845   6.0894843795e+01   2.4248971330e+01    0.5398549    0.3346852 -54.15 0.0008553703    1.472    0.321
        50 -10.8905    232.8537     11.2503   5.8846494030e+01   2.4981757498e+01    0.4163909    0.2789276 -50.93 0.0006076626    1.343    0.255
        51 -10.1412    239.3204     17.1285   5.9643231665e+01   2.2835922281e+01     0.496378    0.1936195 -47.22  0.001309216    2.250    0.556
        52 -10.9177    202.2166     19.6606   6.3853218259e+01   3.1511651455e+01    0.4751103    0.3194863  65.91  0.001206761    1.379    0.275
        53 -10.8814    147.6302     11.0242   6.8679607476e+01   4.6484834098e+01    0.4009475    0.3392456  85.83 0.0004643947    1.176    0.150
        54 -10.3859    189.2508      8.7252   6.2384849582e+01   3.5962880965e+01     1.349825    0.3378323  50.29   0.00410774    4.560    0.781
        55 -10.7045    200.4895      6.5169   6.0619579819e+01   3.3332491400e+01    0.5911996    0.2781453 -39.84  0.002300599    2.061    0.515
        56 -10.8879    204.1771      6.8373   6.0340319582e+01   3.2377621543e+01    0.3211954    0.2824256 -47.24 0.0004068344    1.210    0.173
        57 -11.4620    208.4068      3.4201   5.9087088172e+01   3.1666692402e+01    0.5873564    0.3726057 -89.34  0.002450128    1.447    0.309
        58  -8.5220    180.8335      8.2434   6.3216828729e+01   3.8171061372e+01     0.254892    0.2091144 -50.00  0.001485632    1.267    0.211
        59  -9.6098    180.6801      4.6619   6.2227501849e+01   3.8550016288e+01    0.4096963    0.2117233  45.33  0.001854684    2.161    0.537
        60 -10.2267    173.9055      8.5984   6.4164463844e+01   3.9925980825e+01    0.2872721    0.2076808 -59.38 0.0008914208    1.447    0.309
        61 -10.2668    175.2828      4.3908   6.2779142920e+01   3.9963941837e+01    0.5882674    0.4080072  76.19  0.003189783    1.265    0.210
        62  -8.3735    238.4584      7.4551   5.7549755361e+01   2.4096919842e+01    0.1255636    0.1060111 -75.84 0.0001567581    1.042    0.040
        63 -10.9590    147.7082     25.9341   7.3591810565e+01   4.4897395398e+01    0.8069898    0.4974507  28.35  0.003616448    2.050    0.512
        64  -8.4608    236.4618      1.4315   5.6364221615e+01   2.5181230516e+01    0.1250971    0.1033511 -77.03 0.0001236273    1.027    0.027
        65  -8.4687    189.5100      1.4651   6.0397032416e+01   3.6588474941e+01    0.1344402    0.1152613  80.26 4.933963e-05    1.048    0.046
        66 -11.7912    130.6151     20.1092   7.4915666568e+01   4.9866842999e+01     1.317345    0.4954965  52.23  0.004830624    2.241    0.554
        67 -10.3774    104.9877    116.3144   1.1201262920e+02   3.8600479150e+01     0.730193    0.4928353  55.37  0.003371917    1.608    0.378
        68  -9.8356     97.7036    115.0654   1.1377776003e+02   4.0233351639e+01    0.3673562    0.2913495  34.48  0.001228001    1.335    0.251
        69  -9.1388     41.5315    118.4636   1.3102692907e+02   4.7506375560e+01    0.1941009    0.1599439  55.94 0.0006791287    1.295    0.228
        70  -8.9535     39.2830    115.6321   1.3122643722e+02   4.8400764341e+01    0.2186753    0.1611113  87.56 0.0008243617    1.408    0.290
        71 -10.4088     25.7006    127.7038   1.3689539042e+02   4.6901833026e+01    0.4549962    0.2861245 -65.87  0.002663205    1.342    0.255
        72 -10.0849    132.7261    111.5271   1.0332838290e+02   3.3948654665e+01    0.4524343    0.4253082 -30.14  0.001880251    1.115    0.103
        73  -9.7616    133.7643    103.6321   1.0097224082e+02   3.5376095170e+01    0.5271891    0.2700188 -42.43  0.002051407    1.993    0.498
        74 -11.6022     53.2660     88.0714   1.2118741270e+02   5.3145560986e+01     1.050188    0.7931456 -53.78  0.006048333    1.184    0.156
        75  -9.1663     93.1553    111.6512   1.1428130294e+02   4.1821166454e+01     0.319936     0.234081   7.82  0.001476164    1.963    0.491
        76  -9.6528    105.3174    109.7106   1.1030173877e+02   4.0015954346e+01    0.3207478     0.277467  40.50  0.001225291    1.177    0.150
        77  -9.7167     75.4338    102.3408   1.1739909818e+02   4.6864745716e+01    0.3184266    0.2318267 -66.73 0.0009080635    1.431    0.301
        78 -11.0847     67.4463    107.7706   1.2112178990e+02   4.6800077492e+01    0.6193175    0.3925593 -24.74  0.002714541    2.341    0.573
        79 -10.1128     74.0438    108.1666   1.1918349147e+02   4.5745334325e+01     0.292776    0.2692883  11.33 0.0006745828    1.225    0.184
        80  -9.6486     35.6824    108.7969   1.3116718050e+02   5.0346664334e+01    0.4295386    0.2586783   7.96  0.002178891    2.420    0.587
        81  -9.4256    120.3225    109.0475   1.0596571864e+02   3.7144750219e+01    0.2223075    0.1981891 -53.01  0.001150583    1.130    0.115
        82 -11.4816      5.2495    117.8706   1.4138734575e+02   5.0709971295e+01    0.8291822    0.2485723 -66.63  0.003773637    2.415    0.586
        83  -8.8509     97.2254    103.9184   1.1117611401e+02   4.2826282294e+01    0.3122006     0.184702  65.49  0.001192163    2.674    0.626
        84  -8.5320    105.9538    102.9492   1.0838346291e+02   4.1384297118e+01    0.1809762    0.1678598 -49.23 0.0005627999    1.067    0.063
        85  -8.8593    140.9950    101.6896   9.8608534231e+01   3.4130051551e+01    0.2246868    0.2024629  47.66 0.0006118248    1.088    0.081
        86  -9.1788     81.3603    101.9510   1.1546765953e+02   4.6016064651e+01    0.2357711    0.1985721  54.21  0.001260101    1.273    0.214
        87 -11.0941    116.1359     98.5045   1.0430317414e+02   4.0280746870e+01    0.6209682    0.4664416 -48.66  0.001878646    1.341    0.254
        88 -10.5097     88.7616     98.7158   1.1237629569e+02   4.5495280679e+01     0.715145    0.5047982 -12.51  0.003234926    2.086    0.521
        89 -10.1520     60.5470     53.8348   1.0856483710e+02   5.9263253244e+01    0.4071825    0.2890641 -42.03  0.002289199    1.316    0.240
        90 -10.2273     56.6122     48.1001   1.0805756588e+02   6.0882792552e+01    0.6969632    0.4820274   1.12  0.003786276    1.692    0.409
        91  -9.8527    142.1897    243.6091   1.2520836509e+02   6.3435852614e+00    0.2253393    0.1593162  24.87 0.0006502788    1.585    0.369
        92 -10.8416     88.9085     89.2921   1.0979653912e+02   4.7526978328e+01    0.6072783    0.4563938 -20.95  0.002453604    1.593    0.372
        93  -9.1188    211.1614    241.1593   1.1209838041e+02  -4.5109940970e+00    0.1481412    0.1301693  35.30 0.0005983931    1.308    0.236
        94 -10.7315     32.4082     70.7404   1.2441367788e+02   5.9175712098e+01    0.4543007    0.2773759 -37.96  0.001600452    1.551    0.355
        95 -11.3670     83.0262     88.7796   1.1151323106e+02   4.8653313343e+01    0.8786069    0.4216782 -54.37  0.001102493    2.142    0.533
        96 -12.4038     81.6810     75.2239   1.0802222588e+02   5.1733173715e+01    0.8716848    0.5567855 -38.74            0    1.532    0.347
        97 -12.0534     46.7849     70.0083   1.1881668277e+02   5.7830256779e+01     1.361472    0.7078084  51.88  0.005862671    3.019    0.669
        98 -11.8815     34.1295     59.5817   1.2076139897e+02   6.1340508722e+01     1.161356    0.6118761 -23.46  0.005472342    2.513    0.602
        99 -11.4055     40.2040     49.8999   1.1529761653e+02   6.2619493166e+01    0.7295483    0.2801473  24.06  0.003077467    3.216    0.689
       100 -11.1051     37.6816     43.7023   1.1424811899e+02   6.4064986015e+01    0.4994774    0.3979588  86.45  0.002600701    2.172    0.540
       101 -11.4679      4.8874     79.9191   1.3637872932e+02   5.9189056357e+01    0.6152527    0.3115746 -68.74  0.002285771    1.600    0.375
       102  -9.7049    159.1461     97.1004   9.3015873995e+01   3.0736123614e+01    0.4003447    0.2671312  50.06  0.001387473    1.462    0.316
       103  -9.1891    188.2742     93.7691   8.6011347878e+01   2.4215645667e+01    0.2733346    0.2340691 -72.27  0.001351315    1.284    0.221
       104 -10.9404    110.6738     58.6176   9.3568696007e+01   4.9187296152e+01    0.8441758    0.3826387  32.00  0.002805356    3.338    0.700
       105 -10.4160    115.0398     51.1806   8.9774450316e+01   4.9444182960e+01    0.5400261    0.4261326  -0.49  0.002379617    1.450    0.310
       106 -11.1375    119.8977     86.5501   9.9852245492e+01   4.1944526994e+01    0.7824541    0.3345856  48.93  0.002657919    2.363    0.577
       107  -9.7269    123.3520     81.0638   9.7266264496e+01   4.2262137652e+01    0.5365764    0.3302906  15.60  0.001909808    3.005    0.667
       108  -9.3835    113.7032    239.0170   1.3009191712e+02   1.1656244927e+01    0.1719621     0.143184  59.09  0.001178818    1.086    0.079
       109 -11.4031     96.9076     62.9812   9.9165653358e+01   5.1290867213e+01     0.981692    0.6418353   7.65  0.002949998    2.347    0.574
       110 -11.2280    104.9664     53.8646   9.3574241070e+01   5.1225434023e+01     1.004534    0.3325906  40.37  0.002732078    3.399    0.706
       111 -11.4395    106.7577     86.4295   1.0355813545e+02   4.4737109301e+01    0.8951124    0.6568406  -8.93  0.004085131    1.861    0.463
       112 -12.2243    123.0345     66.8340   9.2887659900e+01   4.4979986898e+01     1.256851    0.9400661 -52.72  0.005125006    1.497    0.332
       113 -10.0356    126.7602     63.9049   9.0953680811e+01   4.4628636917e+01     0.397812    0.2191086  37.49  0.001018525    2.008    0.502
       114 -10.0961    121.1680     91.4630   1.0093246951e+02   4.0672868029e+01    0.3725821    0.2723625  59.79  0.001045014    1.507    0.337
       115  -8.8243    194.5209     90.0019   8.3845102150e+01   2.3341458101e+01    0.2302196    0.1486509 -35.18 0.0007239056    1.559    0.358
       116  -9.6571     74.5648     88.8718   1.1427064982e+02   5.0004078571e+01    0.4339578    0.3153616 -11.78  0.002024043    1.826    0.452
       117  -9.8706    104.2131     93.4779   1.0632283850e+02   4.3769748637e+01    0.3592457    0.2791332  62.65 0.0007892168    1.482    0.325
       118 -11.6483    100.6387     78.3371   1.0295780832e+02   4.7604666272e+01    0.9570425    0.8272833  35.50  0.005180581    1.165    0.142
       119 -10.2955     75.7282     82.6306   1.1217291916e+02   5.1169262161e+01    0.2842507    0.2284994 -62.41 0.0007086087    1.330    0.248
       120 -10.9004     29.1212     82.1962   1.2825817144e+02   5.6981116751e+01      0.47947    0.3875229 -69.56  0.001871574    1.178    0.151
       121  -9.0839    162.1766     87.9480   8.9786163484e+01   3.1714735599e+01    0.2859313    0.2118803 -63.52 0.0007980494    1.604    0.377
       122  -9.5802    160.7289     82.2004   8.8464564136e+01   3.3119364067e+01    0.4541533    0.3384445 -39.07   0.00213605    1.373    0.272
       123  -9.7971    152.9009     87.3795   9.1719512822e+01   3.4099020834e+01    0.3476702    0.2619466  39.87 0.0007943656    1.363    0.267
       124  -9.5508    238.4987     86.5040   7.5935596545e+01   1.3628342506e+01    0.2485402    0.1333095 -22.11  0.001031931    2.311    0.567
       125  -9.0407     97.0562     86.4904   1.0648072236e+02   4.6627884170e+01    0.2232563     0.144272  40.42  0.001028728    1.581    0.367
       126  -9.8283    217.7446     79.8027   7.7324765087e+01   1.9409267241e+01    0.7084634    0.3408182 -15.67  0.002131161    4.529    0.779
       127 -10.9406    134.4822     80.9223   9.4298049061e+01   3.9733514057e+01    0.6220334    0.4636033 -24.00  0.002900614    1.525    0.344
       128  -9.7559     17.7825     82.0696   1.3223944581e+02   5.7906673952e+01    0.2238509    0.1688889  -3.15  0.001445477    1.611    0.379
       129 -10.0114     90.1269     78.1367   1.0616648238e+02   4.9645315446e+01    0.5428973    0.2485475  40.20  0.002181976    2.250    0.555
       130 -10.9522    149.9686     77.0094   8.9361629299e+01   3.6720128918e+01    0.6218388    0.4951511  45.52  0.002853409    1.232    0.189
       131 -10.2837     36.8526     75.7794   1.2400212761e+02   5.7666110903e+01    0.2540077    0.1797066 -39.44 0.0005044108    1.306    0.235
       132  -8.9718     25.0803     74.8738   1.2812664086e+02   5.8924636974e+01    0.2793657    0.1308627 -17.21  0.001091368    4.085    0.755
       133 -10.5896     18.9944     72.7852   1.2992838021e+02   5.9845652224e+01    0.4287469    0.2703375 -30.82  0.002529758    1.668    0.401
       134  -8.8804    192.9187     74.1246   7.9886804170e+01   2.6391644491e+01    0.2316038    0.1960139 -68.38 0.0004732713    1.237    0.192
       135  -9.7782      3.0321     57.6105   1.3287142477e+02   6.4036218498e+01     0.557274     0.342638  87.66  0.003188879    2.239    0.553
       136 -10.2895      5.8321     71.3557   1.3453423082e+02   6.0990883580e+01    0.4444079    0.2787077  68.78  0.001889516    2.222    0.550
       137  -8.9842      9.9974     70.2383   1.3276690645e+02   6.0991115293e+01    0.3564556    0.1728726 -20.29   0.00176064    2.843    0.648
       138 -10.5752     13.3463     56.5885   1.2842167001e+02   6.3648828910e+01    0.2678964    0.2158802  29.90  0.001872729    1.516    0.340
       139  -9.2101     21.5408     63.5329   1.2682659452e+02   6.1623538323e+01    0.2387558    0.1484875 -36.54 0.0007555595    1.492    0.330
       140 -10.7743     11.2861     63.5795   1.3087785142e+02   6.2326439118e+01    0.3715272    0.2256472 -65.30  0.001191086    1.435    0.303
       141 -11.5415     16.1114     61.2004   1.2841882299e+02   6.2508246394e+01    0.5604885    0.2953028  12.79  0.002553869    2.310    0.567
       142  -9.3261    215.0366     71.7943   7.5708272403e+01   2.1303593766e+01    0.3036259    0.2139349 -19.31 0.0009724638    1.679    0.405
       143 -10.3853    151.5114     67.1245   8.6019320469e+01   3.8052391681e+01    0.7714422    0.2820449  46.13  0.002539854    2.777    0.640
       144 -10.2813    132.5606     68.4201   9.0920643604e+01   4.2472188012e+01    0.5099705    0.3524653  83.59  0.002130408    2.173    0.540
       145 -11.2748    140.4262     68.2883   8.8942197622e+01   4.0599211953e+01    0.8147357    0.5306556  65.82  0.003513847    1.739    0.425
       146  -8.6850    155.1373     71.1376   8.6435683221e+01   3.6461621810e+01    0.2171291    0.1801143 -65.20 0.0007801827    1.346    0.257
       147 -10.4770    250.3051     67.1073   6.9925124269e+01   1.3925908548e+01    0.5456244    0.1788261 -29.96  0.001941875    3.243    0.692
       148 -11.5906    164.2509     62.8973   8.2043981536e+01   3.5510318646e+01    0.6654649    0.6333721  27.49  0.003629063    1.113    0.101
       149 -10.9043    164.9767     56.9889   8.0125652512e+01   3.6247158124e+01    0.6058705    0.5244505  23.12   0.00212827    1.305    0.234
       150  -8.5186    189.0390     64.5445   7.7928559028e+01   2.8892607673e+01    0.2227485    0.1445254  64.85 0.0005547294    1.534    0.348
       151 -10.2899     87.7452     41.8227   9.4479800592e+01   5.6690929502e+01    0.8329049    0.4190905  35.99  0.003647901    2.072    0.517
       152  -9.8262    100.0515     37.9919   8.9199965190e+01   5.4749126745e+01    0.3498698    0.2886969   3.91  0.001410691    1.242    0.195
       153 -10.6742     95.1453     47.2037   9.4146621192e+01   5.4364754390e+01    0.8036604    0.5340553  -9.29  0.003778955    1.908    0.476
       154 -10.4095     70.9784     54.4635   1.0492727630e+02   5.7543378813e+01    0.3816629    0.3456815 -72.10 0.0006581873    1.421    0.296
       155 -10.5094     76.0488     51.7088   1.0213995221e+02   5.7191773067e+01    0.7547053    0.3800647 -48.41  0.003204378    2.197    0.545
       156 -11.2992     85.5990     52.6251   9.9201247556e+01   5.5318513229e+01    0.7128454    0.4317468 -14.30  0.002760704    2.334    0.572
       157 -10.9629     83.4654     59.0082   1.0216240946e+02   5.4569349814e+01      0.50092     0.339082  57.22   0.00243309    1.901    0.474
       158 -11.0456     89.1834     57.3885   9.9708513401e+01   5.3804225947e+01    0.4697366    0.3639093  44.93  0.001573619    1.335    0.251
       159  -8.2584      5.3107     63.6350   1.3322664791e+02   6.2660249040e+01    0.1118176    0.0818683  77.36 0.0004941871    1.756    0.430
       160 -11.2345     68.8656     74.5688   1.1217169112e+02   5.3930347990e+01     1.123099     0.767727 -25.40  0.005683544    1.662    0.398
       161  -8.8295    218.9859     60.5275   7.2288307017e+01   2.2036779652e+01    0.3422142    0.2147875  56.56  0.001624558    1.615    0.381
       162  -9.9374    222.4008     57.4831   7.1069017014e+01   2.1654637323e+01    0.3384693     0.285228  87.51  0.001173611    1.173    0.148
       163  -9.1036    184.1499     60.6612   7.7681491512e+01   3.0741250616e+01    0.4266925    0.2368789  77.42  0.001650236    2.317    0.568
       164 -10.6677    181.0087     56.1958   7.6953506529e+01   3.2223600845e+01    0.4436845    0.2534265  43.56  0.001731776    1.927    0.481
       165 -10.4058    178.5081     49.5102   7.5451771176e+01   3.3844777958e+01    0.5423142    0.4238964 -77.20  0.002726068    1.398    0.285
       166 -10.6111    173.9891     57.4620   7.8567447459e+01   3.3847420509e+01    0.6369466    0.3921407 -26.12 0.0005367566    1.832    0.454
       167  -9.4289    176.4635     53.4573   7.6953371964e+01   3.3804413490e+01    0.3083961     0.225885 -65.43 0.0008301333    1.544    0.352
       168  -9.1924    149.3941     59.3952   8.4088665015e+01   3.9851341415e+01     0.315863    0.2263217 -50.40  0.001476796    1.527    0.345
       169 -10.2046    201.3844     57.6708   7.4071482282e+01   2.6798671576e+01    0.5292096    0.3698774  15.53  0.002363298    2.176    0.541
       170  -9.3298    158.5885     58.5631   8.1879724730e+01   3.7645490168e+01    0.3673223    0.2300103  28.34  0.001279487    2.178    0.541
       171 -11.5522    140.4971     51.5142   8.3543913872e+01   4.3310039796e+01     1.013135    0.3825566  50.27  0.002660305    2.429    0.588
       172  -9.2964    152.5695     56.5160   8.2500185564e+01   3.9500315599e+01    0.2750585    0.2386763 -12.64 0.0004524757    1.285    0.222
       173 -10.6816    150.5580     52.0845   8.1527272122e+01   4.0688812642e+01    0.5234312    0.3820307 -12.34  0.002159662    1.673    0.402
       174 -10.9443     31.0966     43.1449   1.1690516280e+02   6.4855689585e+01    0.3140254    0.2654196  59.19 0.0005528595    1.731    0.422
       175  -8.7543    192.9549     54.0034   7.4371641374e+01   2.9472997654e+01    0.2376722    0.1643248 -70.52 0.0004956459    1.674    0.403
       176  -9.4108    178.0840     60.3500   7.8663450559e+01   3.2349746334e+01    0.3006784    0.2566729 -53.40 0.0007806013    1.196    0.164
       177  -9.5277     12.6525    232.7165   1.4806346144e+02   2.6075471239e+01    0.2425985    0.1047297  69.31   0.00144905    1.914    0.477
       178  -8.6658    227.1573    231.6071   1.0776551728e+02  -5.8258974202e+00    0.1767678   0.08969746  29.59 0.0009452644    1.708    0.415
       179  -8.8388     40.9590    221.5162   1.4235943180e+02   2.5050223863e+01     0.133984    0.1017725   6.18 0.0008099041    2.585    0.613
       180  -8.0501    169.3315    207.3344   1.1469479245e+02   7.4528063783e+00    0.1366453   0.09888864  11.30 0.0007052196    1.730    0.422
       181  -9.4746    244.7239    204.4410   1.0004324425e+02  -5.1751778367e+00    0.1729004   0.09869981  27.41 0.0009418746    1.618    0.382
       182  -9.0755    234.3680    200.8364   1.0117788186e+02  -3.0381557354e+00     0.178419    0.1075041 -19.11 0.0009524601    1.760    0.432
       183 -10.7391     26.6336    191.3731   1.4296011242e+02   3.2682323675e+01    0.3282864    0.2491683  72.90  0.001839441    1.041    0.039
       184 -10.2737     36.7961     27.6558   1.0851206696e+02   6.6963801860e+01     0.280578    0.2388225 -10.30  0.001912648    1.079    0.073
       185 -11.1287     17.9753    186.2149   1.4436115957e+02   3.4629419608e+01     0.399352    0.2819414 -40.37  0.001975556    2.227    0.551
       186  -9.7875     11.8370    184.4733   1.4550008972e+02   3.5569678726e+01    0.2213228    0.1136655 -64.61  0.001253468    1.895    0.472
       187 -11.0624      5.7572    185.5722   1.4680005678e+02   3.5883651959e+01    0.5138049    0.1493727  53.19   0.00241683    2.950    0.661
       188  -9.5851      1.6170    177.9989   1.4717834621e+02   3.7804335228e+01    0.2355688    0.1067829 -88.82  0.001322606    1.846    0.458
       189  -9.3285     38.4843    175.9250   1.3909113172e+02   3.4698717016e+01    0.1827057    0.1047806 -76.16 0.0006719516    1.558    0.358
       190  -8.8515     63.1148    167.8926   1.3246748740e+02   3.3450773231e+01    0.2088174     0.156177  74.91 0.0007946016    1.250    0.200
       191 -11.3590     25.6906     53.0978   1.2234924008e+02   6.3424133250e+01    0.2977066    0.2106785  -7.94 0.0006015089    1.548    0.354
       192 -10.5048     28.9664     49.0240   1.1973908507e+02   6.3935882164e+01    0.2250974     0.187442 -28.12            0    1.056    0.053
       193  -8.7910     27.4826    167.4862   1.4078137831e+02   3.7719299370e+01    0.2563481    0.1005118 -73.17  0.001221829    2.207    0.547
       194  -9.2319      9.0861    167.5155   1.4489593395e+02   3.9408182333e+01    0.1510314    0.1069789  38.48  0.001024574    1.567    0.362
       195 -11.7655     28.3134     29.0958   1.1302679716e+02   6.7651113354e+01      0.40529    0.2989368  13.76  0.001696799    1.383    0.277
       196 -10.1033     13.9654    165.3062   1.4364751526e+02   3.9467096060e+01    0.2607015    0.2040283  58.98  0.001689337    1.233    0.189
       197  -8.6382    238.4191     52.2132   6.7838642414e+01   1.8642898616e+01    0.1886398    0.1133519 -44.36    0.0004794    1.506    0.336
       198  -8.7946      7.6533     49.9569   1.2916354700e+02   6.5348467496e+01    0.3698478    0.2748101  58.17  0.002432928    1.926    0.481
       199  -9.0207     16.3645     50.8134   1.2565447692e+02   6.4613803517e+01    0.1702868   0.08043905 -47.86 0.0006530284    1.652    0.395
       200  -9.2115    188.9197     49.2789   7.3690959496e+01   3.1183600613e+01     0.278354    0.1905621 -60.28  0.001060985    1.595    0.373
       201 -10.5849    158.3510     50.6000   7.9468811563e+01   3.8912870599e+01    0.6458114    0.4708765  42.51  0.003127348    1.401    0.286
       202 -10.5634    102.2708     70.7131   1.0006579249e+02   4.8767881497e+01    0.5393296    0.3544403 -55.68  0.002012245    1.810    0.447
       203  -9.1788    171.3038     48.9027   7.6522614528e+01   3.5803042278e+01    0.2553764    0.1744528 -37.55 0.0007715613    1.511    0.338
       204  -8.9277    154.9741     33.5662   7.4737103663e+01   4.2105320910e+01    0.2834342    0.1940596   2.00 0.0008858576    1.991    0.498
       205  -9.6297    129.8496     46.3455   8.4296861010e+01   4.6703180919e+01    0.2815079    0.2107579 -22.59 0.0007117587    1.452    0.311
       206 -10.4122    148.1316     35.0051   7.6499162000e+01   4.3685610825e+01    0.7432312    0.2565105  58.17  0.002642612    2.525    0.604
       207 -10.1613    130.2933     40.3960   8.2139846767e+01   4.7445588241e+01    0.3449161    0.2710378 -42.48  0.001098018    1.381    0.276
       208 -11.0567    135.0217     34.2380   7.8943178991e+01   4.7099980657e+01    0.4193892    0.3843073  18.62 0.0004204693    1.135    0.119
       209 -11.0467    141.0029     40.0554   7.9632400639e+01   4.4832050624e+01    0.7132323    0.6197729  46.80  0.003905185    1.085    0.078
       210  -9.1153    135.3768     42.2279   8.1602030616e+01   4.5938700348e+01    0.2898812    0.1970604 -32.28 0.0005692562    1.556    0.357
       211 -10.0029    124.7180     37.0656   8.2288200401e+01   4.9253536038e+01    0.3234265    0.3042848  10.41  0.001160466    1.085    0.078
       212  -9.7555    125.3837     32.8344   8.0619055330e+01   4.9649226054e+01     0.307489    0.2242086   6.20  0.000816897    1.654    0.396
       213 -10.3194    220.6239     44.9633   6.8169013897e+01   2.3816372920e+01     0.458923    0.2176277 -48.30  0.001965487    2.062    0.515
       214  -9.4585    208.1358     45.6813   6.9940051814e+01   2.6795239103e+01    0.5732267    0.3573923 -62.00  0.002671477    1.754    0.430
       215  -9.6652    200.5963     30.4820   6.6902985767e+01   3.0657415354e+01    0.5198413    0.2339395  45.55  0.001950329    2.732    0.634
       216 -10.8848    203.0927     37.5630   6.8466789137e+01   2.9136872680e+01    0.5087351    0.4578983  -2.44  0.002728603    1.356    0.262
       217 -10.4933    209.9709     33.1458   6.6455634639e+01   2.7968243737e+01    0.4019583    0.3436334 -76.18  0.001355333    1.075    0.070
       218  -9.3492    104.6954     45.6581   9.0707379769e+01   5.2604010669e+01    0.2739008    0.2571003 -42.04  0.001337527    1.180    0.152
       219  -9.7424    107.0373     44.0600   8.9450609721e+01   5.2337368977e+01    0.3855244    0.3155569 -79.18  0.001361374    1.683    0.406
       220  -9.9660     78.4299     60.8556   1.0450581766e+02   5.5111959954e+01    0.5018418    0.4116268 -66.56   0.00275515    1.559    0.359
       221 -10.1759    230.6776     44.5857   6.6899173894e+01   2.1465658289e+01    0.4506148    0.2124874  55.79  0.001993544    2.189    0.543
       222 -10.5996    118.2718     41.9086   8.5626325978e+01   5.0106615976e+01    0.5529765    0.3183151 -40.13  0.002495752    1.862    0.463
       223  -9.5773     67.3001     43.5625   1.0228759703e+02   6.0060814940e+01    0.4174933    0.1385294 -41.25  0.001595065    2.897    0.655
       224  -8.6141     49.1305     45.6844   1.1017253698e+02   6.2332298122e+01    0.1613783    0.1095307  16.05 0.0003642166    1.596    0.373
       225  -8.9425    248.8408     44.1780   6.4874801178e+01   1.7378702167e+01    0.1704889    0.1589537  23.24  0.001083668    1.376    0.273
       226  -8.5085    156.6540     44.2515   7.7813868756e+01   4.0257847838e+01    0.1486667    0.1117931 -81.89 0.0004133831    1.583    0.368
       227  -8.1902      1.5693     44.3917   1.3041847998e+02   6.6786067425e+01    0.1145842   0.08287197 -42.94 0.0001482488    1.093    0.085
       228  -9.0944    214.9404     42.2841   6.8190406987e+01   2.5561686051e+01    0.2318321    0.1847015  -8.70 0.0009506324    1.603    0.376
       229  -9.3754    196.7958     42.0547   7.0525567903e+01   3.0150605157e+01    0.2339401    0.1942136  77.80 0.0004461877    1.137    0.120
       230  -9.9952    194.6110     31.0814   6.7831991454e+01   3.2112349689e+01    0.3816957    0.2849682  -2.57  0.001285574    1.805    0.446
       231  -9.7102    190.8725     40.6207   7.0978964709e+01   3.1861163790e+01    0.3485328    0.2670716   3.63  0.001095499    1.759    0.431
       232  -9.2740    192.4469     36.6767   6.9661469179e+01   3.1968216082e+01    0.4232772    0.2384329  86.02  0.001785599    2.105    0.525
       233 -10.3323    180.4480     38.6852   7.1997177706e+01   3.4816422436e+01    0.5170164    0.3656949 -38.56   0.00258972    1.457    0.314
       234 -10.2626    161.9746     39.4035   7.5303969175e+01   3.9536718214e+01    0.5092233    0.2390762 -28.04  0.001599893    2.338    0.572
       235  -9.6011     77.3516     41.4887   9.7859048245e+01   5.8689080543e+01    0.2511404    0.2209125  63.98 0.0007704252    1.481    0.325
       236  -8.3268    173.4566     38.9536   7.3192317330e+01   3.6603456232e+01    0.2017492    0.1080438 -54.82  0.000802678    2.248    0.555
       237 -10.2866    109.8071     37.6507   8.6312569564e+01   5.2654048092e+01    0.5041652    0.3535339  50.21  0.001285388    1.348    0.258
       238 -10.5558      2.5105    159.8314   1.4579047147e+02   4.1595223878e+01    0.5526695    0.1985928 -82.26  0.002677829    2.374    0.579
       239 -10.6624     16.9361    158.7159   1.4241928219e+02   4.0651647106e+01    0.3713472    0.2653104 -41.54   0.00230818    1.887    0.470
       240  -9.1988     10.1684    157.7324   1.4389872827e+02   4.1445513438e+01    0.2194698    0.1103715 -55.85 0.0008779899    2.077    0.519
       241 -11.0188     89.0025     34.1537   9.1080512866e+01   5.7588181525e+01    0.9654749    0.4971757  45.15  0.004470291    1.840    0.457
       242  -8.9118     22.9972    134.0514   1.3840657487e+02   4.5681818520e+01    0.1887223    0.1577942  36.59  0.001275035    1.395    0.283
       243 -12.1341     19.2750    147.7888   1.4084139672e+02   4.2885076778e+01    0.7301844    0.5489051 -56.92  0.004806892    1.406    0.289
       244 -10.3821     21.6958    138.4865   1.3925413495e+02   4.4781971080e+01    0.3857904    0.2711354  -8.48   0.00223916    2.233    0.552
       245 -10.6412     34.8271    150.1518   1.3723319779e+02   4.0863445951e+01    0.2945988    0.2285717  88.50  0.001120577    1.109    0.098
       246 -10.6916      6.4373    144.3420   1.4365812690e+02   4.4695364838e+01    0.6010048     0.325464 -74.72  0.003569077    1.480    0.324
       247 -10.0502      1.3822    144.2243   1.4486690321e+02   4.5086527293e+01    0.6401851   0.07943686 -74.27  0.001985608    5.531    0.819
       248 -11.1263      7.4262    134.8080   1.4254350196e+02   4.6751572759e+01    0.6630487    0.2815189  24.11  0.002391446    2.866    0.651
       249 -11.5864     14.0309    130.6951   1.4040495066e+02   4.7186352769e+01     0.764189    0.3990787  86.18  0.004015785    1.954    0.488
       250  -8.4829     60.5239    147.5380   1.3030544003e+02   3.8452445531e+01    0.1323432    0.1178849 -87.19 0.0001601472    1.029    0.028
       251 -10.9185     39.1274    146.4580   1.3570002419e+02   4.1256211638e+01    0.4527636    0.3162879 -76.99  0.001594175    1.248    0.199
       252  -9.7546     66.8226    148.2891   1.2877666306e+02   3.7428053993e+01    0.2699992    0.1862729  68.10    0.0014208    1.529    0.346
       253  -9.7229     49.3196    138.4078   1.3192849470e+02   4.1975212928e+01    0.4875761    0.1884892  50.03  0.001969774    2.935    0.659
       254  -9.7812    168.6786     37.0416   7.3412818713e+01   3.8098684680e+01    0.3852365    0.2267134 -45.06  0.001732561    1.796    0.443
       255  -9.9176     54.6509    137.5594   1.3035818721e+02   4.1528684232e+01    0.3334354    0.2411952 -80.68  0.001251733    1.309    0.236
       256 -10.4149    245.7616     33.4185   6.2744806762e+01   1.9436635102e+01    0.5148771     0.221186  54.06  0.001681406    2.630    0.620
       257 -10.9040    237.3390     31.9509   6.3211680106e+01   2.1533518488e+01    0.4959456    0.3860259  41.41  0.002855597    1.646    0.392
       258  -9.6821    242.2522     31.5487   6.2649505224e+01   2.0459239633e+01    0.2293721    0.2127712 -58.10 0.0006701854    1.145    0.127
       259  -8.8854    190.7750     17.6605   6.4645983979e+01   3.4646246013e+01    0.2089027    0.1510125  58.22 0.0003702711    1.337    0.252
       260  -9.4770    178.0123     19.9983   6.6936774410e+01   3.7691325793e+01    0.2847887    0.2514819 -73.02  0.001228611    1.117    0.105
       261 -11.3010     55.5650    129.0242   1.2873200170e+02   4.3414404082e+01     0.815249    0.2614291 -58.66  0.002576184    2.663    0.624
       262 -10.6770     72.2629    128.8617   1.2398162846e+02   4.1194035500e+01    0.3712246    0.3351219 -60.06  0.001767899    1.098    0.089
       263  -9.9793     74.5156    124.9680   1.2259149366e+02   4.1773055736e+01    0.5403618    0.2583634  51.37  0.002209633    2.437    0.590
       264 -10.1284     45.1737    132.4485   1.3217808009e+02   4.3843197741e+01    0.2685729    0.2030197 -66.65  0.001241333    1.177    0.150
       265 -10.9576    183.5192     27.2813   6.8270970872e+01   3.5432910995e+01    0.3971806    0.3101149  55.24 0.0009248274    1.258    0.205
       266  -8.8343     38.1535     33.1062   1.1010561900e+02   6.5895823877e+01    0.2011285    0.1194474  -5.57  0.001034991    2.134    0.531
       267 -10.5937    226.8318     28.5837   6.3462386852e+01   2.4412051537e+01    0.5479629    0.2856873 -50.16  0.001905996    1.807    0.447
       268  -8.8893     95.4970    130.9008   1.1791138566e+02   3.6996198598e+01    0.2254324    0.1395894 -55.85  0.001031866    1.587    0.370
       269  -9.0550    192.8616     25.0108   6.6399250373e+01   3.3285342342e+01    0.3894237     0.210329  28.47  0.001268899    3.320    0.699
       270 -10.2976     49.5607     25.6747   1.0205422491e+02   6.5618286037e+01    0.5446863    0.1737344  34.86  0.002192307    3.309    0.698
       271 -10.0825     65.4719    114.7860   1.2320508150e+02   4.5449285715e+01    0.5498223    0.1819906  46.82  0.001876453    3.687    0.729
       272 -10.7348     64.8904    130.2617   1.2631600204e+02   4.1906398270e+01    0.3125035     0.271881  74.85  0.001338578    1.136    0.120
       273 -10.9526     66.9866    123.3358   1.2444352661e+02   4.3241419301e+01    0.7428962    0.3451285 -39.26  0.002816603    3.057    0.673
       274  -8.4847     35.3351    130.2912   1.3458409285e+02   4.5391542640e+01    0.1240674   0.08872642 -40.99 0.0007022861    1.637    0.389
       275 -10.2401     28.1311    120.7216   1.3527127115e+02   4.8295844800e+01    0.8404206    0.2789201 -80.07  0.002672545    4.775    0.791
       276  -9.6463    209.9606     18.7198   6.2771909167e+01   2.9676922982e+01    0.2688301    0.1971336  50.22 0.0003989932    1.517    0.341
       277 -10.0164     22.0082    127.9928   1.3794486081e+02   4.7156362394e+01    0.2993411    0.1853391  61.86  0.001709307    1.728    0.421
       278 -10.5880     41.5162    122.4555   1.3167546981e+02   4.6577018779e+01    0.2697703    0.1333261  17.83  0.001188482    2.971    0.663
       279 -10.8999     47.3839    125.7374   1.3051495364e+02   4.5162071891e+01       0.3613    0.1983841 -63.23  0.001817999    1.599    0.374
       280  -9.5100    241.2885     23.6210   6.0938846132e+01   2.1635283654e+01     0.317858    0.1612893 -56.29 0.0006656666    1.874    0.466
       281 -10.4950     39.0061    126.8218   1.3306163586e+02   4.5823278265e+01    0.2403032    0.1840216  14.43  0.001092163    1.688    0.408
       282 -10.5624     18.8562    120.5650   1.3789119364e+02   4.9118783985e+01      0.54008    0.2577629 -58.86 0.0008853213    1.760    0.432
       283 -10.7278    246.1079     19.9648   5.9713291003e+01   2.0975476004e+01    0.5849684    0.2631167  76.79  0.002753962    2.222    0.550
       284  -9.8255     13.1029    117.4020   1.3912573041e+02   5.0278295208e+01    0.2566718    0.2056659  56.64  0.001198969    1.351    0.260
       285 -10.0817     98.1690     22.1174   8.3488374907e+01   5.7240628739e+01    0.2469122    0.2131077  39.66   0.00052862    1.072    0.067
       286  -9.4275     92.1900    120.4626   1.1658916567e+02   3.9974937845e+01     0.477459    0.1608334 -45.93  0.001574784    3.165    0.684
       287  -9.2461    197.6588     16.8586   6.3627743542e+01   3.2974801182e+01    0.2892962    0.1748522  73.29  0.001111059    1.501    0.334
       288  -9.7165     37.0520     98.2887   1.2882296089e+02   5.2627246907e+01    0.4875346    0.3133867 -12.53  0.002510962    2.262    0.558
       289  -8.6634     87.0601     15.6196   8.3994362790e+01   6.0338807844e+01    0.2585314    0.1586438  -0.24  0.001281788    1.944    0.486
       290  -9.2092    178.8131     14.8912   6.5358044830e+01   3.8027293424e+01    0.2090907    0.1686779  52.57 0.0004641397    1.251    0.201
       291 -10.4036     27.8167    101.7720   1.3242717430e+02   5.2685732882e+01    0.4315201    0.3411814  74.19  0.002336219    1.390    0.281
       292 -10.2511     24.0753    108.2348   1.3463530525e+02   5.1522882364e+01    0.8737729    0.3979885   4.54  0.003522051    4.345    0.770
       293 -11.1531      4.4830     99.6950   1.3943029320e+02   5.4838147192e+01    0.6232467    0.4368339 -46.65  0.004132209    1.402    0.287
       294 -10.2980     42.3829     87.3550   1.2475177087e+02   5.4552285059e+01       1.1201    0.3786673 -61.38  0.004375792    2.758    0.637
       295 -11.2379     47.8440    100.7968   1.2582496747e+02   5.0907297121e+01    0.9570477    0.4046072 -51.91  0.003599823    2.058    0.514
       296 -10.9896      3.2821     89.4731   1.3840188599e+02   5.7177981084e+01    0.5618562    0.3034215 -60.72  0.003127582    1.429    0.300
       297 -11.5615     12.7779     87.9748   1.3501455104e+02   5.6941057925e+01    0.4936001    0.3505464  45.62   0.00229466    1.679    0.404
       298 -11.3119     35.6078     91.5710   1.2796907478e+02   5.4292622248e+01    0.7618057    0.5491549  35.68  0.004561184    1.578    0.366
       299 -11.1290     22.0105     96.2034   1.3334575798e+02   5.4431067900e+01    0.5096792    0.3310622 -39.61  0.002166236    1.598    0.374
       300 -11.3444     26.1635     86.0992   1.3009628192e+02   5.6366605502e+01    0.6731172    0.4799062  78.79  0.003938105    1.752    0.429
       301 -11.7159     15.6632    104.9236   1.3671433759e+02   5.2930829178e+01    0.8721967    0.4661548  -1.08  0.004368481    3.000    0.667
       302 -10.8578     15.3942     99.0253   1.3592453402e+02   5.4285881492e+01    0.3715914    0.3048484 -33.55  0.002196035    1.358    0.264
