#   1 NUMBER                 Running object number                                     
#   2 MAG_AUTO               Kron-like elliptical aperture magnitude                    [mag]
#   3 X_IMAGE                Object position along x                                    [pixel]
#   4 Y_IMAGE                Object position along y                                    [pixel]
#   5 X_WORLD                Barycenter position along world x axis                     [deg]
#   6 Y_WORLD                Barycenter position along world y axis                     [deg]
#   7 A_WORLD                Profile RMS along major axis (world units)                 [deg]
#   8 B_WORLD                Profile RMS along minor axis (world units)                 [deg]
#   9 THETA_WORLD            Position angle (CCW/world-x)                               [deg]
#  10 FWHM_WORLD             FWHM assuming a gaussian core                              [deg]
#  11 ELONGATION             A_IMAGE/B_IMAGE                                           
#  12 ELLIPTICITY            1 - B_IMAGE/A_IMAGE                                       
         1 -13.6977     68.1069    145.1068   1.2710247217e+02   3.7762621674e+01      6.45389     2.670135  57.99   0.02049201    4.501    0.778
         2 -13.4285    203.2731     12.8258   6.2156519299e+01   3.2927875229e+01     1.362721     1.035184  40.26  0.008040428    1.675    0.403
         3 -13.6037    191.9321     27.6781   6.7155163614e+01   3.3967946226e+01     2.256011     1.584087  18.70   0.01130747    2.230    0.552
         4  -9.9948    165.0032     12.0388   6.6718701089e+01   4.2212840588e+01    0.2027388    0.1726078  73.24 0.0004353091    1.020    0.019
         5  -8.0512    175.2838      4.2833   6.3273150751e+01   4.0472411891e+01     0.124022   0.08620247  46.35 0.0001999594    1.520    0.342
         6 -10.3958     49.0942    244.4359   1.4324120027e+02   1.8220068376e+01    0.3692393    0.1750924  71.64   0.00171156    2.112    0.527
         7 -10.7993    165.5242    250.1036   1.2231665734e+02  -1.0779095114e+00    0.6753609    0.1644442  38.12  0.002188991    4.126    0.758
         8 -10.8694    178.4809    247.1532   1.1941363838e+02  -2.8208509465e+00    0.3040715    0.2269578   9.82  0.001593472    1.607    0.378
         9 -11.6827    152.4909    245.9590   1.2422425950e+02   1.8300288689e+00     0.734505    0.4800209  32.18  0.004063805    1.536    0.349
        10 -10.6137    135.9827    250.0091   1.2792399178e+02   3.9571019356e+00    0.5564216    0.1570316  43.66  0.002134076    2.901    0.655
        11 -10.2015     62.1650    250.0739   1.4144293826e+02   1.5404754413e+01    0.3465193    0.1545379  61.92   0.00178542    2.084    0.520
        12 -13.6472     44.1073    230.4151   1.4297782897e+02   2.1618559253e+01     1.645672     1.116549  87.46   0.01083784    1.212    0.175
        13 -12.3622     57.1103    227.8320   1.4037239280e+02   2.0451896534e+01    0.7747593    0.5743107  78.55  0.003283102    1.082    0.076
        14 -12.3470     78.6345    219.8251   1.3540091583e+02   1.9053752163e+01     1.451126    0.5133479  53.29 0.0007136777    2.821    0.646
        15 -13.3041     10.2766    207.0017   1.4725595551e+02   3.0251998849e+01    0.9074219    0.6545496  22.34  0.004769445    2.197    0.545
        16 -12.4160     51.8755    217.2040   1.4035073102e+02   2.3353820047e+01    0.4934441    0.4137392  24.94  0.001187377    1.768    0.435
        17 -14.4260     59.4724    206.5993   1.3776354472e+02   2.4625614842e+01     7.508849     1.171164  47.86    0.0220567    5.688    0.824
        18 -10.3856    166.8439    210.0580   1.1569533663e+02   5.6663907698e+00    0.3718649    0.2335919 -49.23  0.001818423    1.745    0.427
        19 -12.9742     27.5582    249.0830   1.4717102449e+02   1.9987287567e+01    0.9768033    0.4033963  41.03  0.002131562    2.343    0.573
        20  -9.8114    192.0311    194.0093   1.0749744354e+02   3.8583173344e+00    0.4390884    0.2534857 -67.17  0.001567464    3.614    0.723
        21  -8.0924     73.8067    241.3574   1.3858198243e+02   1.5424460449e+01    0.1569697    0.1044897  39.22 0.0005182268    1.639    0.390
        22  -9.1013    103.9918    238.7569   1.3264555915e+02   1.1297215584e+01    0.1970316    0.1657514 -88.81 0.0004758195    1.186    0.157
        23 -11.0684     74.6403    186.4936   1.3205048738e+02   2.7006182550e+01    0.4186856    0.2707278 -45.93  0.001859079    1.897    0.473
        24 -10.9829     78.6482    180.5579   1.3029419874e+02   2.7785080618e+01    0.3246782    0.2522884 -46.18 0.0009791743    1.518    0.341
        25  -8.7532     64.8359    188.1092   1.3443575722e+02   2.8037105824e+01    0.2099563     0.154603  75.17 0.0006973658    1.264    0.209
        26 -15.6089     11.4376    240.8753   1.4925596362e+02   2.3335797977e+01     7.597721     1.175997 -70.37   0.01246849    4.646    0.785
        27  -8.6411    201.6391    183.9395   1.0352583364e+02   3.8718491530e+00    0.2556867    0.2082058  72.22  0.001312819    1.604    0.376
        28  -8.2499     70.2379    180.0184   1.3213747630e+02   2.9148798284e+01    0.2259291     0.136537  82.48  0.001059009    1.941    0.485
        29 -11.2373      5.3848    176.0875   1.4576641615e+02   3.7374682276e+01     0.437044    0.2856143  67.97  0.002058154    1.418    0.295
        30  -9.6696     38.5589    177.9795   1.3895585338e+02   3.3680966854e+01    0.2351124    0.1497001  59.06 0.0008208983    1.554    0.357
        31  -9.2599    139.7497    177.0112   1.1551982082e+02   1.7792709319e+01    0.1982151     0.127545 -52.50 0.0008882495    1.585    0.369
        32  -9.6554     81.1379    170.4391   1.2815317418e+02   2.9786981936e+01    0.2831451    0.2459925  78.17  0.001098403    1.079    0.073
        33 -12.7109     74.9919    165.9690   1.2890964791e+02   3.1774978593e+01    0.6883846    0.4709605 -35.79  0.001938775    1.997    0.499
        34  -9.7393    121.5026    248.3096   1.3045337088e+02   6.6721756132e+00    0.2504714    0.1921897  83.67 0.0007934573    1.392    0.282
        35  -9.4658    227.8675    171.6986   9.5883711182e+01   1.0384508998e+00    0.2712033    0.1830009 -62.13  0.001216376    2.156    0.536
        36 -10.8989     86.6076    169.8072   1.2674359725e+02   2.9081711066e+01    0.3933058    0.3149555 -73.84 0.0004417342    1.153    0.133
        37 -10.3987    189.2272    244.6181   1.1697595052e+02  -4.2535923363e+00    0.2421999    0.1433064  32.88 0.0008757652    1.521    0.343
        38  -8.9191    235.5123    159.4850   9.1877887557e+01   1.7730749616e+00    0.1411391    0.1292693 -25.63 0.0008102976    1.020    0.019
        39  -9.0011    114.0874    153.1389   1.1688358285e+02   2.8276915481e+01    0.2228787    0.2061894 -82.16 0.0004088328    1.031    0.030
        40 -10.3533     47.6122    151.6264   1.3339069082e+02   3.8819435136e+01    0.2616433    0.2150846 -65.48 0.0006669548    1.105    0.095
        41  -9.5943     44.3188    173.2796   1.3711921434e+02   3.4103760208e+01    0.2840762    0.1502881  36.74  0.001454629    2.098    0.523
        42 -11.4701     53.8580    145.9894   1.3093441295e+02   3.9414644454e+01    0.4326373    0.3876663  75.14   0.00271872    1.154    0.134
        43  -8.1692    179.6187    146.7907   1.0001378254e+02   1.5960882189e+01    0.2037813    0.1450309 -52.41 0.0002481961    1.448    0.310
        44 -11.5649     92.9814    145.7930   1.2076055061e+02   3.3784278087e+01    0.2986341    0.2815381 -32.41 0.0004482256    1.201    0.167
        45 -10.1562    103.9961    146.5041   1.1806323627e+02   3.1704337492e+01    0.3642915    0.3295901  60.10  0.001043101    1.128    0.113
        46 -10.9936     29.4376    145.0634   1.3696058539e+02   4.2301059477e+01    0.3987642    0.2661254  21.13   0.00231341    2.013    0.503
        47  -9.2531    133.0495    142.2265   1.0977650983e+02   2.7083280326e+01    0.5769774     0.206534 -56.94  0.001644853    3.752    0.733
        48 -10.1640    226.1026    140.5125   8.9358014185e+01   7.1393760839e+00    0.2539584    0.2375908 -59.67 0.0003952192    1.117    0.104
        49  -9.6377     25.4118    139.9310   1.3726075352e+02   4.3874048256e+01    0.2065744     0.185218  47.65 0.0005709663    1.336    0.252
        50  -8.7573    112.1266    138.0840   1.1414235717e+02   3.2200761428e+01    0.2200736    0.2077632 -57.43  0.001188949    1.044    0.042
        51 -10.0431    113.4320    133.9181   1.1285502676e+02   3.2929329310e+01    0.3411956    0.2956009 -23.43 0.0007356719    1.332    0.249
        52  -9.8161    106.1707    143.2376   1.1681415775e+02   3.2088231770e+01    0.3713941    0.2611171 -25.82  0.001157237    1.982    0.496
        53 -12.0811     43.6817    130.4895   1.3101981219e+02   4.4269299739e+01    0.6783689    0.2662216 -58.68  0.002964529    2.049    0.512
        54 -11.9033     41.4654    126.3000   1.3089756786e+02   4.5489111490e+01    0.6134435    0.3229442  47.33  0.003009119    2.265    0.558
        55 -10.1657    100.8934    130.5577   1.1540765502e+02   3.6038462362e+01    0.3099262    0.2569433 -21.05   0.00081436    1.456    0.313
        56  -9.4992    244.4199    122.0016   8.2096699215e+01   6.7681206657e+00    0.2387677    0.2110036  55.08 0.0001439312    1.260    0.206
        57  -9.2116    109.0602    121.9906   1.1118413521e+02   3.6528170452e+01    0.2194867    0.2100714 -43.30 0.0003634944    1.047    0.045
        58  -9.8283    119.0860    126.1949   1.0954481879e+02   3.3614499327e+01    0.4690564    0.3101664 -15.11  0.001789073    2.637    0.621
        59 -10.7500     44.5376    115.3408   1.2799665009e+02   4.7706513394e+01    0.3005524     0.204808 -77.92   0.00162419    1.572    0.364
        60  -8.8753    167.6346    113.2582   9.4401802248e+01   2.5761435677e+01    0.3363189    0.2502523 -79.76  0.001426019    1.761    0.432
        61 -10.3927      8.8847    110.6355   1.3739306838e+02   5.1853034803e+01    0.2380247    0.1745974  86.24 0.0009015813    1.470    0.320
        62  -9.3910     69.4443    228.6391   1.3813387337e+02   1.8576780545e+01    0.2320839    0.1672876  69.73 0.0006567469    1.153    0.133
        63  -9.0700      1.5009    107.4992   1.3899555009e+02   5.3004893820e+01     0.118459   0.08925363 -64.73 9.353064e-05    1.001    0.001
        64 -11.6503     92.2739    162.6788   1.2414038257e+02   2.9859128698e+01     1.118684    0.8649624 -77.33   0.00243326    1.268    0.211
        65  -9.3397      1.7324     89.9949   1.3612427822e+02   5.6774454215e+01    0.1738936    0.1164107 -60.43 0.0007838884    1.124    0.111
        66 -10.5451    166.7146    224.8138   1.1821578029e+02   2.9733112849e+00    0.3227967     0.170121  43.23  0.001516598    1.685    0.406
        67  -8.0028    154.5502     78.4584   8.7795426238e+01   3.5633378691e+01    0.1491267    0.1462941  52.71 0.0001397288    1.023    0.023
        68  -8.9351    183.3282     77.1176   8.1563397778e+01   2.8853244186e+01    0.2375998    0.1938187  52.65 0.0001440516    1.235    0.190
        69  -9.7145    238.7531     66.1529   7.0287219805e+01   1.7487319874e+01    0.2231482    0.2099743 -85.50 0.0003892946    1.149    0.130
        70  -8.0552    124.8359     62.8001   9.0108149769e+01   4.5183344335e+01     0.178543    0.1640698  89.78 0.0002151867    1.263    0.208
        71  -9.8676     69.8668    247.1065   1.3983038576e+02   1.4888893724e+01     0.232487    0.1825154  77.47 0.0008429549    1.074    0.069
        72 -11.1442    183.5934     34.0953   6.9985046781e+01   3.5220778991e+01    0.6129912    0.3695269  56.99   0.00146908    1.539    0.350
        73  -9.9044     73.2878    246.6269   1.3917589692e+02   1.4490827764e+01    0.2521772    0.1331432  61.74 0.0009618022    1.681    0.405
        74  -8.6956     69.5239     49.0288   1.0170333454e+02   5.7882774637e+01     0.247572    0.1555388  54.85 0.0007964528    2.416    0.586
        75  -8.5732     51.4688     42.0216   1.0555225618e+02   6.1558045101e+01    0.2083439    0.1559392  40.38 0.0006797467    1.647    0.393
        76 -10.2526    135.9859     39.7698   8.0166655180e+01   4.6027834918e+01     0.219382    0.1989048 -22.59 0.0002429364    1.184    0.155
        77  -8.8442    230.7548     17.5745   6.0457417904e+01   2.6003231253e+01    0.2339927    0.1590713 -42.87  0.001005287    1.468    0.319
        78  -9.5818     89.5248    244.9856   1.3605994906e+02   1.2390359418e+01    0.2741353    0.1864023  81.19  0.001185158    1.438    0.305
