#   1 NUMBER                 Running object number                                     
#   2 MAG_AUTO               Kron-like elliptical aperture magnitude                    [mag]
#   3 X_IMAGE                Object position along x                                    [pixel]
#   4 Y_IMAGE                Object position along y                                    [pixel]
#   5 X_WORLD                Barycenter position along world x axis                     [deg]
#   6 Y_WORLD                Barycenter position along world y axis                     [deg]
#   7 A_WORLD                Profile RMS along major axis (world units)                 [deg]
#   8 B_WORLD                Profile RMS along minor axis (world units)                 [deg]
#   9 THETA_WORLD            Position angle (CCW/world-x)                               [deg]
#  10 FWHM_WORLD             FWHM assuming a gaussian core                              [deg]
#  11 ELONGATION             A_IMAGE/B_IMAGE                                           
#  12 ELLIPTICITY            1 - B_IMAGE/A_IMAGE                                       
         1 -11.0267      1.8682     49.3020   1.0214897363e+02   6.6482020162e+01    0.9446891   0.04173526 -60.31  0.002449052    7.618    0.869
         2 -11.5952    217.6528     37.5668   3.7403393823e+01   2.7253050848e+01     0.838671    0.5221403 -79.92  0.004029094    1.630    0.386
         3 -11.5643    223.9573     30.7943   3.5304601733e+01   2.6771585504e+01    0.7842955    0.4007053  59.55   0.00175943    2.088    0.521
         4 -10.8781      2.0797      8.3846   8.6948455036e+01   7.3721223251e+01     1.048346    0.1417572 -47.56  0.003295955    6.957    0.856
         5 -11.5860    238.8292     17.7675   3.1384175254e+01   2.5278833862e+01    0.6657616    0.4720894 -62.58  0.002710487    1.118    0.106
         6  -7.9396     12.6551     13.6693   8.3140804357e+01   7.2018250960e+01    0.1237632   0.06926315 -12.66  0.000705036    1.756    0.430
         7 -12.8045     99.5627    228.7078   1.0286946008e+02   1.2673832205e+01     2.626992    0.4239293  37.02  0.007631458    4.696    0.787
         8 -13.1153     48.0861    247.8334   1.1557961581e+02   1.5736581547e+01     4.024667       1.0161  27.71   0.01094013    8.049    0.876
         9 -10.4772     57.6850    241.0271   1.1311429694e+02   1.5917018695e+01    0.3399941    0.2719985  75.89 0.0005119443    1.123    0.109
        10 -11.6225     10.9881    233.0871   1.2185854362e+02   2.2819396907e+01    0.9997958    0.3575373  87.24  0.004471696    2.976    0.664
        11 -12.1797      5.8156    244.2819   1.2338573124e+02   2.1050907914e+01     1.622156    0.7695135  82.84  0.009395789    1.863    0.463
        12 -12.9403      9.1199    208.0961   1.2078378037e+02   2.8401577229e+01     1.634509    0.9602841 -77.54  0.006154177    1.480    0.324
        13 -14.1037     33.7227    192.7437   1.1409641746e+02   2.9528368118e+01     8.414933     3.258288  80.95   0.02698951    4.578    0.782
        14 -11.8996    109.1745    229.5453   1.0084394910e+02   1.1055027251e+01    0.7114168    0.4733562  17.42  0.003598112    1.877    0.467
        15  -9.1536     43.0860    218.1236   1.1424946583e+02   2.2592730219e+01    0.2580543    0.1677184  82.99  0.000495545    1.452    0.311
        16  -9.6146    149.2857    229.7678   9.2072885108e+01   4.7572185798e+00    0.2789698    0.1960349 -55.42  0.001520887    1.674    0.403
        17 -11.2537     23.3273    204.4137   1.1746640341e+02   2.7870688096e+01    0.4176739    0.3262684 -47.31  0.000901235    1.638    0.389
        18 -10.8607     84.0177    220.5344   1.0537260002e+02   1.6687574412e+01    0.5319439    0.4933513  80.13  0.001423712    1.089    0.082
        19  -9.3433     46.4308    183.8191   1.1007330278e+02   3.0268285276e+01    0.2763675    0.1850412  63.45 0.0009748536    1.480    0.324
        20 -10.1953     53.8810    177.6835   1.0743355564e+02   3.0890814249e+01    0.4585569    0.2791237 -37.99  0.001502592    2.209    0.547
        21 -10.2127     60.0126    172.0491   1.0506913507e+02   3.1527797000e+01    0.3514368     0.277331 -39.72 0.0004980297    1.478    0.323
        22  -8.5523     72.9250    172.9850   1.0175714564e+02   2.9528852224e+01    0.2118032    0.1939733 -85.56 -0.001320134    1.017    0.017
        23  -9.1415     76.1306    223.7124   1.0750362685e+02   1.7111591759e+01    0.2563131    0.1851843 -87.34 0.0007386853    1.441    0.306
        24  -8.7648     93.8079    168.6465   9.5440524083e+01   2.7427805456e+01    0.2154117    0.1305545  45.47 0.0004323921    1.663    0.399
        25  -9.5036     83.4723    163.0553   9.7277547889e+01   3.0473023740e+01    0.4108976    0.1418108 -60.02  0.001379303    2.800    0.643
        26  -9.9144     71.0166    162.6395   1.0065597154e+02   3.2424903667e+01    0.3060136    0.2898155  89.74 0.0005323006    1.034    0.033
        27 -11.6059     57.3875    158.7240   1.0385047837e+02   3.5264614096e+01    0.5461192     0.316584 -40.15  0.001540548    2.093    0.522
        28  -9.1329     35.5350    160.3237   1.1013862658e+02   3.7375302882e+01    0.4279718    0.2023671  46.35   0.00152789    2.203    0.546
        29 -10.9895     78.6181    156.1366   9.7419514734e+01   3.2976160270e+01    0.7116191    0.5565635   4.84  0.001653951    1.650    0.394
        30 -11.1540     69.8553    145.8914   9.8109523537e+01   3.6893265376e+01    0.6071227    0.5061475 -62.79   0.00139038    1.116    0.104
        31 -11.0900     67.8120    142.6025   9.8112950421e+01   3.8029447061e+01    0.7517862    0.3359932  42.23  0.001694604    2.349    0.574
        32  -8.7666     94.0613    142.8616   9.0411193809e+01   3.3880138494e+01    0.2873209    0.2224885 -57.42  0.001389745    1.243    0.196
        33 -10.5116     82.2205    140.7561   9.3451627160e+01   3.6356389416e+01    0.3460249    0.2842327 -48.26 0.0004494976    1.187    0.157
        34 -10.2376     59.1858    135.2357   9.9372673797e+01   4.1093410927e+01    0.4596146    0.2650202 -86.34  0.001826475    2.432    0.589
        35  -9.9486     64.5050    126.0121   9.5888315212e+01   4.2742562186e+01    0.3576542    0.2273144  46.71   0.00133446    1.750    0.429
        36  -8.9082    106.6796    131.2792   8.4181979535e+01   3.4512168703e+01    0.3231601    0.2877791  29.17 0.0009885945    1.181    0.153
        37  -9.5520     93.7444    127.5460   8.7121239260e+01   3.7771386823e+01     0.296417    0.2617273 -23.78 0.0004544683    1.219    0.179
        38  -9.4399     13.3901    128.0884   1.1247541223e+02   4.7507892994e+01    0.2005634    0.1727462 -35.24 0.0004923341    1.292    0.226
        39  -8.4357     50.5166    123.5279   9.9906062562e+01   4.5170916829e+01    0.1439673    0.1293735 -60.47 4.935942e-05    1.004    0.004
        40  -9.0008     59.9560    121.9696   9.6516199704e+01   4.4382232657e+01    0.2269192    0.1706152  75.21 0.0004936159    1.653    0.395
        41  -7.9974    104.8931    119.7994   8.1918104537e+01   3.7630558637e+01    0.2254177    0.2029075 -19.24 0.0004238681    1.183    0.155
        42  -7.5828    160.6419    117.7876   6.6777302908e+01   2.6414424228e+01    0.2238933     0.139655 -52.23  0.000403424    1.653    0.395
        43  -7.7920    205.5341    110.4893   5.6042525393e+01   1.8162340628e+01    0.1456391    0.1311971 -49.40 9.350082e-05    1.010    0.009
        44  -8.4336     41.5182     92.0667   9.6257198202e+01   5.3935410721e+01    0.2075171    0.1231478 -57.02 0.0004659398    1.510    0.338
        45 -10.7651      2.3547     74.6073   1.0784307927e+02   6.1030483968e+01    0.6504567    0.1609787 -66.97  0.002381123    3.446    0.710
        46  -9.6694     21.6159    243.4194   1.2040803702e+02   1.9622850032e+01    0.3919232    0.1157931  35.05  0.001669291    2.883    0.653
        47 -10.1090    200.3333     49.1581   4.2093946714e+01   2.9517494283e+01    0.4293352    0.1969212 -66.07  0.001577648    3.327    0.699
        48 -11.8065    209.0418     41.8595   3.9311643892e+01   2.8569753345e+01    0.7738436    0.5671977 -60.99  0.004561673    1.221    0.181
        49  -8.4215     27.6626    241.5515   1.1913875747e+02   1.9350265652e+01    0.2528769    0.1379312  31.26  0.001441139    1.953    0.488
        50  -9.4202     73.3787    220.0279   1.0771733690e+02   1.8295680413e+01    0.3888892    0.1673492  36.70  0.001726525    2.106    0.525
        51  -9.4513     12.9721     60.2880   9.9918743273e+01   6.3546711188e+01    0.2420402    0.1497904 -46.65 0.0007116309    1.290    0.225
        52  -7.4706    129.5166     29.4529   4.7916168676e+01   4.8866658776e+01    0.1349576    0.1216101  61.35  0.000204875    1.010    0.010
        53  -8.6552     32.5198     28.4843   7.9372059202e+01   6.7616912795e+01    0.1243409   0.09833603  -7.37 8.669358e-05    1.023    0.022
        54 -10.3299    134.9790    231.1632   9.5383922348e+01   6.7414226573e+00    0.5073991    0.1878645 -55.29  0.001999997    3.177    0.685
        55 -10.8344    128.4001    231.3025   9.6841781898e+01   7.7419081574e+00     0.416535    0.3109075  73.15  0.002263673    1.734    0.423
        56  -8.4756     32.5107     16.9817   7.4138842098e+01   6.9283427042e+01    0.1456467    0.1027132 -54.44 0.0008096735    2.548    0.608
