#   1 NUMBER                 Running object number                                     
#   2 MAG_AUTO               Kron-like elliptical aperture magnitude                    [mag]
#   3 X_IMAGE                Object position along x                                    [pixel]
#   4 Y_IMAGE                Object position along y                                    [pixel]
#   5 X_WORLD                Barycenter position along world x axis                     [deg]
#   6 Y_WORLD                Barycenter position along world y axis                     [deg]
#   7 A_WORLD                Profile RMS along major axis (world units)                 [deg]
#   8 B_WORLD                Profile RMS along minor axis (world units)                 [deg]
#   9 THETA_WORLD            Position angle (CCW/world-x)                               [deg]
#  10 FWHM_WORLD             FWHM assuming a gaussian core                              [deg]
#  11 ELONGATION             A_IMAGE/B_IMAGE                                           
#  12 ELLIPTICITY            1 - B_IMAGE/A_IMAGE                                       
         1 -12.6330    119.8441     37.5536   3.7359051802e+01   4.9834334179e+01    0.8608299    0.5509943 -51.25  0.002350148    2.014    0.504
         2 -12.2828    105.8872     20.8541   3.4757465861e+01   5.5131331406e+01    0.4258505    0.3681829 -73.88 0.0007949058    1.577    0.366
         3 -11.9050     35.6066     17.9815   5.8456867751e+01   6.7507162044e+01    0.6235472    0.2324665 -31.87  0.002049296    2.572    0.611
         4 -12.1927     20.2146     21.8191   6.7108419450e+01   6.8442482965e+01    0.5041381    0.2378527 -38.41  0.001554346    1.674    0.403
         5 -10.9281    120.9752     11.6939   2.7576897080e+01   5.2664313890e+01    0.3971088     0.215669  60.08 0.0007519345    1.697    0.411
         6 -10.5503    127.1592     11.8566   2.6306790622e+01   5.1167849860e+01    0.3168849    0.2733329 -85.09  0.001406914    1.377    0.274
         7 -11.5150    134.4937     14.8730   2.5878196269e+01   4.9070863491e+01    0.6472701    0.2876653  55.61  0.002755523    1.903    0.474
         8 -10.7935     90.7172     22.4529   3.9728274092e+01   5.8127925500e+01    0.3837636    0.2627877 -19.63  0.001752442    1.462    0.316
         9 -11.4260     86.5145     14.4823   3.7694150273e+01   5.9912756157e+01    0.5013222     0.405973 -39.08  0.001903589    1.509    0.337
        10 -10.3843     87.3665      7.4379   3.4426039182e+01   6.0491930030e+01    0.5148333    0.2805651  51.90  0.002501939    1.731    0.422
        11 -11.7146     68.0209     18.4152   4.5549508239e+01   6.2834624962e+01    0.4258386    0.3544088   4.70  0.001550094    1.012    0.012
        12 -12.1888    164.7342     18.1577   2.1534625878e+01   4.1023652813e+01     0.619185    0.2886878  42.70  0.002482334    2.346    0.574
        13 -10.3940     12.6600      8.5784   6.5275501386e+01   7.1173634458e+01    0.3189361    0.2200139 -61.94  0.001844759    2.622    0.619
        14 -12.0900     16.1137     14.1576   6.5957101947e+01   7.0026652755e+01    0.6456969    0.2999344 -24.27  0.003477515    2.165    0.538
        15 -11.5825     22.7810     11.2480   6.1433935161e+01   6.9870269737e+01    0.4223551    0.2387155  -8.96  0.001870842    1.864    0.464
        16 -12.0782    227.5175     15.2047   1.2867990081e+01   2.5343615197e+01    0.5437161    0.3207037 -87.05  0.001892762    1.726    0.421
        17 -10.2890    148.3494     16.0488   2.3643147046e+01   4.5470177115e+01    0.3914917    0.1861336  41.33  0.001416523    2.205    0.547
        18 -12.1008    135.1289     22.4705   2.8407057945e+01   4.8088836993e+01    0.9552703    0.3567625  50.78  0.003256236    2.288    0.563
        19 -12.2234    104.8532     12.7795   3.1842379698e+01   5.6249798866e+01    0.5234667    0.3583404 -23.45  0.002360059    1.544    0.352
        20 -11.9145     48.2929     12.9692   5.0732224249e+01   6.6596717808e+01    0.5420805    0.2669576  38.67  0.002862911    2.098    0.523
        21 -11.3245    192.6554      8.4983   1.4896074433e+01   3.4796930869e+01    0.6303105     0.367503  20.35  0.002257492    2.905    0.656
        22 -11.4876    212.0984      7.8549   1.2609891509e+01   2.9941348867e+01    0.7334634    0.3745095 -17.01  0.003235736    2.699    0.630
        23 -10.6404    207.0132      3.3306   1.1989699017e+01   3.1678740656e+01    0.4037087    0.1852172  61.66  0.001843786    1.948    0.487
        24 -10.2292    204.4857      1.4930   1.1778969896e+01   3.2495082229e+01    0.2707199    0.1168768  72.85 0.0006124773    2.044    0.511
        25 -10.1293      5.6116     12.6019   7.0575201430e+01   7.1060590075e+01    0.3761044    0.1568918   6.55  0.001947801    3.071    0.674
        26  -9.8177      5.4537      9.4758   6.9375999182e+01   7.1571900237e+01    0.2021943    0.1432983   8.69  0.000965702    1.470    0.320
        27 -10.7985    169.9854      9.2503   1.8039002213e+01   4.0583024873e+01    0.3979682    0.1837618  55.08  0.001725701    1.893    0.472
        28 -10.5800    145.2488      9.7575   2.2105397243e+01   4.6888207345e+01    0.2513346    0.2001224  40.26 0.0003824426    1.211    0.175
        29 -10.0952     62.3863      7.0785   4.2469553296e+01   6.5149294218e+01    0.2689451    0.1752119  -4.21  0.001200126    1.476    0.322
        30 -11.8657     26.5611     28.0478   6.6610425410e+01   6.6829607310e+01    0.5166362    0.2486088 -45.04  0.002373214    1.750    0.428
        31 -11.6938    247.1847      6.3939   9.1562426743e+00   2.1737566448e+01    0.3499638    0.2717128   6.86  0.001722374    2.032    0.508
        32  -9.7622      1.1286      8.4087   7.1197704579e+01   7.2020724360e+01    0.2080195    0.0503768 -49.10 0.0009410642    3.047    0.672
        33 -11.1466    232.8167      7.1598   1.0506628389e+01   2.4979585950e+01    0.2803741    0.2153261  84.39  0.001121351    1.167    0.143
        34 -12.0053    233.9488      3.0372   9.4746369826e+00   2.5157391310e+01    0.5157577    0.2673876 -73.05   0.00234706    2.003    0.501
        35 -11.0390    122.1363      5.6240   2.5072913176e+01   5.2959871894e+01    0.3321516    0.1826186 -27.47 0.0008638537    1.983    0.496
        36 -10.3544    185.3365      7.3224   1.5454415453e+01   3.6799343241e+01    0.2191123    0.1805516  59.42 0.0009696295    1.166    0.142
        37 -10.7289    183.4917      4.5141   1.4898081778e+01   3.7549577246e+01    0.2254639    0.1827669  -6.39 0.0009370123    1.535    0.349
        38 -10.3057    157.5972      4.8327   1.8499836342e+01   4.4198644125e+01    0.4092148    0.1339985 -22.83  0.001500986    3.433    0.709
        39  -9.6680     78.0314      7.5284   3.7318096094e+01   6.2309907370e+01    0.2269297    0.1658721  68.38  0.001060708    2.029    0.507
        40 -10.2715     76.5233      3.4994   3.5985129489e+01   6.3001939393e+01    0.3138836    0.1682957  27.29  0.001195708    1.842    0.457
        41 -10.3553     73.0400      3.0000   3.6877827062e+01   6.3702540144e+01    0.3074543    0.1604525  34.44  0.001324491    1.720    0.419
        42 -11.0402    177.0092      5.8987   1.6103944244e+01   3.9090047093e+01    0.3648857    0.1950105  78.15   0.00064426    1.811    0.448
        43 -10.0197    163.4320      5.8547   1.7953279864e+01   4.2603479324e+01    0.3056382    0.1693103  40.88 0.0008954953    1.943    0.485
        44 -10.8676    218.6615      3.8749   1.1002967393e+01   2.8738793356e+01    0.2991622    0.2352888  88.36 0.0008568331    1.103    0.094
        45 -11.1059    224.0076      2.5354   1.0203833873e+01   2.7578861316e+01    0.2662289    0.2091375  86.69 0.0005556295    1.110    0.099
        46 -11.7424    133.2816      2.6712   2.1827735314e+01   5.0515877772e+01    0.5827652     0.293453  66.33  0.002665899    1.821    0.451
        47 -10.2751     41.4300      4.1281   4.9428034030e+01   6.8663714417e+01    0.2706235    0.1586434  -1.40  0.001041904    1.774    0.436
        48 -11.2807    243.6282      2.5264   8.5931118322e+00   2.2969115530e+01    0.4401141    0.1896217  53.27  0.001973189    2.784    0.641
        49 -11.0918    105.7807      2.8153   2.7632689475e+01   5.6991413031e+01    0.3304105    0.2672677 -47.49  0.001282436    1.572    0.364
        50  -9.9293     22.0376      3.2437   5.8040635407e+01   7.1082364827e+01    0.1966812    0.1358434 -31.40 0.0009156204    1.331    0.249
        51 -10.5165    141.7511      3.1457   2.0493332166e+01   4.8371303895e+01    0.3190755    0.1876531  64.63  0.001574766    1.487    0.328
        52 -11.0236    114.0146      2.7333   2.5718937367e+01   5.5121621290e+01    0.4082908    0.1871313  59.17  0.001447969    1.910    0.477
        53 -10.9295      2.6247      1.9028   6.7577990247e+01   7.2930195470e+01    0.2640373    0.1466043  -5.62  0.001437517    1.773    0.436
        54  -9.9637     13.1614      1.5739   6.1766175838e+01   7.2155704517e+01    0.1755793    0.1129728   5.16 0.0007534644    1.438    0.305
        55 -10.0108    152.2946      1.3680   1.8207584389e+01   4.5859376249e+01    0.2457071    0.1103548  63.85 0.0003116742    1.856    0.461
        56 -11.3237      1.9839    140.2099   9.6810125947e+01   4.4864399327e+01     0.344922    0.1589752 -77.48 0.0004930054    1.682    0.406
        57  -9.5594    188.3906    250.1726   7.1347220418e+01  -3.4656074757e+00     0.141363    0.1166872 -56.12 0.0009583755    1.750    0.429
        58 -11.2350     50.3366    249.4815   9.5763686914e+01   1.7866573503e+01    0.2816833    0.1205774  58.12  0.001643297    1.823    0.452
        59 -10.1434     15.9952    141.0201   9.3607279371e+01   4.3618535181e+01    0.1839059    0.1435686 -82.33 0.0004838955    1.012    0.012
        60  -9.7457    217.1651    138.8119   4.4947515189e+01   8.5366805135e+00    0.2149004    0.2050565 -69.84 0.0005004872    1.218    0.179
        61 -10.5200     40.1938    137.8666   8.7264361303e+01   4.2064946081e+01    0.2681992    0.1766049  77.52  0.001036004    1.601    0.375
        62 -10.1555     79.3583    137.8338   7.7082411584e+01   3.7041616232e+01    0.2741482     0.233461 -84.31  0.001304346    1.118    0.106
        63 -10.0875     31.6182    137.7715   8.9416257992e+01   4.2957120098e+01    0.2517547    0.2013822  59.88  0.001443853    1.295    0.228
        64 -11.1249     22.7333    136.1577   9.1434198839e+01   4.4144771248e+01    0.5539435    0.2896108  44.72  0.003075275    2.041    0.510
        65 -10.8418     29.9713    133.1167   8.9238607249e+01   4.4183190637e+01    0.3344036    0.2113214 -48.03 0.0007598844    1.692    0.409
        66 -11.2320     12.4950    136.3407   9.3959857405e+01   4.4948624325e+01    0.4157238    0.2490929 -54.53  0.002527542    1.635    0.388
        67  -9.8538     47.4090    134.7457   8.4960732781e+01   4.1997530774e+01    0.2543412    0.1139566 -71.04  0.001127712    2.110    0.526
        68 -10.3369     73.0692    133.6388   7.7989242146e+01   3.8955830894e+01    0.2819586    0.1902022 -55.07 0.0009670011    1.394    0.283
        69  -9.2376    103.9694    131.0700   6.9223724830e+01   3.4520984053e+01    0.1765421    0.1650497 -73.90 0.0008629147    1.028    0.028
        70  -9.8115     93.1272    130.0845   7.1913413016e+01   3.6650148474e+01    0.2788461    0.1976794 -63.58  0.001377276    1.389    0.280
        71  -9.7344     62.6216    131.1852   8.0356320470e+01   4.0970828544e+01    0.2036754    0.1074598 -53.25 0.0009079518    1.760    0.432
        72 -11.0020     10.2009    127.7675   9.3609367558e+01   4.7045255842e+01    0.4330592    0.1967275 -55.79  0.001694133    1.943    0.485
        73  -9.8320     39.3662    133.4469   8.6864314823e+01   4.3175544354e+01    0.1861756    0.1291129  25.14  0.000886705    1.808    0.447
        74  -9.3248     26.5647    127.4760   8.9382744234e+01   4.5790199381e+01    0.1239751   0.09974042 -75.05 6.658312e-05    1.019    0.018
        75  -9.6127     22.9345    126.9858   9.0264599875e+01   4.6218520929e+01    0.1759799    0.1402952 -79.37  0.001171819    1.025    0.024
        76  -9.8693      1.9666    125.9426   9.5470232756e+01   4.8018140362e+01    0.1899869    0.1107205  73.94  0.001131617    1.750    0.428
        77 -12.2471    103.8545    122.4893   6.7360232300e+01   3.6521413590e+01    0.3454096    0.3364742  -1.13  0.000702079    1.125    0.111
        78 -10.3294     49.6026    123.0646   8.2521214101e+01   4.4476144862e+01    0.2369682    0.1789412  -5.88  0.001315755    1.908    0.476
        79 -10.3082     48.7450    112.4173   8.0891572943e+01   4.7057423105e+01    0.3854647    0.2124775 -48.88  0.001927053    1.695    0.410
        80 -10.2873     44.6848    120.2906   8.3422109611e+01   4.5671717661e+01    0.2262558    0.1913082 -89.19 0.0007198884    1.141    0.124
        81 -10.3271     43.5501    116.4757   8.3100370041e+01   4.6681654074e+01     0.267012    0.2312028 -86.55 0.0008536791    1.116    0.104
        82 -12.6416      2.5996    111.7631   9.3774137032e+01   5.1130591361e+01    0.5132702    0.2893389  76.92 0.0005697138    1.957    0.489
        83 -11.3880      4.8174    104.8188   9.2318124270e+01   5.2542262999e+01    0.3746925    0.3134466 -15.85  0.002739136    1.548    0.354
        84  -9.8062     79.1234    114.5672   7.2516205420e+01   4.2528081154e+01    0.2645052      0.19172 -57.09  0.001336389    1.277    0.217
        85  -9.6616     67.3244    114.6577   7.5938145440e+01   4.4218288243e+01    0.2287165    0.1423376  75.92 0.0009876902    2.454    0.592
        86 -10.1474     66.9564    110.9763   7.5282023118e+01   4.5126555967e+01    0.2999494    0.2733267  65.93   0.00128174    1.179    0.152
        87 -10.6747     16.0155    108.4077   8.9649100712e+01   5.0992791420e+01    0.2546937    0.2246108 -23.41  0.001825549    1.403    0.287
        88 -11.7803     27.4140     85.1308   8.2224340538e+01   5.5343427636e+01    0.6441383    0.5230578   4.05  0.004272514    1.493    0.330
        89 -11.6065     10.1286     97.0314   8.9709312865e+01   5.3948044064e+01    0.5408203    0.4421534 -25.77  0.001803258    1.459    0.314
        90 -11.7671      7.1587     88.7977   8.9357463441e+01   5.5951471001e+01    0.4956793    0.3738993   3.63  0.002432016    1.718    0.418
        91 -11.8666     25.6284    106.9332   8.6674293806e+01   5.0578614877e+01     1.240401    0.7328327   0.51  0.006487436    2.662    0.624
        92 -12.5329     17.7480    100.5596   8.7984077497e+01   5.2638264231e+01    0.3786752    0.3492493 -85.21  0.001503587    1.175    0.149
        93 -10.7520     35.5462     92.7623   8.1130462537e+01   5.2923401866e+01    0.3685699    0.2175223 -72.47  0.001401519    1.701    0.412
        94 -11.7208     44.3413     85.1390   7.6636807989e+01   5.3753109939e+01    0.4491616    0.3467784   7.56  0.002055867    1.555    0.357
        95 -10.4885     37.2870     85.9631   7.9151275012e+01   5.4280383472e+01    0.2528824    0.1919732  18.58 0.0007829027    1.570    0.363
        96 -11.3259     23.0566     94.6381   8.5398689020e+01   5.3570724919e+01    0.2743744    0.2263414 -12.14 0.0009820169    1.482    0.325
        97 -11.6346     18.1658     90.8229   8.6257930654e+01   5.4789125347e+01    0.4510361    0.2799089 -89.44  0.001710107    1.873    0.466
        98 -11.2496     21.6211    114.3910   8.8927190162e+01   4.9204329915e+01    0.4093631    0.2564046   0.24  0.001885973    2.459    0.593
        99 -10.8617     28.0403    113.4855   8.7002329230e+01   4.8873366301e+01    0.2877204    0.2264201  -0.67 0.0008975009    1.709    0.415
       100  -9.3351     57.6595    114.2953   7.8661216420e+01   4.5565273795e+01    0.1355684   0.09811588  74.78  0.000703079    1.658    0.397
       101  -9.6177     93.7099    112.5636   6.7884478110e+01   4.0614192620e+01    0.2541176    0.1795539 -76.54  0.001173917    1.751    0.429
       102  -9.9304    170.7221    110.5420   4.7521642652e+01   2.4577607365e+01    0.2923019    0.1984883 -27.60 0.0008002627    1.669    0.401
       103 -10.3305    103.0573    108.7523   6.4306756206e+01   3.9804955922e+01    0.4236288    0.2510857  22.60  0.001664698    2.482    0.597
       104 -11.3363     80.0527    108.3291   7.0848508968e+01   4.3829808948e+01    0.4704134    0.3231768  31.09 0.0008475728    1.634    0.388
       105  -9.8627    143.3702    106.0255   5.2798968290e+01   3.1956269495e+01    0.2893327    0.2277597  79.83  0.001308414    1.597    0.374
       106  -9.3705    182.4818    104.4751   4.3369590128e+01   2.2911262889e+01    0.1557729    0.1542317  85.39 0.0001249803    1.025    0.024
       107 -10.4120     85.6289    103.6537   6.8092476916e+01   4.4012070198e+01    0.2509668    0.2062578 -47.83 0.0005269971    1.145    0.126
       108  -9.6317     64.5828    101.9330   7.4027323154e+01   4.7537026256e+01    0.2711053    0.1012524 -49.62 0.0003117958    2.372    0.578
       109 -11.9683     68.7146     95.8330   7.1331335436e+01   4.8359181704e+01     0.358371    0.2972333   6.14 0.0004563036    1.424    0.298
       110 -10.7269     52.5841     98.1992   7.6903165945e+01   4.9896701335e+01    0.5363629    0.1677089 -52.72  0.001629229    2.603    0.616
       111  -8.6731    120.2961    101.6734   5.7662027708e+01   3.7962162395e+01    0.1547282    0.1229458 -86.44 0.0007023892    1.628    0.386
       112  -9.6146     28.3723     99.8060   8.4674270962e+01   5.1970056058e+01     0.230169    0.1332263 -43.81 0.0006687155    1.690    0.408
       113 -10.4108     30.8209     96.3608   8.3304593802e+01   5.2539140038e+01     0.348426    0.1747117 -64.24  0.001230223    1.664    0.399
       114 -10.8680     81.1760     98.0820   6.8048784440e+01   4.5990031579e+01     0.498299     0.247045  52.13  0.001966671    2.669    0.625
       115 -10.8966     83.0054     93.0986   6.6209237374e+01   4.6810344520e+01    0.4100272    0.3055081  74.77 0.0003080755    1.885    0.469
       116 -10.9870     79.4849     93.4943   6.7398793327e+01   4.7283578687e+01    0.4762172    0.3514569 -74.71  0.002381639    1.668    0.400
       117  -8.7797    210.0219     98.0000   3.6310578218e+01   1.7409317648e+01    0.2455729   0.08681879  54.46 0.0006978972    2.893    0.654
       118 -11.9970    125.2963     94.7137   5.4378586678e+01   3.8379163835e+01    0.4352876    0.3005303  54.31  0.001951224    1.546    0.353
       119 -10.6484    120.4893     90.4741   5.4480625672e+01   4.0300665618e+01    0.2778252    0.1917184 -52.55 5.348324e-05    1.537    0.349
       120 -10.5842     43.1223     94.5179   7.9089423166e+01   5.1778810932e+01    0.2694523     0.258228 -46.82  0.001152109    1.130    0.115
       121 -10.8731     98.5576     91.0577   6.0943148475e+01   4.4557116871e+01    0.3163661    0.2290044  45.93 0.0005603038    1.460    0.315
       122 -11.3727     89.8825     89.5816   6.3151220222e+01   4.6430099301e+01    0.5776969    0.3341618 -35.20  0.002511243    1.884    0.469
       123 -10.5027     49.3777     91.4392   7.6429013011e+01   5.1796668243e+01    0.2479167    0.2262306 -79.29  0.001342991    1.168    0.144
       124 -10.0729     66.1758     88.7656   7.0383717244e+01   5.0293932953e+01    0.3176423    0.2024847 -13.53  0.001418829    2.417    0.586
       125  -9.3078    199.9711     88.2494   3.5597335088e+01   2.1571708199e+01    0.1987069    0.1313848  56.94 0.0005417985    1.530    0.346
       126 -10.5873    104.0119     87.1837   5.8228770106e+01   4.4350786173e+01    0.2655658    0.2124093 -41.72 0.0008955541    1.211    0.174
       127 -11.1199    143.1661     84.6617   4.6819857537e+01   3.6334928578e+01     0.269865    0.2576968 -21.53 0.0002574348    1.064    0.060
       128 -10.6851     80.1919     83.9817   6.4619108441e+01   4.9254393352e+01    0.3771704    0.3189329 -55.18  0.001524541    1.181    0.153
       129 -10.9186     76.1778     78.7351   6.4424932638e+01   5.1005498207e+01    0.5662124    0.2993397 -51.71   0.00253502    1.822    0.451
       130 -10.0437     72.5933     77.8133   6.5336085477e+01   5.1746978959e+01    0.3362831    0.2323849 -70.33   0.00162466    1.942    0.485
       131  -9.2347    165.4934     83.5280   4.1250258706e+01   3.1077783018e+01      0.15677    0.1538002  63.88 0.0008099563    1.012    0.012
       132 -10.9099    113.0858     82.3643   5.4174397056e+01   4.3527643611e+01    0.2897395    0.2753508  51.43  0.001580795    1.106    0.096
       133 -10.1827     66.6796     81.7310   6.8376662633e+01   5.1764940944e+01    0.3608021    0.2797464   8.53  0.001991933    1.512    0.339
       134 -11.1639     58.5128     77.9905   7.0095159989e+01   5.3663341270e+01    0.4385071    0.2769589 -65.32  0.002181159    1.813    0.448
       135 -11.4807     53.4899     76.6265   7.1441213376e+01   5.4579062906e+01    0.5030435    0.3435631 -57.85  0.002765586    1.391    0.281
       136 -10.3160     14.3166     67.6648   8.3080235824e+01   6.0084460322e+01    0.3845982    0.1940205  10.88  0.002095187    2.568    0.611
       137 -11.6838     13.8824     74.4885   8.4640051576e+01   5.8657245150e+01    0.5181006    0.2809801 -64.91  0.002509814    1.515    0.340
       138  -9.7098      9.5007     73.4860   8.5947453051e+01   5.9141702618e+01    0.2173309   0.06843664 -55.27   0.00101707    2.170    0.539
       139 -10.9062     94.8216     76.6943   5.7888000705e+01   4.8263162671e+01    0.4721971     0.276181  35.92  0.001641872    1.811    0.448
       140 -10.1967    233.4831     77.5116   2.7342171727e+01   1.5280032973e+01    0.1450272    0.1323577 -56.86 0.0001679329    1.037    0.036
       141 -11.0552     78.7489     67.8427   6.0296651721e+01   5.2834386141e+01    0.6486772    0.4274155  70.53  0.002676597    3.088    0.676
       142 -10.1793     92.0627     71.9441   5.7279509168e+01   4.9724467033e+01    0.2792125    0.2080736  45.35 0.0004157065    1.442    0.307
       143 -11.1679     88.0075     73.0065   5.8893989871e+01   5.0235325999e+01    0.6186869    0.3144488 -49.34  0.002054776    1.988    0.497
       144 -10.9455     83.2178     73.8500   6.0690799432e+01   5.0885093621e+01    0.4480067    0.2810262  37.45  0.002167642    1.683    0.406
       145  -9.3057      1.3761     80.2654   8.9835298981e+01   5.8125125007e+01    0.1572186   0.08899944 -73.44 0.0009344494    1.488    0.328
       146  -9.0540     19.3481     76.2619   8.3124684742e+01   5.7904357243e+01    0.1219175   0.07445333 -36.41 0.0006975273    1.606    0.377
       147 -11.3390    186.5296     71.7775   3.3595971358e+01   2.7798073647e+01     0.706447    0.5195738 -21.80  0.003270992    1.542    0.352
       148 -10.0366    103.8197     74.8881   5.4595880635e+01   4.6907177262e+01    0.2724315    0.2252237  58.37  0.001405165    1.388    0.279
       149 -11.0298      2.0318     71.7397   8.8178162543e+01   5.9918884570e+01    0.3518375    0.1425147 -60.74   0.00161681    1.753    0.430
       150 -10.2098     24.4643     73.8946   8.0852088856e+01   5.8033383326e+01    0.2378061    0.1550439 -50.30 0.0006750967    1.228    0.186
       151 -11.4386     34.9143     71.7930   7.6682472457e+01   5.7591565736e+01    0.4701915    0.2544918  32.34  0.002514006    2.144    0.534
       152 -10.4765     41.2353     73.0389   7.4762974327e+01   5.6709339760e+01    0.2768806     0.177804 -47.25 0.0007142788    1.300    0.231
       153 -11.2679     39.8784     69.3586   7.4293396844e+01   5.7627549565e+01    0.2589852    0.2128736   1.71  0.001436579    1.354    0.261
       154  -9.8172    153.9169     72.4996   4.0599627906e+01   3.5978348712e+01    0.3544465    0.1372344  47.30  0.001160976    2.519    0.603
       155 -11.3939    122.8869     68.8997   4.7245647897e+01   4.4023278936e+01    0.4877848     0.303611  42.91  0.001410531    1.591    0.371
       156 -10.7688    219.9811     66.8279   2.6648434407e+01   2.0176016340e+01    0.5276136    0.2371481  65.08  0.002018716    2.423    0.587
       157 -12.3849     10.0360     62.5502   8.3525415004e+01   6.1420926443e+01    0.4005638     0.255922 -46.54 0.0004287285    1.240    0.193
       158 -12.0696      4.4418     61.5063   8.5357243668e+01   6.1946838456e+01    0.4665688    0.2231945 -55.39  0.001558449    1.512    0.338
       159 -11.1039     91.6637     62.6706   5.4409989287e+01   5.1593174154e+01    0.4829498    0.2832822  53.74  0.002124414    2.151    0.535
       160 -10.5489     87.6888     56.6099   5.3636116546e+01   5.3438112040e+01    0.5076147    0.2021929 -38.34  0.001963197    2.446    0.591
       161 -10.9616     59.8347     63.0766   6.5327708159e+01   5.6588021003e+01    0.4933241    0.3338426  15.64  0.001231386    1.712    0.416
       162 -10.0879    157.9689     63.1420   3.6836386087e+01   3.6571027374e+01     0.504315    0.1620056  44.80  0.001486628    3.396    0.706
       163 -10.0311    106.0605     63.5173   5.0267743839e+01   4.8629208258e+01    0.2268623    0.1415801  42.06  0.001031686    1.602    0.376
       164 -10.0158     51.1215     56.6700   6.6499350376e+01   5.8966362934e+01    0.2318022    0.1985647   5.96 0.0009897397    1.212    0.175
       165 -11.2701     40.7471     57.1163   7.0542292995e+01   6.0050667137e+01    0.3521639    0.2071217  39.06  0.001766684    2.085    0.520
       166 -11.3784     43.3450     62.3755   7.1112401345e+01   5.8715544503e+01    0.2722715    0.1954666 -45.43 0.0004537788    1.177    0.150
       167 -10.5599     50.6110     61.2095   6.8093191265e+01   5.8128357690e+01    0.2538813    0.2239633 -36.19  0.001461016    1.070    0.066
       168 -11.0262     46.4045     59.2476   6.9055104401e+01   5.9009862261e+01    0.3261169    0.2727303  87.53  0.001403863    1.750    0.428
       169 -11.3780    235.3527     60.8487   2.3004760669e+01   1.7402477180e+01    0.4510497    0.3220876  67.95  0.002343024    1.446    0.308
       170 -12.6360     74.5237     52.1506   5.6513233117e+01   5.6501618944e+01    0.8794121    0.4099666 -51.13  0.002075003    2.628    0.619
       171  -9.9141     81.5312     50.5190   5.3536387292e+01   5.5615490035e+01    0.2304658     0.203317  56.42  0.000642721    1.426    0.299
       172 -10.4757     83.0740     46.9489   5.1727856880e+01   5.5958786707e+01    0.2594462     0.189858 -15.03 0.0006104102    1.399    0.285
       173 -10.7562    109.5900     40.4515   4.1168481103e+01   5.1719016649e+01    0.6126758    0.3564749 -20.25  0.002065075    1.960    0.490
       174 -11.6145    117.6092     55.3881   4.4220245430e+01   4.7586644318e+01     1.069439    0.6572955 -70.45  0.003673709    3.758    0.734
       175 -11.7830    117.6221     44.0091   4.0251921850e+01   4.9401160588e+01     0.589204    0.4551404  72.85   0.00227006    1.644    0.392
       176 -10.5229    174.5695    247.2338   7.3457935868e+01  -7.9641862310e-01    0.2971011    0.2277888  50.68  0.001960348    1.263    0.208
       177 -10.2736     91.6852     57.2944   5.2584317432e+01   5.2579777326e+01    0.3174164    0.2214897  52.30 0.0008235498    1.674    0.403
       178 -10.6769    157.4768     55.7963   3.4668903570e+01   3.7887746851e+01     0.542301    0.4569414 -17.21  0.002754944    1.298    0.229
       179  -9.6869    154.2812     51.3638   3.3955967887e+01   3.9391937901e+01    0.2652203    0.1611412 -17.99 0.0008530529    2.061    0.515
       180 -11.1690     34.9472     51.6354   7.1123528126e+01   6.1715774079e+01     1.229865    0.5349661 -26.72  0.004970969    3.375    0.704
       181 -10.7700     20.4929     55.4857   7.7873463313e+01   6.2180695643e+01    0.3830082    0.2654748 -86.52  0.002210899    2.159    0.537
       182 -11.1434     25.0067     59.4996   7.7194598390e+01   6.1017098283e+01    0.4974797    0.1701922  36.16  0.002183733    3.602    0.722
       183 -11.1469     25.0056     56.1711   7.6309918226e+01   6.1694255325e+01    0.5429243    0.2799454 -24.86   0.00275877    2.300    0.565
       184 -11.3535    114.6393     49.4254   4.2977313761e+01   4.9225186440e+01    0.6702141    0.3456045  34.96  0.002429291    2.180    0.541
       185 -10.5129    106.2420     58.4799   4.8519359692e+01   4.9498895484e+01    0.2570648    0.1915779 -72.70  0.001167271    2.093    0.522
       186 -11.4829     60.7772     47.9272   5.9964922683e+01   5.9346653147e+01    0.8000006      0.28557 -41.35  0.003256428    2.531    0.605
       187  -9.9011     57.1107     41.7091   5.9098419880e+01   6.0959410282e+01    0.2949603    0.1382221  39.52  0.001383725    2.378    0.579
       188 -11.2968     46.4091     48.8039   6.5732618514e+01   6.1035761546e+01    0.5583032    0.3112114 -28.93  0.002859543    1.814    0.449
       189 -11.6142     44.0380     43.9856   6.5023076070e+01   6.2203303747e+01    0.3380391    0.2924445 -29.36 0.0003002586    1.110    0.099
       190 -10.8877     39.3251     44.3353   6.7029429471e+01   6.2660433134e+01    0.3216883    0.2066213 -18.59  0.001519073    1.614    0.380
       191  -9.4204     66.8442     54.8788   6.0162839593e+01   5.7189997770e+01    0.1761193    0.1552218 -54.25  0.001058725    1.331    0.249
       192 -10.8287    240.6672     50.5196   1.9855370658e+01   1.7660691776e+01    0.2354634    0.1965993  42.60  0.001022046    1.433    0.302
       193 -10.4850    145.9082     47.8552   3.4651025891e+01   4.2041209104e+01    0.4620571    0.2445503 -19.39   0.00173745    2.462    0.594
       194 -10.2920     51.8019     48.1316   6.3423619002e+01   6.0507165028e+01    0.2189256    0.2010922  -6.04 0.0006967003    1.156    0.135
       195  -9.6489      1.8662     49.1333   8.3606778234e+01   6.4593542236e+01    0.1592147    0.1345137 -60.41   0.00082328    1.203    0.169
       196 -10.7591    200.5564     45.5353   2.3924488104e+01   2.8235869837e+01    0.5221348     0.348708 -75.11  0.002196614    1.783    0.439
       197 -10.7825     20.6050     46.0676   7.5207989435e+01   6.4037149839e+01    0.3123378    0.1911719 -37.96 0.0004528494    1.328    0.247
       198 -10.8889     26.5374     42.8281   7.1765501427e+01   6.4175233910e+01    0.2343446    0.2067812 -18.05  0.001159112    1.165    0.141
       199 -10.1905     22.6883     37.3292   7.1601316128e+01   6.5522638468e+01    0.3478001    0.2574029  50.35  0.002194862    2.132    0.531
       200  -9.1473    222.5318     47.5471   2.1381891536e+01   2.2415573038e+01    0.1433285    0.1286881 -72.72 0.0001397483    1.029    0.028
       201  -9.8350     13.2411     46.9474   7.8468975455e+01   6.4383361964e+01     0.213212   0.08737827 -39.46  0.001088275    2.048    0.512
       202 -10.5453    136.8880     44.8701   3.5720464073e+01   4.4721928578e+01    0.7409063    0.1994118  45.78  0.002164316    3.702    0.730
       203  -9.6662    160.6729     43.5338   3.0178506988e+01   3.8902291141e+01    0.2131053    0.1427242  74.15 0.0009473594    1.649    0.394
       204 -10.5011    155.7870     42.1544   3.0713951942e+01   4.0357142497e+01    0.2999344     0.256734   1.97   0.00128113    1.318    0.241
       205 -10.4240     92.5680     41.6344   4.6671809482e+01   5.5055976005e+01    0.3994761    0.2245259  45.59  0.001617652    1.781    0.438
       206  -9.3477     17.3959     41.8199   7.5275016560e+01   6.5090433392e+01    0.1769281    0.0771964 -44.79 0.0009372959    1.737    0.424
       207 -11.1853      5.0145     36.0281   7.8869309331e+01   6.6974506360e+01    0.3711634    0.2605316 -45.36   0.00233052    1.073    0.068
       208 -10.3445     11.0398     30.6834   7.4538587325e+01   6.7597188350e+01    0.2566195    0.1545761 -27.22 0.0009945933    1.450    0.310
       209 -10.2788      7.0335     30.4737   7.6284326319e+01   6.7887592924e+01     0.307977     0.136455 -13.55  0.001523836    3.033    0.670
       210 -10.2153     89.4727     29.2256   4.2846699379e+01   5.7485030178e+01    0.3942449    0.2098535  40.81  0.001365449    1.773    0.436
       211 -10.4059     79.5344     39.0234   4.9953056190e+01   5.7882886249e+01    0.4433402    0.3289431  78.20  0.002105506    2.692    0.629
       212 -10.6967     78.1396     34.1803   4.8543093701e+01   5.8877948348e+01     0.575949    0.2986142  27.88  0.002585747    2.209    0.547
       213 -10.2479     82.3641     32.7026   4.6530813339e+01   5.8338461324e+01    0.3116887    0.2345008 -64.98  0.001222219    2.263    0.558
       214 -11.1367     60.9300     36.5409   5.5687140081e+01   6.1288438193e+01     0.418054    0.2735799 -33.61  0.001599224    1.387    0.279
       215 -10.4935     68.2951     32.8471   5.1492696996e+01   6.0741628328e+01    0.4388866    0.3187657  39.94  0.002541666    1.486    0.327
       216 -11.6688     57.5514     30.9486   5.4770586601e+01   6.2677556933e+01    0.4577892    0.2917117 -31.11  0.001235732    1.412    0.292
       217 -11.5097     48.6829     30.4607   5.8098271206e+01   6.3969366289e+01    0.5862019    0.2526636  30.14  0.002292159    2.487    0.598
       218 -11.2108     43.0083     28.0589   5.9478022511e+01   6.5067626284e+01     0.199272    0.1524516 -19.92 0.0002917794    1.070    0.065
       219  -9.6684    231.4973     37.9809   1.7915253782e+01   2.1551123692e+01    0.2123342    0.1304879 -33.88  0.001042394    1.619    0.382
       220 -10.1012    171.5119     48.4637   2.9621304245e+01   3.5373894386e+01    0.2410521    0.1283408  50.63 0.0009817774    1.788    0.441
       221 -10.6158    176.5494     35.6188   2.4888746716e+01   3.5839133687e+01    0.3789353     0.223808 -54.46  0.001413557    1.970    0.492
       222  -9.8659    132.9510     36.9894   3.3947308071e+01   4.6802365466e+01    0.3325112    0.2077427  84.88  0.001309681    2.672    0.626
       223  -9.5325     12.8099     37.0713   7.5787413963e+01   6.6304587321e+01    0.1532324   0.07253103 -54.36 0.0007314296    1.747    0.427
       224  -9.4207    227.2990     36.3269   1.7997575674e+01   2.2784367752e+01    0.1332728    0.1066073  30.94 0.0002671918    1.635    0.388
       225  -9.5915     94.2345     36.1554   4.4074072968e+01   5.5559717646e+01    0.1749308    0.1658225 -56.86 0.0006450602    1.334    0.250
       226 -12.3218    160.0254     29.9205   2.6013674186e+01   4.0878999067e+01    0.4516309    0.3902713 -28.00  0.000520822    1.257    0.205
       227 -12.4522    164.4807     27.7445   2.4543834788e+01   3.9987457088e+01    0.3564954    0.3139392  80.92 0.0005278403    1.117    0.105
       228  -9.9131    142.6557    249.7171   7.9622502058e+01   4.1482488779e+00    0.1163333    0.0839355  24.66 0.0006879712    1.639    0.390
       229 -11.5199    107.3660     31.3271   3.8388485887e+01   5.3492351594e+01    0.5914751    0.3322749   7.95  0.002297475    2.916    0.657
       230 -11.9882    114.2301     25.0379   3.4188665119e+01   5.2763586465e+01    0.7049908     0.277718  47.21  0.002033319    2.245    0.555
       231 -10.2958    239.9973     32.5015   1.5683178835e+01   2.0257634069e+01    0.2797437    0.2079131  47.85  0.001546163    1.609    0.378
       232  -9.9172    138.4455     33.4411   3.1484121151e+01   4.5925173306e+01    0.1444475    0.1349382  50.31 0.0001083988    1.037    0.035
       233 -10.9865     32.4034     30.6931   6.5040688720e+01   6.5810437408e+01    0.3292482    0.1902093 -50.79 0.0004637465    1.813    0.448
       234  -9.9541     38.5415     22.4505   5.9077262371e+01   6.6485596862e+01    0.2031478     0.142282 -26.47 0.0005438043    1.183    0.155
       235  -9.3733    113.4695    249.4805   8.4881487719e+01   8.8807826109e+00    0.1196093   0.09188396  53.36 0.0002688658    1.033    0.032
       236  -9.9310    213.4959    248.4763   6.6595925604e+01  -7.2882970160e+00    0.1209827    0.0908485  26.63 0.0008101781    1.011    0.011
       237  -9.4503    230.1045     30.5189   1.6267145318e+01   2.2860091498e+01    0.1975112    0.1263656  72.15  0.000465011    1.508    0.337
       238 -11.0782    188.9254     28.0180   2.0775052657e+01   3.3567022294e+01    0.3581114    0.3180637  -1.55   0.00135424    1.346    0.257
       239 -12.1972    126.2825     28.6242   3.2559242585e+01   4.9505081412e+01    0.5408218    0.4225053  68.04   0.00285811    1.384    0.277
       240 -10.1017     98.3121     29.2197   4.0157643220e+01   5.5703510727e+01    0.3931642    0.2330526 -55.40  0.001647119    2.909    0.656
       241 -10.2884    197.6356     28.9404   1.9815698604e+01   3.1193659855e+01    0.3623394    0.1938303  63.29  0.001272762    1.712    0.416
       242  -9.4740    150.4811     27.4796   2.7010873414e+01   4.3636842047e+01    0.1459315    0.1326881  53.05 -3.373226e-05    1.010    0.010
       243  -9.6903    230.6396     26.7121   1.5295076217e+01   2.3211514208e+01    0.1333673   0.09936818  41.66 0.0007024168    1.687    0.407
       244 -11.2624    183.0037     25.4370   2.0900540003e+01   3.5424291161e+01    0.3676341    0.2391016  62.08  0.001154899    1.395    0.283
       245 -10.9830    154.5273     24.3846   2.5245846761e+01   4.2965475910e+01    0.4046564     0.220337  77.93  0.001643859    2.241    0.554
       246 -11.4538    144.0269     24.7869   2.7378877730e+01   4.5597680831e+01    0.5233976    0.2214589  49.82  0.002077746    2.097    0.523
       247  -9.4996    213.6550     24.3194   1.6585497261e+01   2.7680598736e+01    0.1511723    0.0937409 -67.30 0.0007049365    1.726    0.421
       248 -12.3012    126.4662    241.6872   8.1659931712e+01   8.0481337812e+00    0.3748762    0.3170831 -79.56  0.002610772    1.387    0.279
       249 -11.3734     67.6510    240.9316   9.2217775056e+01   1.7075069593e+01    0.2903224    0.1697606  35.62   0.00153337    1.960    0.490
       250 -11.8392    146.8919    237.8207   7.7358882556e+01   5.2515454385e+00    0.5394756    0.3050011  55.03  0.002288408    1.701    0.412
       251 -10.7405    127.4965     16.3474   2.7859869969e+01   5.0627628620e+01    0.3716618    0.2018829  48.17  0.001137872    1.613    0.380
       252 -10.5703     73.5443    238.1239   9.0949930467e+01   1.6755041276e+01    0.3545748    0.1854837  45.68  0.002093868    1.576    0.365
       253  -9.3277     15.3883    233.7813   1.0051280996e+02   2.4659098102e+01    0.1343342   0.07814899 -74.99 0.0009445299    1.665    0.400
       254 -11.1232    167.6932    238.1374   7.3478176658e+01   1.6499711241e+00     0.203383     0.197421  83.29  0.000856941    1.289    0.224
       255 -10.0845     59.7664     23.5508   5.0844505243e+01   6.3460378550e+01    0.2172247    0.1517186 -27.66 0.0005436361    1.318    0.241
       256  -9.8203    223.2859     21.9562   1.4924518289e+01   2.5578618135e+01    0.2379306    0.1672785 -86.22 0.0006862939    1.374    0.272
       257 -11.0647    179.3645     20.4932   2.0002923557e+01   3.6949932721e+01    0.5592164    0.2424737  42.43  0.001938176    2.816    0.645
       258  -9.7048      5.8844     22.0260   7.3988363743e+01   6.9460318279e+01    0.1686667    0.1224997 -34.29 0.0005590878    1.010    0.010
       259  -9.2146    163.3033    243.3508   7.5012633447e+01   1.6386134443e+00    0.1203988   0.08744889  15.83  0.000704024    1.701    0.412
       260 -11.2990    245.9993     19.9808   1.2242854455e+01   2.0433680130e+01     0.209368     0.172308 -65.69 0.0009008986    1.040    0.038
       261  -9.3830    180.6858    228.6469   6.9625055786e+01   7.9204198061e-01    0.1297711   0.09051775  13.30 0.0006948663    1.734    0.423
       262 -10.1689    156.1931     20.4606   2.3686940851e+01   4.2982791247e+01    0.2935382    0.1193198  59.04    0.0011489    2.098    0.523
       263 -10.1111     74.6340     19.5482   4.3714805511e+01   6.1541072821e+01    0.2375512    0.1736324  15.62 0.0005485982    1.272    0.214
       264 -10.0008     47.0156     19.3935   5.4151489438e+01   6.5881937053e+01    0.2312247     0.182704 -13.59  0.001541636    1.050    0.048
       265  -8.8844      1.4923     20.4830   7.5569075467e+01   6.9984660549e+01    0.1132422   0.07791654 -34.36 3.220119e-05    1.065    0.061
       266  -9.6832     80.2232     19.4172   4.1783206072e+01   6.0537258391e+01    0.2551917    0.1101732  42.75  0.001140124    2.141    0.533
       267  -9.2100    200.6541    226.2905   6.5471688306e+01  -2.3397236124e+00    0.1202722   0.09390768  59.30 0.0007026531    1.659    0.397
       268 -10.8517    197.1472    231.8531   6.7015723241e+01  -2.5046811607e+00    0.1817072    0.1287286  21.05   0.00108416    1.346    0.257
       269  -9.1455    166.6709    225.6624   7.1872053354e+01   3.7140454137e+00    0.1300206   0.09369561  14.57 0.0006419329    1.732    0.423
       270  -9.7458     75.4081    224.2360   8.9365520466e+01   1.9019346673e+01    0.1587071   0.09995823 -89.15 0.0007874414    1.606    0.377
       271  -9.7322    233.5552    223.4837   5.8970372563e+01  -7.4470869456e+00    0.1245616   0.09802216  17.14 0.0001319448    1.006    0.006
       272 -10.1767    246.9929    231.0372   5.7909642927e+01  -1.0423689781e+01    0.1496779    0.1111296  19.11 0.0007205812    1.045    0.043
       273 -10.5039    186.8877     15.0167   1.7403523067e+01   3.5598833601e+01    0.2325247    0.1851709  75.09 0.0003446023    1.125    0.111
       274  -9.4181    153.4470    219.4796   7.3551302112e+01   7.0725255928e+00    0.1326274    0.1105011  46.65 9.711285e-06    1.023    0.022
       275 -10.0345    164.7388    211.9970   7.0146553163e+01   6.2741471980e+00      0.23608    0.1687106  44.20 0.0006129199    1.193    0.162
       276 -10.2292    152.5348    207.0434   7.1839094567e+01   9.3812079595e+00    0.3302175    0.2161701 -80.21  0.001521854    2.569    0.611
       277  -9.4773     74.7489     13.5886   4.1083448517e+01   6.2249355195e+01    0.1659166     0.118467  52.73 0.0009415506    1.643    0.391
       278  -9.2567     61.4877    206.5047   9.0345256001e+01   2.4395498658e+01    0.1231079   0.09639774  72.52 0.0008105395    1.007    0.007
       279 -10.5313    139.1218    198.6478   7.3308733307e+01   1.3405943414e+01     0.229013    0.1915231 -82.18   0.00131969    1.362    0.266
       280 -10.4776      6.1496    198.7119   1.0016102198e+02   3.2201805547e+01    0.2086373   0.09704605 -70.74  0.001266022    1.888    0.470
       281 -10.0120    233.9568    196.7398   5.4035233943e+01  -3.9690394908e+00    0.2167738    0.1641276 -41.40  0.001261222    1.620    0.383
       282  -9.4086    171.6910    190.6346   6.5076933619e+01   8.6595356384e+00    0.1442769    0.1073555   6.11  0.000703819    1.752    0.429
       283 -11.6994      4.8831    185.6566   9.9600801305e+01   3.4944833109e+01    0.4121137    0.2748873  82.89  0.002416107    1.117    0.105
       284  -9.1507     86.5280    185.4932   8.2758030855e+01   2.5152335870e+01    0.1335365    0.1140532  73.62 5.508062e-05    1.001    0.001
       285 -10.0520     65.9700     10.3904   4.2701302253e+01   6.4167259599e+01    0.2632705    0.1085886  44.62  0.001221509    2.316    0.568
       286  -9.1103    175.5300    179.5376   6.2185363077e+01   9.9110895703e+00    0.1450727    0.1315036  35.35 0.0002524638    1.002    0.002
       287  -9.3837    113.4950    175.9895   7.5297658126e+01   2.2687635705e+01    0.1834198    0.1192983 -32.32 0.0007983077    2.360    0.576
       288  -9.4922     28.3859    175.7945   9.4191165638e+01   3.4783051444e+01    0.1629741   0.08990804 -67.06 0.0005417427    1.623    0.384
       289 -10.1966     51.7594    173.2278   8.8910429842e+01   3.2695674922e+01    0.4303088    0.1703034 -83.49  0.001603064    3.588    0.721
       290 -10.6582     13.9253    159.2000   9.5806026776e+01   3.9762740065e+01    0.2325449     0.150284 -67.13 0.0004854335    1.383    0.277
       291 -11.4739      9.1684    166.9530   9.7448484610e+01   3.8492713983e+01    0.2612733    0.2358107  20.37  0.001396116    1.607    0.378
       292  -9.2333    198.3043    167.6991   5.5059519942e+01   7.3981557852e+00     0.137193     0.117361  85.94 0.0002617598    1.592    0.372
       293 -10.0949     18.5625    164.9697   9.5310036094e+01   3.8089793119e+01    0.1859995    0.1699287 -23.28  0.001372705    1.628    0.386
       294  -9.9746    204.9664    163.2699   5.2780531201e+01   6.8071066420e+00    0.2402354    0.2045086 -25.66 0.0005693046    1.191    0.161
       295 -10.1726     28.1663    161.0827   9.2850643322e+01   3.8025146665e+01    0.1827034    0.1482504 -67.45   0.00124628    1.264    0.209
       296  -9.3342     38.1762    160.6186   9.0547090145e+01   3.7086970388e+01    0.1480198    0.1207071  20.42 0.0009454807    1.682    0.406
       297  -9.1634    215.3550    157.2797   4.9448044397e+01   5.7101101978e+00     0.150485    0.1064906  13.89 0.0002553443    1.656    0.396
       298 -10.3268      9.4756    155.5141   9.6457358702e+01   4.0941658529e+01    0.2351472   0.09016684 -75.25  0.001180706    2.065    0.516
       299 -10.6303    104.7506    154.4437   7.3648102568e+01   2.9011475404e+01     0.338412     0.284904  13.80  0.001795891    1.541    0.351
       300  -9.9644      4.0863    153.5148   9.7464130175e+01   4.1802475201e+01    0.1492865    0.1037588  42.95  0.001027652    1.602    0.376
       301  -9.7840    142.3106    152.5680   6.4177377951e+01   2.2164721279e+01    0.2905737    0.1403166  47.91 0.0009843892    2.013    0.503
       302 -10.4505     30.4661    152.0093   9.1373829565e+01   3.9827745018e+01    0.2003333     0.178506 -16.09  0.001373435    1.606    0.377
       303 -10.5056     65.2171    149.8651   8.2695461503e+01   3.6258295961e+01    0.4543526    0.2591869  10.66  0.001726915    4.082    0.755
       304 -11.1390     46.6931    147.1859   8.6896570613e+01   3.9193880825e+01    0.5028192    0.2968798 -45.95  0.002604356    1.999    0.500
       305 -10.9243     16.3581    147.9970   9.4227113068e+01   4.2027664344e+01    0.2316548    0.1857438  71.58 0.0007532101    1.189    0.159
       306 -12.4368     22.8062    149.0626   9.2842527567e+01   4.1221037891e+01    0.4903148    0.2922516 -40.19   0.00134496    2.360    0.576
       307 -10.3604      3.2394    147.3682   9.7143119940e+01   4.3205192854e+01    0.1926809    0.1193423 -71.56 0.0008976119    1.299    0.230
       308  -9.9030    249.3485    145.1729   4.0674093886e+01   9.6710214320e-01    0.3654995   0.09481035 -42.52  0.001100076    4.319    0.768
       309  -9.7550     74.0367    146.0166   7.9872831882e+01   3.5917260171e+01     0.201859    0.1601281 -34.96 0.0004932621    1.593    0.372
       310 -11.2290     33.2673    144.3736   8.9824270520e+01   4.1282607674e+01    0.2643287    0.2117359 -86.27 0.0006903501    1.036    0.035
       311 -11.1846      5.9384    142.0244   9.6062175955e+01   4.4180496159e+01    0.2956213    0.1729234  87.70            0    1.474    0.321
