#   1 NUMBER                 Running object number                                     
#   2 MAG_AUTO               Kron-like elliptical aperture magnitude                    [mag]
#   3 X_IMAGE                Object position along x                                    [pixel]
#   4 Y_IMAGE                Object position along y                                    [pixel]
#   5 X_WORLD                Barycenter position along world x axis                     [deg]
#   6 Y_WORLD                Barycenter position along world y axis                     [deg]
#   7 A_WORLD                Profile RMS along major axis (world units)                 [deg]
#   8 B_WORLD                Profile RMS along minor axis (world units)                 [deg]
#   9 THETA_WORLD            Position angle (CCW/world-x)                               [deg]
#  10 FWHM_WORLD             FWHM assuming a gaussian core                              [deg]
#  11 ELONGATION             A_IMAGE/B_IMAGE                                           
#  12 ELLIPTICITY            1 - B_IMAGE/A_IMAGE                                       
         1 -13.8818    243.8816     21.4847   4.9446523718e+01   2.1084140162e+01     5.836332     1.760719 -23.46   0.02028857    3.150    0.683
         2 -12.7047    233.0799      5.1761   4.5992868928e+01   2.5379997587e+01     5.332315    0.7432664 -31.82   0.01638271    3.996    0.750
         3 -12.8243    125.4287     52.3657   7.8639920762e+01   4.6854201729e+01     2.112101     0.924973 -44.49  0.002032954    2.350    0.574
         4 -13.4468    136.6371     39.9635   7.1406527566e+01   4.6235555105e+01     3.303625     2.422582  17.97    0.0154613    1.612    0.380
         5 -12.8783    141.6082     19.3672   6.2484063117e+01   4.7792421608e+01     2.281846     1.729868  50.37   0.01155163    1.283    0.220
         6 -11.9744    156.6193      5.1255   5.4453906016e+01   4.5389178561e+01     2.049512     1.100882  68.73  0.008874297    1.833    0.454
         7 -10.5360    117.4197     31.8216   7.2906572697e+01   5.2020870516e+01    0.4608326     0.258632 -22.45  0.001968588    1.867    0.464
         8 -10.9129     10.0958     24.1845   1.1017469988e+02   6.9714025295e+01     0.650803    0.2370832 -35.09  0.002934756    3.084    0.676
         9 -11.2876      3.6058      9.7491   1.0823525256e+02   7.2942719567e+01    0.8884643    0.4517775 -16.86  0.005008026    2.494    0.599
        10  -9.9427      4.7044      2.5718   1.0446961958e+02   7.4199305626e+01    0.4127754    0.2207423  27.86  0.002588347    2.343    0.573
        11 -10.5639     20.9472      3.8693   9.5932000236e+01   7.2629114926e+01    0.4618071    0.3301379  12.14  0.003142859    1.563    0.360
        12 -11.0472     96.0697     97.0677   1.0013430403e+02   4.3690896125e+01    0.3890514    0.3007094   2.30  0.001947504    1.931    0.482
        13 -10.3112    243.8067    249.4029   9.8299001107e+01  -5.7567447722e+00    0.3588027    0.1498077  40.53  0.002224699    1.818    0.450
        14 -10.2349     11.7035    248.3963   1.3361443138e+02   2.4934371662e+01    0.3911739    0.1107701  61.58  0.002398766    2.480    0.597
        15 -10.7862      3.1787    243.0671   1.3464966542e+02   2.6518023350e+01    0.4310627    0.1997572  67.92  0.003149326    1.469    0.319
        16  -7.8431      1.4977    220.4747   1.3419332415e+02   3.0192606578e+01   0.09593783   0.06220835  69.24 0.0008101437    1.002    0.002
        17  -8.8506     18.1668    218.1721   1.3151688818e+02   2.9021331302e+01    0.1431979   0.07675457  64.35 0.0006398899    1.323    0.244
        18  -8.9833     11.7898    216.8509   1.3246820118e+02   2.9848762383e+01    0.1702607     0.118241  69.49  0.001144069    1.060    0.057
        19  -9.5489     20.0124    211.0182   1.3089752609e+02   3.0040246634e+01    0.1320516    0.1160838 -66.28 0.0009874357    1.736    0.424
        20  -7.9531    124.0051    206.0191   1.1230332427e+02   1.7623227580e+01    0.1330199    0.1065283  54.77 0.0009198089    1.008    0.008
        21 -10.5498     35.1656    198.4373   1.2764700993e+02   3.0691597120e+01    0.3160282    0.1378716  36.91  0.001872388    2.333    0.571
        22  -8.0066     52.6437    198.3148   1.2452822467e+02   2.8762689217e+01    0.1194335   0.06018329  65.31  0.000704472    1.744    0.427
        23 -10.4434     20.1074    197.7834   1.3022966954e+02   3.2335510744e+01    0.2013051    0.1747828  42.72  0.001718503    1.589    0.371
        24 -10.3136     25.8367    198.8866   1.2930032938e+02   3.1574237651e+01    0.1967101    0.1273394  68.40 0.0009998678    1.125    0.111
        25  -8.0229    250.5731    177.0690   8.5666612058e+01   1.1709468888e-01    0.1636945    0.1072009 -23.48 0.0006413411    1.518    0.341
        26 -10.4300    101.0071    176.0014   1.1300309972e+02   2.6379028668e+01    0.1741647    0.1463095  67.76   0.00115726    1.006    0.006
        27  -8.6088    239.2166    173.0120   8.6695335828e+01   2.4957549286e+00    0.1952391    0.1492529  27.13  0.000300908    1.125    0.111
        28  -9.6975     40.5326    170.3033   1.2462200030e+02   3.5416028998e+01     0.158382    0.1451668  -5.64   0.00118585    1.792    0.442
        29  -8.2598     95.0172    166.9285   1.1304657445e+02   2.9027238798e+01    0.1811693    0.1529842  68.03 0.0003324236    1.026    0.026
        30  -8.3742    240.0545    168.0790   8.5612288640e+01   2.9379840217e+00    0.1833421    0.1510216  16.56 0.0002972716    1.024    0.023
        31  -7.9897    240.4218    163.2742   8.4610149821e+01   3.4546466931e+00    0.1501513    0.1137618 -28.56 0.0002207784    1.400    0.286
        32  -9.9298     52.8495    162.8499   1.2142466676e+02   3.5518955814e+01    0.2454254    0.1689509  -3.94    0.0012214    3.718    0.731
        33 -10.2435    208.5491    160.9832   8.9539179923e+01   9.6234130939e+00    0.2677876    0.2256102  41.62 0.0003886113    1.173    0.147
        34  -9.3380    227.9885    143.5108   8.2565686165e+01   8.3221680911e+00    0.2327356    0.1832308 -15.93 0.0003638198    1.219    0.179
        35  -9.5407    214.0480    143.3751   8.4929133039e+01   1.1086807437e+01    0.2813371    0.1735568 -48.01  0.001342177    2.050    0.512
        36 -10.4236     75.9127    130.2585   1.1200970973e+02   3.9468315600e+01    0.3168272    0.1909217 -40.72  0.001548115    2.265    0.559
        37 -10.2184     73.8646    124.9457   1.1164886950e+02   4.0925543422e+01    0.2477438    0.1694618 -72.47  0.001380287    1.350    0.260
        38 -10.8199     57.9335    123.9672   1.1550550486e+02   4.3222220186e+01    0.3391474    0.2327742 -77.82  0.001992579    1.292    0.226
        39 -11.2383     78.5124    116.4722   1.0897242065e+02   4.2149725008e+01    0.3650973    0.2883082  43.88  0.002145153    1.368    0.269
        40  -7.9233    245.2876    117.6808   7.3973972009e+01   8.4147683603e+00    0.1296498    0.1034303 -52.20 0.0002253441    1.595    0.373
        41 -11.3948     99.3871    111.5844   1.0257718692e+02   3.9938919534e+01    0.6671047    0.4297907  20.27  0.002957786    2.502    0.600
        42 -10.4385     61.7570    116.4784   1.1334785993e+02   4.4424800486e+01    0.3025333    0.1883057  55.12  0.001639952    1.694    0.410
        43 -11.9673     83.2367    107.6292   1.0598872791e+02   4.3422936441e+01    0.5068417    0.4332151 -54.99  0.003018029    1.152    0.132
        44  -9.6204     71.1585    108.3322   1.0938948853e+02   4.5020109841e+01    0.2401696    0.1294789  27.35  0.001090072    2.557    0.609
        45  -9.9620     65.7072    106.8756   1.1059959096e+02   4.6084535754e+01    0.2187282    0.1486726 -49.79  0.001199148    1.478    0.323
        46  -7.7589    108.3068    105.2969   9.8854337128e+01   3.9734646065e+01    0.1368863    0.1136234 -13.45 0.0005097975    1.588    0.370
        47  -7.9618     55.3163    105.3331   1.1318459101e+02   4.7738192860e+01    0.1281725   0.09043178 -40.87 0.0005630737    1.689    0.408
        48  -9.9642    101.2930    103.0053   1.0014710098e+02   4.1485803743e+01     0.303557    0.2024025  32.80  0.001469773    1.784    0.440
        49 -10.7163    243.2873    101.3226   7.0356671722e+01   1.1041893518e+01    0.3244527    0.3038601 -65.14  0.001944921    1.310    0.237
        50 -10.9614    236.2874     98.7914   7.0777488716e+01   1.2884870634e+01    0.4529079    0.2171773 -34.77  0.001936648    1.925    0.481
        51 -11.8535     83.6581     99.1933   1.0405179018e+02   4.5245078544e+01    0.5892575    0.4415816  14.06  0.003060241    1.925    0.480
        52 -11.0354     76.0312     96.5176   1.0559808537e+02   4.6994384794e+01    0.4277893    0.1880272 -55.10  0.001844556    2.014    0.503
        53 -12.1521     88.2951     90.4809   1.0068127454e+02   4.6443238625e+01    0.7514058    0.4628835  21.39  0.003295137    2.537    0.606
        54 -12.8293     80.1694     84.7485   1.0159668845e+02   4.9004205064e+01    0.8446475    0.6826472  57.42  0.004798057    1.375    0.273
        55  99.0000    226.0255     88.4381   6.9705560021e+01   1.6642856391e+01     4.526002     1.928732  46.23  0.000478964    2.432    0.589
        56 -11.9578    233.3437    249.8029   9.9887719154e+01  -4.3554647626e+00    0.2351744    0.1491227  28.72 0.0001893541    1.129    0.114
        57 -12.2777     85.6253     74.5318   9.7193443788e+01   5.0363326753e+01    0.6427605    0.5334868  34.61  0.003629806    1.357    0.263
        58 -10.2714     69.5718     97.3412   1.0761856099e+02   4.7724833750e+01    0.2385747    0.1738751  34.85  0.001331418    1.595    0.373
        59  -7.4592    169.9685     95.9551   8.1901801771e+01   2.8554167802e+01    0.1694137    0.1647968  28.81 0.0009161207    1.029    0.028
        60  -8.1786    131.6142     94.6490   9.0259421917e+01   3.7383821437e+01    0.3633074     0.194367  50.73  0.001053379    1.951    0.488
        61 -10.9086     61.9236     91.9310   1.0869382697e+02   4.9969552688e+01    0.4452556    0.2379345 -38.62  0.002005611    2.410    0.585
        62  -8.7416    124.0761     91.0834   9.1173183548e+01   3.9680891862e+01    0.3052176    0.2169778  23.51  0.001252497    1.866    0.464
        63 -11.1205     99.8637     89.7983   9.7259020224e+01   4.4612791690e+01    0.4384879    0.3198668  11.28  0.002071172    2.074    0.518
        64  -8.5611     55.2898     86.3498   1.0949421831e+02   5.2062242290e+01    0.1333172    0.0890883 -39.72 0.0007026359    1.667    0.400
        65 -10.7186    112.6521     83.6315   9.2078887279e+01   4.3522732621e+01    0.4122004    0.2709179  38.52   0.00170432    1.678    0.404
        66 -11.8043     85.5339     67.1106   9.5012348426e+01   5.1955205135e+01    0.5900027    0.3948321 -36.36  0.002945414    1.495    0.331
        67 -10.4167    121.5454     80.5425   8.8826903420e+01   4.2355071561e+01    0.3947622    0.2930506 -10.87  0.001818027    1.830    0.454
        68 -11.1552    107.0952     71.2034   8.9908552632e+01   4.7172881249e+01    0.5335777    0.3087856  49.78  0.002368235    1.885    0.469
        69 -11.3332    105.6472     79.5074   9.2811104723e+01   4.5739437686e+01    0.4340745    0.4006816  38.65  0.001714457    1.168    0.144
        70 -10.3252     99.5256     80.5523   9.4833576298e+01   4.6658340755e+01    0.2964631     0.200705 -30.93  0.001396781    1.709    0.415
        71  -8.6569     49.2093     79.8378   1.0997014355e+02   5.4246898239e+01    0.3507836    0.1052324 -53.89  0.001375171    2.639    0.621
        72  -9.5356    131.0750     78.8829   8.5898095252e+01   4.0649543765e+01    0.2391411    0.2064498 -73.57 0.0008580911    1.305    0.234
        73 -10.2928     16.6714    241.6452   1.3267448233e+02   2.5459769026e+01    0.2605082    0.1353879  81.79  0.001928919    1.551    0.355
        74 -10.1169    114.1325     77.1930   8.9798282301e+01   4.4554561058e+01    0.4295544    0.2342652  26.66  0.001545104    3.098    0.677
        75 -11.3944    117.3867     72.6702   8.7540043918e+01   4.4799211505e+01     0.527077    0.3545119  43.16  0.002480816    1.577    0.366
        76 -11.1117     98.7677     74.6187   9.3325864923e+01   4.8049287261e+01    0.3818242    0.3106845 -83.83  0.001998093    1.497    0.332
        77  -8.2308     29.5305    241.9758   1.3080434290e+02   2.4119720919e+01    0.1298313   0.07465735 -87.35  0.001034754    1.606    0.377
        78  -9.3473    250.4210    238.7117   9.5845703425e+01  -5.7923511526e+00    0.1570733    0.1187236  -5.41 0.0002225732    1.372    0.271
        79 -10.4263     98.9543     57.4546   8.7762608965e+01   5.1490074532e+01    0.3151704    0.2625101  42.02  0.001714553    1.296    0.228
        80  -8.1373     75.6740     53.3104   9.3705907906e+01   5.6417148029e+01    0.1335834    0.1072536 -81.64  0.000703978    1.659    0.397
        81  -9.6397     93.0248     52.6174   8.7865484377e+01   5.3547311273e+01    0.2538612    0.1910498 -50.43  0.001318703    1.324    0.245
        82 -11.2649     94.9951     64.4241   9.1274459641e+01   5.0846480937e+01    0.5423241    0.3579518 -21.20  0.002450269    2.006    0.502
        83  -8.3622      2.9973     52.0028   1.2030990982e+02   6.4246884637e+01    0.2489711   0.06462777 -42.67  0.000962806    4.165    0.760
        84  -9.2846    225.6845     51.0212   5.9563724495e+01   2.1940509675e+01    0.2664126    0.1914181  32.68  0.001098923    1.598    0.374
        85 -10.0993      6.0767    236.6673   1.3404007310e+02   2.7220904195e+01     0.162248    0.1055542  87.33   0.00113408    1.349    0.259
        86 -10.5369    113.1185     46.7185   7.9837858662e+01   5.0571814935e+01    0.4119236    0.2144745 -26.98  0.001645467    2.110    0.526
        87 -11.9137     75.1136     68.5068   9.8716879630e+01   5.3331861917e+01    0.6402029    0.4463432 -18.25  0.003148844    2.003    0.501
        88 -10.7096    104.2609     62.7802   8.8008423119e+01   4.9415574000e+01     0.334738    0.2804222  -7.87  0.001386766    1.361    0.265
        89  -8.5946     84.5796     46.7644   8.8412875102e+01   5.6198485122e+01    0.2002524    0.1231339 -49.43 0.0006017037    1.615    0.381
        90  -9.3044    221.6210     40.0886   5.6979115675e+01   2.4346518694e+01    0.3926491    0.2508053 -14.90  0.001217932    1.672    0.402
        91  -9.6829    106.0479     39.6249   7.9097448041e+01   5.3295056443e+01    0.3499005     0.204144 -33.62  0.001581018    1.614    0.380
        92  -8.3341     98.5595     40.7271   8.1718636946e+01   5.4651412822e+01    0.2851767    0.1330601 -32.19  0.001138055    2.121    0.529
        93  -9.3631     10.6534     39.1372   1.1433834124e+02   6.6586260727e+01    0.2930683    0.1437735 -17.89  0.001453577    3.142    0.682
        94 -10.0699     14.7162    232.8466   1.3263826211e+02   2.6998254000e+01    0.1795639    0.1218516  70.85  0.001237419    1.073    0.068
        95  -9.7460     25.1850    229.1396   1.3090212879e+02   2.6548148048e+01    0.2735775    0.1680052 -83.41  0.002210443    1.544    0.352
        96  -8.6708     16.6503     31.7664   1.0958231981e+02   6.7720286885e+01      0.23745    0.1019153 -24.21 0.0009587014    4.119    0.757
        97  -9.8903      4.5239    228.1709   1.3399214263e+02   2.8686504793e+01    0.2267903    0.1185312  70.49  0.001794043    1.323    0.244
        98 -10.2844    115.2206     99.2508   9.5593711189e+01   3.9734231595e+01    0.4155997    0.3497067  28.02  0.002087686    1.370    0.270
        99  -9.9520    145.2581    226.3571   1.1094910701e+02   1.1351342279e+01    0.1894874    0.1535597  45.96 0.0002449778    1.065    0.061
       100  -8.8607     11.1652    225.8272   1.3291101661e+02   2.8445493019e+01    0.1170804   0.09334717  76.70  0.001072794    1.321    0.243
       101  -9.0511     19.0134    222.6939   1.3157820444e+02   2.8197754278e+01     0.140687   0.09059901  61.99   0.00115395    1.100    0.091
