#   1 NUMBER                 Running object number                                     
#   2 MAG_AUTO               Kron-like elliptical aperture magnitude                    [mag]
#   3 X_IMAGE                Object position along x                                    [pixel]
#   4 Y_IMAGE                Object position along y                                    [pixel]
#   5 X_WORLD                Barycenter position along world x axis                     [deg]
#   6 Y_WORLD                Barycenter position along world y axis                     [deg]
#   7 A_WORLD                Profile RMS along major axis (world units)                 [deg]
#   8 B_WORLD                Profile RMS along minor axis (world units)                 [deg]
#   9 THETA_WORLD            Position angle (CCW/world-x)                               [deg]
#  10 FWHM_WORLD             FWHM assuming a gaussian core                              [deg]
#  11 ELONGATION             A_IMAGE/B_IMAGE                                           
#  12 ELLIPTICITY            1 - B_IMAGE/A_IMAGE                                       
         1 -13.5846    178.9767     85.9170   3.9798304972e+01   2.7791304246e+01     3.164707     1.652845 -31.01  0.002264529    2.276    0.561
         2 -13.9498    219.7355     28.7685   1.8080298681e+01   2.6428137046e+01     10.23629     5.889289 -20.62    0.0457716    2.345    0.574
         3 -14.7375    233.8384    101.7290   3.3951873392e+01   1.1695511117e+01     7.455413     1.427367 -42.39   0.01595991    4.728    0.789
         4 -15.1961    241.5845     80.7667   2.7881805914e+01   1.3412277775e+01     4.709329     2.667248  37.80   0.01988819    2.528    0.604
         5 -13.5081    234.3854     63.7811   2.4830723648e+01   1.7773490226e+01     1.646409     1.153039 -37.54  0.003138033    1.396    0.284
         6 -13.1531    248.0478     16.4395   1.2329270480e+01   2.1166790520e+01     4.503661          nan -33.25      0.01021    9.098    0.890
         7 -11.0332    189.9418     41.5706   2.5516773096e+01   3.2328726962e+01      1.28558    0.8138008 -23.40  0.005808864    1.930    0.482
         8 -12.2703    198.8229     57.4169   2.8439590687e+01   2.7622385226e+01     1.329457    0.6477566 -43.67  0.002257917    2.014    0.503
         9 -11.8719    138.9722     42.0136   3.5348326854e+01   4.5375282773e+01    0.9052255    0.5046664 -24.60   0.00364443    2.153    0.535
        10 -13.7974    236.6791     33.2576   1.7270483062e+01   2.1670822558e+01     2.378289     1.490716 -31.24  0.006557124    1.721    0.419
        11 -10.3978    198.5342     25.3417   1.9821628474e+01   3.2288462517e+01    0.5050771    0.3048763 -15.29  0.001977871    2.359    0.576
        12 -10.8952    163.2248     19.2666   2.3282784710e+01   4.2245250520e+01     0.877752    0.4386752  82.83  0.003222462    2.572    0.611
        13 -10.1115    177.9775     22.1125   2.1812033393e+01   3.8058275970e+01    0.6527113    0.4202869 -40.34  0.003211792    1.616    0.381
        14 -10.1045    203.8673     18.7987   1.7411678751e+01   3.1724128544e+01    0.6129268    0.3067355 -72.40  0.002426254    2.575    0.612
        15  -9.5399    189.0647     14.2357   1.8028072683e+01   3.6093849265e+01    0.6321464    0.3355193 -70.43  0.002634797    2.340    0.573
        16  -8.4808    181.6619      9.3184   1.7613273759e+01   3.8565918630e+01    0.2245443    0.1785145 -79.89 0.0006235731    1.200    0.167
        17  -9.6204    181.3604      4.6860   1.6340068877e+01   3.9131097159e+01    0.3548761     0.300987  13.59  0.001500066    1.525    0.344
        18 -10.1217    182.0226     22.8252   2.1417908404e+01   3.6912044238e+01    0.7128845    0.3875246  53.90  0.003205478    1.760    0.432
        19 -10.4252    120.2332      9.3442   2.8150106221e+01   5.4007677827e+01     0.336421    0.3078413 -35.38 0.0009529907    1.226    0.184
        20 -10.2146     93.0004      7.2956   3.4157117397e+01   6.0195587103e+01    0.2998554    0.1809892 -20.84 0.0008249528    1.754    0.430
        21  -8.5012     41.6687      7.6734   5.2675648921e+01   6.8778079454e+01    0.1204959   0.07583159  -2.57 0.0007051172    1.710    0.415
        22  -9.6055    117.3939      3.2842   2.6507642487e+01   5.5263710244e+01    0.4175168    0.2138878  65.92  0.001948973    1.921    0.479
        23 -11.9428    238.2152      2.8610   1.0133382352e+01   2.5071670241e+01    0.5202464     0.384595  79.43   0.00218735    1.241    0.194
        24  -8.2020    171.7661      2.5750   1.6973088650e+01   4.1825652107e+01    0.1927548    0.1178372  85.61 0.0009146768    1.609    0.379
        25  -9.0717    105.0202      1.8502   2.8790908219e+01   5.8186308296e+01    0.1802183    0.1385186 -46.79   0.00105233    1.591    0.372
        26  -9.2677    241.2031    182.9877   5.0097010338e+01  -2.9403132708e+00    0.2123221    0.1690452  34.58  0.000497217    1.194    0.162
        27  -8.4887    142.7334    250.4586   7.8751781068e+01   4.3362468039e+00    0.1611548   0.09398156  38.67   0.00052953    1.503    0.335
        28 -12.3307     44.6250    248.0688   9.5583278027e+01   1.9335629790e+01     1.011781    0.2928108  45.53  0.005185658    2.462    0.594
        29 -11.2561    221.6887    174.8065   5.1989789352e+01   1.8924002135e+00    0.4522497    0.3980526  77.43 0.0009659711    1.468    0.319
        30 -10.9315    238.3970    175.7209   4.9181741823e+01  -1.3669337251e+00    0.8129683    0.4861491  72.51   0.00277171    5.265    0.810
        31 -11.4382    230.2176    169.5724   4.9410127003e+01   1.0979991513e+00    0.8443301    0.4948778 -40.31  0.004188385    1.770    0.435
        32  -8.0135     49.6091    179.4670   8.9348046833e+01   3.2154966671e+01    0.1247069   0.09718271  82.06 8.104186e-05    1.023    0.022
        33  -9.4690    145.4705    177.6123   6.7945953766e+01   1.6682953856e+01    0.2314627    0.2114933  69.30 0.0002630394    1.048    0.046
        34  -8.7052    196.9810    176.8060   5.7079003147e+01   6.4171315432e+00    0.2304481    0.1627811  72.78  0.001081977    2.038    0.509
        35  -8.3940    151.0000    175.2827   6.6334781142e+01   1.6047422985e+01    0.2097263    0.1687057  51.16 0.0005318741    1.118    0.105
        36  -9.2003    249.8036    168.8044   4.5876621996e+01  -2.3826359638e+00    0.1662084    0.1523261 -48.60 0.0005995727    1.324    0.245
        37  -8.4636    177.3073    169.6425   5.9678534756e+01   1.1745950723e+01    0.1475808    0.1129806  85.55 0.0007041355    1.727    0.421
        38  -8.2935     89.0922    167.8343   7.9106104144e+01   2.9085677782e+01    0.1638341    0.1522231 -72.94 0.0002634238    1.244    0.196
        39  -7.5263    142.3252    167.3440   6.6814138197e+01   1.9419065367e+01    0.1430055    0.1184258   1.93 0.0007050663    1.739    0.425
        40 -10.7670    243.3232    165.3979   4.6288207872e+01  -7.0204490229e-01    0.4479833    0.2037033  38.71  0.001971183    2.256    0.557
        41  -8.4045    202.6629    166.3543   5.3910343444e+01   7.0905146649e+00    0.1439489    0.1132704  89.88 0.0002582998    1.800    0.444
        42  -8.3441    164.7479    165.7855   6.1590755918e+01   1.5117414375e+01     0.205867    0.1667812  78.99 0.0008696502    1.398    0.285
        43 -12.1648    159.2629     96.2895   4.6848754407e+01   3.0672216038e+01      1.19859    0.7660993 -47.40   0.00517411    1.594    0.373
        44  -9.2548    133.6560    247.9155   8.0099919564e+01   6.2191505007e+00     0.276964    0.1565982  77.27  0.001322072    2.806    0.644
        45 -10.6359    213.8148    175.8245   5.3651076824e+01   3.2493448979e+00    0.4300449    0.3064284  85.91  0.001060136    2.621    0.618
        46 -13.4285    198.6701     92.4790   3.7701597980e+01   2.1656350009e+01      2.72527    0.8920643  48.20  0.008559098    3.168    0.684
        47  -9.5457    246.0237    245.4513   5.9987205110e+01  -1.1561478389e+01    0.1701295   0.08890182  38.47  0.000799052    1.594    0.373
        48  -9.9774    109.3589    241.2903   8.3803459098e+01   1.1236306491e+01    0.2210566    0.1827556  76.89 0.0004358581    1.194    0.162
        49 -12.6468    249.9676    101.4801   3.1456744210e+01   8.2211072391e+00    0.9174828    0.6170967 -37.95 0.0004401453    1.368    0.269
        50 -12.9275    244.8236     63.1466   2.3333011814e+01   1.5435698981e+01    0.7955241    0.6405063 -23.07 0.0003557902    1.451    0.311
        51  -9.3117    124.1268    156.0888   6.8932141456e+01   2.5455430745e+01     0.308824    0.2181582 -77.32 0.0008500632    1.599    0.375
        52 -10.1598    204.2919    153.0156   5.0836472471e+01   9.1270952063e+00    0.5328754    0.3790995  82.85  0.002211191    2.195    0.544
        53  -8.9207    150.9449    154.6571   6.2445691498e+01   2.0299936330e+01    0.2273635    0.2041988 -40.90 0.0003641257    1.254    0.202
        54 -11.7709      2.7627    148.8369   9.6850576095e+01   4.3567189683e+01    0.7026542     0.256723 -78.08   0.00324525    2.140    0.533
        55  -7.7726     53.6420    152.7068   8.5421112373e+01   3.7632927891e+01    0.1203263   0.09697577 -39.60 0.0007030427    1.694    0.410
        56 -12.6308     15.2471    142.6393   9.3470187942e+01   4.3927839609e+01     1.155969    0.8381904  85.56  0.007859616    1.118    0.105
        57 -12.4099     63.5026    135.6166   8.0527525618e+01   4.0312105601e+01     1.951667     1.276479  76.13   0.01010217    1.673    0.402
        58 -12.0393     47.7730    136.3699   8.4713377528e+01   4.2107981652e+01     0.785114    0.4315659 -75.38  0.002447329    1.654    0.395
        59 -11.9915     32.4959    139.4758   8.8966125883e+01   4.3048127048e+01    0.4523634    0.4009887  45.21  0.001304934    1.343    0.256
        60 -12.5717     40.2780    136.9464   8.6703880138e+01   4.2815918255e+01    0.9329824    0.5724736 -72.08  0.004202894    1.383    0.277
        61 -10.2345    133.6398    144.9078   6.4500361476e+01   2.6021350264e+01     1.121917    0.2844924 -56.29  0.002707933    5.895    0.830
        62  -8.4490    181.3357    149.7142   5.4776504312e+01   1.4721821334e+01    0.2345996    0.1887265 -67.53 0.0005532542    1.435    0.303
        63  -9.9645    179.2931    146.6591   5.4551114339e+01   1.5771931471e+01    0.2373486    0.2114857 -89.82  0.000824756    1.222    0.182
        64  -9.3513    173.6442    149.6791   5.6403004120e+01   1.6417871505e+01    0.2392425    0.1863775  10.78  0.001119498    1.748    0.428
        65  -9.4113    203.7923    143.7591   4.8937964316e+01   1.0920270386e+01    0.3148502    0.2386117  85.52 0.0008058939    1.820    0.451
        66  -9.4376    200.9776    139.7387   4.8600140477e+01   1.2283129496e+01    0.2970688     0.242159 -55.57 0.0009874484    1.323    0.244
        67  -9.0159    228.3763    141.0162   4.3779234407e+01   6.1599309494e+00    0.3173757    0.1310663 -37.85  0.001231882    2.384    0.580
        68  -8.8952    141.5259    140.4713   6.1699351393e+01   2.5343233353e+01    0.1544196    0.1413036  74.42 0.0008092113    1.031    0.031
        69  -9.7257    211.1192    136.2979   4.5881134204e+01   1.0675926318e+01    0.2643792    0.2006616 -26.78  0.001315178    1.423    0.297
        70  -9.7266    152.4924    127.5441   5.6237242386e+01   2.5736083013e+01    0.3582285    0.1897634 -44.98  0.001052077    1.964    0.491
        71 -10.8759    155.6883    132.9381   5.6730244666e+01   2.3868484047e+01    0.5284972     0.464941 -52.60  0.002375671    1.176    0.150
        72  -9.8459    160.4091    127.7787   5.4463541641e+01   2.3890035645e+01    0.4574718    0.2975691 -48.49  0.001579668    1.585    0.369
        73  -8.1873    198.4319    135.3902   4.8126341022e+01   1.3666807033e+01    0.1467553    0.1407867  66.59 0.0007958813    1.043    0.042
        74  -9.5471    173.1217    134.4067   5.3159528173e+01   1.9615014405e+01    0.2750893    0.2180759 -55.58 0.0003401349    1.325    0.245
        75  -9.6117    136.2392    128.7168   6.0400869799e+01   2.9057633393e+01    0.5039812    0.1853028 -50.24   0.00168611    2.802    0.643
        76  -9.1916    198.0423    129.9903   4.6970319784e+01   1.4775764155e+01     0.243982    0.1868404 -85.34   0.00111353    1.713    0.416
        77  -9.6502    222.7116    162.5543   4.9348785851e+01   3.6890874679e+00    0.2396597    0.2294821  79.47 0.0006925954    1.220    0.180
        78  -9.7359    223.3936    128.7619   4.1942332247e+01   9.3342146931e+00     0.280725    0.2286895  24.46 0.0001191359    1.378    0.275
        79  -9.7401    138.6221    134.7378   6.1157406040e+01   2.7219459372e+01      0.28594    0.2630661  68.14 0.0006857535    1.022    0.022
        80  -9.0812    201.8241    125.8273   4.5265256602e+01   1.4694826817e+01    0.2023864     0.175464 -83.81 0.0003813436    1.297    0.229
        81  -9.0226    178.8513    123.3128   4.9342139311e+01   2.0528209113e+01    0.2483926    0.2015951 -58.04 0.0003173712    1.292    0.226
        82 -12.2707     66.2626    235.5882   9.1045643738e+01   1.8693063630e+01    0.6331297    0.4866086  53.57  0.004296687    1.274    0.215
        83  -8.4565    205.8211    122.1107   4.3629690454e+01   1.4469417372e+01     0.222723    0.1962363 -74.40 0.0004138605    1.233    0.189
        84  -7.6451     91.6726    122.7272   7.0656977256e+01   3.9056865430e+01    0.1347856    0.1146288 -16.92 0.0004068026    1.584    0.369
        85 -11.7297    143.9055    108.2158   5.3603788259e+01   3.1824260525e+01     1.123785    0.4021931  36.39  0.002784814    5.247    0.809
        86 -10.5244    140.6191    103.9146   5.3310882085e+01   3.3488832497e+01    0.4656077    0.2676267  46.63  0.001917883    1.722    0.419
        87  -9.8449    135.0622    119.1541   5.8480422071e+01   3.1422734185e+01    0.3872671    0.2168137 -56.02  0.001521467    1.911    0.477
        88 -11.0361    134.8839    110.9953   5.6543565737e+01   3.3249278162e+01    0.7411231    0.2941185 -45.71  0.002561396    2.567    0.610
        89 -11.6750    134.9935    102.6419   5.4393157426e+01   3.5028758351e+01     1.002018    0.4273269 -44.95  0.002683669    2.381    0.580
        90  -9.1729    215.1690    117.4176   4.0798219305e+01   1.3184295685e+01    0.2172413    0.2027601 -78.47 0.0004006616    1.111    0.100
        91 -10.0633    212.9461    113.7994   4.0344585811e+01   1.4348589701e+01    0.3682307    0.2658785 -63.13 0.0005020216    1.618    0.382
        92 -12.3271     60.4670    231.5210   9.1761169360e+01   2.0229438084e+01    0.5807881    0.4777948  76.82  0.002394111    1.226    0.184
        93  -9.9096    219.0020    113.2943   3.9145817946e+01   1.3047598212e+01    0.3361889    0.2570645 -89.62  0.000438081    1.654    0.395
        94 -11.5574    120.5702    111.7651   6.0424526861e+01   3.6131752689e+01    0.5127335    0.4530909 -57.28  0.002707596    1.125    0.111
        95 -11.5979    126.0508    108.1184   5.8091381881e+01   3.5791790675e+01    0.5186441    0.4419994 -84.50  0.001619089    1.249    0.199
        96 -10.1022     62.9635    113.7065   7.6895649254e+01   4.5499600055e+01    0.2279607    0.1730351 -65.68 0.0002688871    1.177    0.150
        97 -10.4941    196.4756    159.5918   5.3752202251e+01   9.5899543811e+00    0.3824003    0.3023914  39.20 0.0007543656    1.214    0.176
        98 -11.2622    191.4604    154.2642   5.3650859135e+01   1.1646380892e+01    0.6748284    0.5427269  66.52   0.00284128    1.369    0.269
        99 -10.7550    150.0552    106.6605   5.1720341795e+01   3.0733618063e+01    0.4435375    0.2754073  50.23   0.00111626    1.573    0.364
       100  -8.2646    110.2838    105.3570   6.1624927343e+01   3.9631279966e+01    0.1485788     0.118943 -17.63 0.0007019104    1.670    0.401
       101 -10.8566    144.0443     98.0530   5.0924908105e+01   3.3932456975e+01    0.6338621     0.349534 -52.50  0.001707742    1.945    0.486
       102 -10.2666    157.6833     85.3927   4.4235212034e+01   3.3208018751e+01     0.482998    0.2606301 -43.41  0.001354347    1.881    0.468
       103  -9.3165    138.0525     85.8562   4.9064673185e+01   3.7821183458e+01    0.3059649    0.2140041 -40.52  0.000724545    1.476    0.322
       104  -9.6437    240.2294    229.2279   5.8407661173e+01  -8.8784402873e+00    0.2647027    0.1579699  13.41  0.001330383    1.865    0.464
       105  -9.7082    207.5887     58.3879   2.7315142772e+01   2.5224080937e+01    0.4883713    0.2320894 -30.50  0.001540669    2.355    0.575
       106  -8.8031    133.6756    229.1407   7.7916481871e+01   9.2585616244e+00     0.162561    0.1413259  60.33 0.0003583663    1.116    0.104
       107 -11.4319    199.3403     72.6729   3.2423790153e+01   2.4983239423e+01    0.7607594    0.3488364 -42.07  0.002222124    2.125    0.529
       108 -10.6390    204.4558     42.9597   2.3714928208e+01   2.8358160362e+01    0.3453832    0.2531047 -35.02  0.000543911    1.442    0.307
       109  -9.5457    142.1793     82.4421   4.7068460080e+01   3.7532333981e+01    0.2718944    0.2520219 -81.13 0.0004510468    1.096    0.088
       110 -10.0065    137.9638     79.3882   4.7233259316e+01   3.9123530757e+01    0.4638723    0.2285163  41.68  0.001064449    2.207    0.547
       111 -11.2790    140.8537     71.1801   4.4094453271e+01   4.0003600334e+01    0.8166621    0.5382988  83.72  0.002860529    2.287    0.563
       112  -9.6441    165.2160     81.4864   4.1470740843e+01   3.2082058435e+01    0.2934315    0.2596613 -58.16 0.0007211891    1.142    0.124
       113  -9.3272    141.2471     75.3548   4.5238968257e+01   3.9124723108e+01    0.2883892    0.2298871 -23.58 0.0008514487    1.457    0.314
       114  -9.0053    194.0166     78.0040   3.4781866406e+01   2.5413745374e+01    0.2321261    0.1885659  22.61 0.0006090977    1.586    0.370
       115  -8.3145    133.2987     74.2945   4.6913216511e+01   4.1195315072e+01    0.1493036    0.1209079  13.24 0.0001592151    1.568    0.362
       116  -9.5296    206.7679     73.1359   3.1288585751e+01   2.3028437028e+01    0.2270367    0.1935155 -73.85 0.0007375343    1.161    0.139
       117  -9.4719    126.6363     71.1825   4.7706142100e+01   4.3312918284e+01    0.3768012    0.1744691 -43.66  0.001081797    2.188    0.543
       118  -9.6468    151.4261     71.0427   4.1549997150e+01   3.7455383018e+01    0.2888004    0.2178496  77.73 0.0007863601    1.506    0.336
       119  -9.5678    168.8657     68.9662   3.7152114051e+01   3.3433861277e+01    0.3656856    0.1970664 -45.40   0.00146605    1.905    0.475
       120  -9.0305    158.6610     69.0265   3.9334760348e+01   3.6013850085e+01    0.2142224    0.1981121 -42.05 0.0005711614    1.132    0.116
       121 -10.3308    209.0438     49.6768   2.4820913709e+01   2.6192404417e+01    0.4409963    0.2892892 -76.66  0.001645245    1.737    0.424
       122 -10.2072    154.4483     63.7830   3.8707828859e+01   3.7996623880e+01    0.4674549     0.267382 -59.71  0.001795695    2.330    0.571
       123 -10.0163    163.0678     63.5206   3.6773496892e+01   3.5859837191e+01    0.4646022    0.2311552 -35.38  0.001511217    2.125    0.529
       124  -8.4371    125.1213     64.8816   4.6162951748e+01   4.4832492292e+01    0.2236006    0.1988562 -73.51 0.0007330636    1.236    0.191
       125 -10.4590    198.3830     79.2389   3.4321616893e+01   2.4092971682e+01    0.5723371    0.4179771   5.78  0.002463682    2.164    0.538
       126  -9.4002    186.3019     62.2092   3.1886056593e+01   3.0086735189e+01    0.3606463    0.2707857 -24.60 0.0008361805    1.560    0.359
       127  -9.4183    103.2302     62.4120   5.1528673599e+01   4.9955171492e+01    0.2521229     0.194556 -41.44 0.0006711883    1.286    0.223
       128 -10.2862    144.3118     59.4748   3.9696866691e+01   4.1257681541e+01    0.3206272    0.2956031 -61.29 0.0005697372    1.121    0.108
       129 -10.9550    152.6359     55.5577   3.6608540221e+01   3.9845473233e+01    0.4829831    0.3307284 -44.53  0.001582981    1.516    0.340
       130 -10.7443    147.8457     51.8508   3.6511968397e+01   4.1650624126e+01    0.3925916     0.293696 -44.12  0.001182234    1.393    0.282
       131  -8.1731     72.6148     58.2231   6.0001325486e+01   5.6175355085e+01    0.1810082    0.1150851 -37.20  0.000494179    1.520    0.342
       132 -10.6451    203.5249     46.9979   2.4923017415e+01   2.8006776409e+01    0.3563011    0.2817477 -41.18 0.0009565449    1.291    0.225
       133  -9.6931    178.9795     51.9344   3.0300261111e+01   3.3641224331e+01    0.4362604    0.2772688  20.67  0.001672775    2.776    0.640
       134  -8.8103    131.3848     45.7497   3.8373837046e+01   4.6635054755e+01    0.2008066    0.1418101 -20.09 0.0006849752    1.663    0.399
       135  -7.8141     53.3827     46.5064   6.3139255609e+01   6.1083017003e+01    0.1238941    0.1065872 -32.18 9.893449e-05    1.033    0.032
       136  -8.8707    250.0000    222.9459   5.5732685876e+01  -9.6250799832e+00     0.171771    0.0627543 -33.75 0.0008019853    2.939    0.660
       137 -10.9087    132.9186     39.0430   3.5760917327e+01   4.7284289219e+01    0.5839835     0.294059 -33.50  0.002466446    2.092    0.522
       138  -9.6958    151.6730     37.9667   3.1298226751e+01   4.2792878611e+01    0.2276387    0.1933755 -77.46 0.0004504037    1.269    0.212
       139 -10.1567    125.9146     39.9761   3.7772254522e+01   4.8806297812e+01    0.3690298    0.2006355 -37.24  0.001106888    1.910    0.477
       140  -9.2699    182.5382     39.2911   2.6059788770e+01   3.4593265628e+01     0.253741    0.2076621 -48.80 0.0004771967    1.247    0.198
       141  -9.3831     91.5729     38.4839   4.6885420961e+01   5.6364887005e+01    0.2267015    0.2056935 -16.73 0.0001903125    1.074    0.069
       142  -8.9077     87.5748     37.7081   4.7873680504e+01   5.7239298498e+01    0.1736064    0.1235312 -43.83 0.0008741972    1.494    0.331
       143  -8.0870    202.4266     35.3939   2.1988744460e+01   2.9948807405e+01    0.1445896    0.1272793 -88.65 0.0001093861    1.013    0.013
       144  -8.8224     78.0697     40.7859   5.2169670268e+01   5.8426653897e+01    0.2198924     0.172763 -33.95 0.0005552123    1.224    0.183
       145  -8.4620    224.0397    218.0473   5.9383814558e+01  -4.8802989452e+00     0.211394    0.1265421  59.46  0.001019742    2.645    0.622
       146  -9.3801    201.0071     29.2835   2.0550393881e+01   3.1137630587e+01    0.2027319    0.1972358 -39.54  0.000396946    1.212    0.175
       147  -9.8673     74.7174    213.2986   8.7551726509e+01   2.1696742815e+01    0.2531631    0.1521909 -81.20  0.001130019    1.646    0.392
       148  -9.9364    165.9565     25.8175   2.4836913508e+01   4.0738926530e+01    0.6234606    0.3452852  79.20  0.002624579    2.028    0.507
       149  -9.6456    159.4854     22.9731   2.5071317105e+01   4.2769080318e+01     0.306324    0.2674431 -44.00  0.001179113    1.232    0.189
       150  -8.6096    191.0303    211.9917   6.4453097856e+01   1.7704678174e+00    0.1908286    0.1492725  68.74 0.0004768712    1.613    0.380
       151  -9.1941    206.9074    206.0692   6.0479224262e+01  -2.1065478565e-01    0.2538725    0.1688396  58.41 0.0006820034    1.838    0.456
       152  -9.2563    229.7119    207.8604   5.6648185223e+01  -4.4619546586e+00    0.2304472    0.1594258  44.36 0.0007516631    1.410    0.291
       153  -8.0789    134.0000     16.9604   2.7935716943e+01   4.9896176625e+01    0.2170189   0.08025677 -26.82 0.0008090277    2.988    0.665
       154  -7.8021     61.2729    206.6871   8.9550195219e+01   2.4912472715e+01     0.126322   0.07237367  70.58 0.0003327127    1.555    0.357
       155 -10.0568    194.5343    198.0402   6.1439837404e+01   3.3272227508e+00     0.396288    0.2891835 -79.70   0.00198653    2.285    0.562
       156 -10.2085    191.7770    192.6533   6.1028461399e+01   4.7394345777e+00    0.5745774    0.3391024 -67.87  0.002289221    3.445    0.710
       157  -9.3815    224.7317    191.1444   5.4543880204e+01  -1.2026731296e+00     0.194191    0.1669824 -54.34 0.0008819595    1.489    0.329
       158 -13.3319    217.8581     86.1943   3.2774752064e+01   1.8072891974e+01     1.456921      0.52479  50.09  0.005035071    2.872    0.652
       159 -10.6762    210.4368    188.2220   5.6641715381e+01   1.8935733135e+00    0.4119541    0.2742452  44.15  0.002057516    1.383    0.277
       160 -10.0268    207.0807    179.8989   5.5713306756e+01   3.8912534121e+00    0.3271233    0.2538506 -69.23  0.001107921    1.816    0.449
       161 -11.0446    211.5214    183.0151   5.5463218017e+01   2.5215668314e+00    0.8851338     0.529722 -72.05  0.002828652    5.636    0.823
       162 -10.6964    212.1926    178.9505   5.4561448681e+01   3.0525615822e+00    0.3280235    0.2978776 -64.44  0.001054764    1.346    0.257
       163  -8.0603    174.6538    189.3255   6.3853258603e+01   8.6558788541e+00    0.1428008    0.1052993  74.67 0.0007050127    1.745    0.427
       164  -8.5901    250.6479    186.1891   4.9096537251e+01  -5.0153871057e+00    0.1672673    0.1074337 -20.20 0.0002367849    1.597    0.374
