#   1 NUMBER                 Running object number                                     
#   2 MAG_AUTO               Kron-like elliptical aperture magnitude                    [mag]
#   3 X_IMAGE                Object position along x                                    [pixel]
#   4 Y_IMAGE                Object position along y                                    [pixel]
#   5 X_WORLD                Barycenter position along world x axis                     [deg]
#   6 Y_WORLD                Barycenter position along world y axis                     [deg]
#   7 A_WORLD                Profile RMS along major axis (world units)                 [deg]
#   8 B_WORLD                Profile RMS along minor axis (world units)                 [deg]
#   9 THETA_WORLD            Position angle (CCW/world-x)                               [deg]
#  10 FWHM_WORLD             FWHM assuming a gaussian core                              [deg]
#  11 ELONGATION             A_IMAGE/B_IMAGE                                           
#  12 ELLIPTICITY            1 - B_IMAGE/A_IMAGE                                       
         1 -14.9894    244.4330    116.8007   6.1437229492e+01   7.7495293777e+00     6.929004     3.307601 -42.04   0.02983813    1.933    0.483
         2 -15.1969    221.4098     23.2179   4.1631096388e+01   2.6883498737e+01     3.980072     2.882892   9.29   0.02064008    2.107    0.525
         3 -11.6675    127.5617    109.0966   8.4056409822e+01   3.5249784492e+01     1.448926    0.3973621 -47.87  0.004007698    3.728    0.732
         4 -12.8485    166.0299     54.7387   5.8517334081e+01   3.6521502886e+01      1.74827    0.9889443 -63.75  0.006389726    2.771    0.639
         5 -15.5136    237.0881     54.3724   4.7515275876e+01   1.9135503484e+01     1.883309    0.8975977 -43.40  0.007186136    1.855    0.461
         6 -10.5987    111.1058     39.6135   6.6150995607e+01   5.2147314416e+01     0.592006    0.1213879 -34.80  0.001669679    4.561    0.781
         7 -16.4338    246.7683     60.1365   4.7752204286e+01   1.6169206036e+01     6.386653     2.108842  49.66  0.009724671    3.753    0.734
         8 -11.8775    141.5625     27.5785   5.4483628738e+01   4.6465295111e+01    0.6681063    0.6014817  62.95  0.003814162    1.083    0.076
         9 -11.1719    134.8517     25.5503   5.5150676029e+01   4.8373484411e+01    0.8964842    0.2964534 -20.67  0.002767925    3.997    0.750
        10 -10.6935    141.7934     15.8524   5.0374451595e+01   4.7703913988e+01    0.5978174    0.2767467 -11.10  0.002012753    2.975    0.664
        11 -10.0635    143.0000     10.0029   4.8145914114e+01   4.7971479546e+01    0.4645402     0.205005  -9.46  0.001771586    3.227    0.690
        12  -9.9953    125.9076     14.6257   5.3043398742e+01   5.1747596550e+01    0.2879689    0.2276627  30.15  0.001047848    1.233    0.189
        13 -12.0576    118.5313      9.4810   5.2657532408e+01   5.4012058293e+01    0.7815709    0.7197797  72.29  0.002833973    1.189    0.159
        14 -10.6180    106.1827      4.4827   5.3432365339e+01   5.7331227718e+01     0.372172    0.2683243 -15.91  0.002116432    1.478    0.324
        15  -9.3172    181.5165      6.0400   4.1445638643e+01   3.8574913885e+01    0.4036717    0.3456106  53.12  0.002435205    1.202    0.168
        16 -10.8686    133.2401     17.0727   5.2439987504e+01   4.9706150970e+01    0.4625786    0.3601992  -5.89  0.001305051    1.416    0.294
        17  -8.4193    204.3307      4.6155   3.8649781083e+01   3.3037808857e+01    0.2671323    0.1931899  88.66 0.0006580877    1.257    0.204
        18 -15.7612    247.8460     38.0322   4.2511300770e+01   1.8987421496e+01     2.661979     1.031945 -44.72  0.009192329    2.189    0.543
        19  -8.2129    159.1768      2.0761   4.3075716912e+01   4.4591262572e+01    0.1946008    0.1628637  43.16 0.0003706154    1.216    0.178
        20  -9.4313    201.0313    173.1870   8.2063295394e+01   6.5474219716e+00    0.2547806    0.2109457   9.49 0.0003066867    1.174    0.148
        21  -8.4555    192.2115    250.0131   9.7223762956e+01  -3.7850758967e+00    0.2198157    0.1273324  44.95  0.001120608    1.651    0.394
        22 -10.0890    111.6794    248.5923   1.1209182006e+02   8.8800294471e+00    0.2093113    0.1853141  62.57 0.0003883014    1.148    0.129
        23  -9.3187    185.7134    169.4061   8.4443618849e+01   1.0216653245e+01    0.4310547     0.278894 -71.82  0.001622779    3.258    0.693
        24 -10.0025      6.5465    170.4460   1.2612584210e+02   3.7520851722e+01    0.1674035    0.1562114  69.24    0.0012976    1.331    0.249
        25 -10.2898    230.0927    167.0006   7.5158696759e+01   2.1741765583e+00    0.2663505    0.2447586 -38.17  0.001083482    1.300    0.231
        26  -8.8293    213.4049    167.3688   7.8384072689e+01   5.2032220961e+00    0.2559075    0.2250521  63.48 0.0006063065    1.494    0.331
        27  -7.3953    110.6770    168.3158   1.0150405924e+02   2.4840564320e+01    0.1502554    0.1073766  73.54 0.0003812947    1.664    0.399
        28  -8.4989     65.8910    168.0057   1.1234979862e+02   3.1813568199e+01    0.1902963    0.1639229  89.33  0.001159949    1.017    0.017
        29  -8.6273    224.1483    225.6705   8.7513676665e+01  -5.5040357846e+00     0.178553    0.1546557  -9.86 0.0004801451    1.253    0.202
        30 -12.0936     18.0358    158.0235   1.2259275502e+02   3.9369700826e+01    0.8117862    0.4739196 -82.12  0.003947826    1.401    0.286
        31  -9.8703    222.7948    208.0177   8.4641012095e+01  -2.8683118383e+00    0.2805474    0.2588513 -86.49  0.001770396    1.801    0.445
        32 -10.7269     22.9425    156.7956   1.2133206531e+02   3.9222351492e+01    0.7046649    0.2576676 -80.92  0.002718637    2.638    0.621
        33  -8.2453    145.6126    152.7937   8.9969392934e+01   2.1709236030e+01    0.2154537    0.1446507 -59.70 0.0006167198    1.707    0.414
        34  -9.6987    133.5398    146.6398   9.1598451636e+01   2.5502818858e+01    0.6675048    0.1853988 -53.37  0.001796145    4.344    0.770
        35 -12.9382     59.0300    142.3398   1.1040695006e+02   3.8831182180e+01     1.786998     1.264728  11.92  0.006778652    1.992    0.498
        36 -10.1355    212.7892    137.7776   7.1867301244e+01   1.0566707001e+01     0.605087    0.4056049  72.97  0.002511121    2.563    0.610
        37 -10.8500     47.1551    146.7522   1.1417738679e+02   3.9167381785e+01    0.3600353    0.2964355  18.86 0.0008607371    1.553    0.356
        38  -9.8354    221.7111    135.5660   6.9681851031e+01   9.1252466271e+00    0.6416509    0.2694202 -49.37  0.002187713    3.172    0.685
        39  -8.1269    166.1876    137.7823   8.1689824336e+01   2.0594212596e+01     0.245888    0.1699393 -86.69 0.0005537072    2.647    0.622
        40  -9.4303    198.8935    134.6634   7.3858152969e+01   1.4087588827e+01    0.4291243     0.333876   8.27  0.002068129    1.490    0.329
        41  -9.4388    196.8623    129.8384   7.3100903471e+01   1.5447836176e+01    0.3745478    0.2080435 -35.60  0.001392115    1.762    0.433
        42  -8.3703    140.3780    132.2181   8.6582304179e+01   2.7349453521e+01    0.2230008    0.1469001 -56.76 0.0005435798    1.661    0.398
        43  -9.8994    135.8795    127.1229   8.6492510305e+01   2.9440062377e+01    0.6074761    0.2018836 -50.71  0.001812712    3.265    0.694
        44  -8.7374    160.9966    129.0126   8.0764355583e+01   2.3583122881e+01    0.2479829     0.244825  20.83 0.0006644307    1.024    0.023
        45  -8.9134    204.3504    127.4198   7.1017634956e+01   1.4267361137e+01    0.3023767    0.1800963 -39.84 0.0008554409    1.610    0.379
        46 -11.1063    186.2287    121.4840   7.3222822307e+01   1.9441788873e+01    0.8317772     0.427562 -42.95  0.003245985    1.917    0.478
        47  -7.9076    129.3874    165.4751   9.6457343869e+01   2.2090340188e+01      0.14411    0.1388656  77.23 -1.700568e-05    1.030    0.029
        48  -8.6271    192.4865    125.5143   7.2929806784e+01   1.7247229599e+01     0.153753    0.1476462 -20.70 -2.99308e-05    1.024    0.023
        49  -8.6286    147.3253    121.1563   8.2094218072e+01   2.8299991414e+01    0.2429853    0.2121673  31.04 0.0003039957    1.183    0.155
        50  -9.9760    210.4856    126.6459   6.9647338416e+01   1.3081352414e+01    0.4530309    0.4033618 -67.61  0.002408756    1.334    0.250
        51  -9.8206    203.7199    118.8731   6.9027685759e+01   1.5999648764e+01    0.2648976    0.2490125  13.00 0.0003407948    1.078    0.072
        52  -9.7033    169.1997    115.5161   7.5412171451e+01   2.4544142878e+01    0.3088359    0.2495561 -68.16  0.001013581    1.491    0.329
        53  -8.7697    175.9785    114.8400   7.3719546361e+01   2.3113646698e+01    0.2639216    0.1927664  82.35  0.001095889    2.020    0.505
        54  -9.5291    210.9952    202.5488   8.5865667359e+01  -9.6230211381e-02     0.268297    0.2153324  42.87 0.0009654507    1.375    0.273
        55 -11.6936    115.8029     93.5887   8.2993962441e+01   4.1132155280e+01    0.8089995    0.5566422  15.58  0.003402693    1.998    0.500
        56 -11.7668    124.6458     91.1307   7.9772407282e+01   3.9787023363e+01    0.8332912    0.4415751  44.82  0.003286282    1.927    0.481
        57  -8.7615    172.3296    107.5367   7.2585404716e+01   2.5428783055e+01    0.2857952    0.1900489 -58.83  0.001170268    1.851    0.460
        58 -11.2287    130.4165     88.7443   7.7482392169e+01   3.9013995465e+01    0.5851644     0.413372  45.90  0.002648679    1.439    0.305
        59  -8.1249    146.1104    105.5291   7.8236114475e+01   3.1942758323e+01    0.2384504    0.1571653  44.09  0.001009492    1.538    0.350
        60  -9.8773    155.5653    101.6935   7.4847340636e+01   3.0557783708e+01    0.4284191    0.2954946  38.04  0.001414549    1.529    0.346
        61 -11.5762    169.0167     96.2358   7.0210095589e+01   2.8449999363e+01    0.7762728    0.6483567  29.60  0.002683441    1.288    0.223
        62 -10.1682    197.6587     98.3405   6.4899288825e+01   2.1189832181e+01    0.5774963    0.3269262 -56.71  0.002200761    2.309    0.567
        63 -10.0952    176.4732     93.1328   6.7725073270e+01   2.7243149720e+01    0.3863276    0.3018209 -52.76 0.0002831638    1.347    0.258
        64  -9.4070    177.4453     88.9503   6.6345483098e+01   2.7790695932e+01    0.3749774    0.2369731 -59.65 0.0009437053    2.033    0.508
        65  -8.4179     92.9990     96.2894   9.0596333142e+01   4.4893841025e+01     0.193666    0.1888941 -11.39 0.0002525898    1.059    0.056
        66 -10.6209    152.7710     93.2080   7.3101719598e+01   3.2937420200e+01    0.3484549    0.3413703  38.23 0.0002684974    1.033    0.032
        67 -10.0845    126.3436     81.6845   7.6430281231e+01   4.1361008540e+01    0.4713821     0.256284  29.40  0.001215117    2.516    0.603
        68 -10.3488    108.8352     76.0095   7.9654278722e+01   4.6257205076e+01    0.2786714    0.2511025 -17.83            0    1.079    0.073
        69 -11.7571    120.5265     99.1668   8.3254179394e+01   3.8931761708e+01    0.8364413    0.4012347 -43.03  0.003140022    2.033    0.508
        70 -10.2008    154.6157     71.6611   6.6194572797e+01   3.6577814467e+01    0.3780926    0.2910261 -71.34  0.001053646    1.648    0.393
        71 -10.6699    130.8841     66.1141   7.0203427495e+01   4.3290734938e+01    0.5113333    0.2420491  40.73  0.001893202    2.249    0.555
        72 -11.0420    139.8899     65.6462   6.7766394071e+01   4.1237337673e+01    0.4956055    0.3007095  31.00  0.001995349    2.023    0.506
        73 -11.4597    136.1581     63.0048   6.7825153220e+01   4.2593545411e+01    0.5917983    0.3935345 -38.49   0.00267482    1.515    0.340
        74 -10.1967    168.5469     69.8523   6.2624048642e+01   3.3420018454e+01    0.3570384    0.2534338 -48.97  0.001573442    1.475    0.322
        75  -8.7950    163.0469     68.0397   6.3225288322e+01   3.5110785112e+01    0.2489218    0.1870158 -69.75 0.0007074995    1.666    0.400
        76 -10.3166    242.1642    200.7863   7.9770551408e+01  -4.9311020816e+00     0.228115    0.1996974  -3.04 0.0002979219    1.198    0.165
        77 -12.5907    153.3362     48.5527   5.9117827107e+01   4.0681959188e+01      1.04116    0.7959504  74.63  0.005081078    1.445    0.308
        78 -12.1441    133.4145     39.9474   6.0588065250e+01   4.6877700475e+01    0.9209815    0.4861374 -24.37  0.003840421    2.085    0.520
        79 -10.0991    162.4014     62.6601   6.1705325503e+01   3.6176837980e+01    0.3039239    0.2710128 -80.75  0.001564591    1.230    0.187
        80 -10.2334    157.5046     59.5736   6.1772976293e+01   3.7915525295e+01    0.4223307    0.2724163 -27.62  0.001857582    1.644    0.392
        81  -9.8773    181.5606     55.0562   5.5734870178e+01   3.2513990042e+01    0.3016257    0.2593735 -37.70 0.0004874767    1.168    0.144
        82 -11.1539    136.7747     51.9804   6.3968899488e+01   4.4269839432e+01    0.5716554    0.3777755  -9.16  0.002469219    1.948    0.487
        83  -9.3496    211.8716    197.9944   8.4844218398e+01   4.5626354578e-01    0.2165532    0.1717979  25.68 0.0002843566    1.127    0.113
        84 -10.1275    182.0763     41.0544   5.1530654563e+01   3.4397615909e+01       0.3558    0.2804563  20.67 0.0005598641    1.566    0.361
        85  -9.8637    191.9869    193.4812   8.7927293158e+01   4.7172333265e+00    0.6771529     0.358988 -62.12  0.002151535    5.319    0.812
        86 -11.9914    140.4695     40.6304   5.9226605165e+01   4.5047841077e+01    0.8111691    0.4521504 -44.13  0.003460824    1.988    0.497
        87  -9.9432    159.7200     37.9771   5.4437653313e+01   4.0547114660e+01    0.3655516    0.2766681  36.72 0.0009387146    1.400    0.285
        88  -9.9960    121.1049     36.5869   6.2360223257e+01   5.0287206876e+01    0.3224388    0.2087948 -19.31  0.001516216    1.674    0.403
        89 -11.7018    219.5531    190.3722   8.1906716628e+01   3.1569746661e-01      0.83363    0.5756184  66.15  0.003530083    2.844    0.648
        90  -9.9831    213.1049    193.2136   8.3692971334e+01   9.9125201608e-01    0.4057016    0.2053568  42.12  0.001521281    1.924    0.480
        91 -10.1843    180.1843    188.9149   8.9500115764e+01   7.6909473517e+00    0.2524145    0.2297413 -22.91 0.0004090229    1.151    0.131
        92  -9.9569    154.4703     39.4238   5.5908496040e+01   4.1692254566e+01    0.3903921    0.2474586  27.84  0.001398384    1.997    0.499
        93  -9.8874    123.9251     26.5538   5.7938166836e+01   5.0911511102e+01    0.3899342    0.2476223 -81.17  0.001568584    2.899    0.655
        94  -8.7371    169.3135     23.9334   4.8389343006e+01   3.9821097120e+01    0.3657569    0.1962758 -18.25  0.001571759    2.255    0.557
        95  -8.4726    182.8744     24.1321   4.6466150559e+01   3.6323710931e+01    0.2109407    0.1796965 -72.77 0.0004935073    1.165    0.142
        96  -9.0604    161.3708     21.6139   4.8919718851e+01   4.2120244532e+01    0.2811261     0.214689  25.12 0.0009495161    1.516    0.340
        97 -10.9133    237.6947    186.8527   7.7860759423e+01  -2.2209924088e+00    0.5733696    0.2540237 -44.23  0.002427422    2.812    0.644
        98 -12.0089    238.7808    173.7605   7.5009083048e+01  -4.2368783900e-01    0.7939211     0.698768  39.91  0.003646692    1.370    0.270
        99  -8.0358    165.7603     19.4320   4.7543936990e+01   4.1234461167e+01    0.1860449    0.1190854  54.86 0.0001774319    1.442    0.306
       100 -10.7842    221.7052    177.7930   7.8974892685e+01   1.9352650887e+00      0.43966    0.3634796  75.32  0.002307496    1.982    0.495
       101 -11.2787    225.7576    172.7469   7.7169333357e+01   2.0244157379e+00    0.6607486    0.4295428  40.50  0.002502207    1.566    0.361
       102 -10.3191    196.6378    179.4702   8.4243225410e+01   6.2763332790e+00    0.4645721    0.4064846  45.75  0.002648646    1.256    0.204
       103 -11.2294    207.4344    182.6951   8.2728262737e+01   3.7152431950e+00    0.5408884    0.4504746  21.02  0.003118748    1.095    0.087
       104  -8.7271     65.0934    183.4431   1.1445810817e+02   2.8386729613e+01    0.1906995    0.1568682 -72.54 0.0003490529    1.196    0.164
       105  -8.2266    132.4544    188.5002   9.9849023120e+01   1.6613166058e+01    0.1396316      0.12963  47.02 0.0001154968    1.026    0.025
       106  -8.9055    249.0025    174.4975   7.3376116293e+01  -2.2512033214e+00    0.1887762    0.1241797  38.38  0.001031041    1.600    0.375
