#   1 NUMBER                 Running object number                                     
#   2 MAG_AUTO               Kron-like elliptical aperture magnitude                    [mag]
#   3 X_IMAGE                Object position along x                                    [pixel]
#   4 Y_IMAGE                Object position along y                                    [pixel]
#   5 X_WORLD                Barycenter position along world x axis                     [deg]
#   6 Y_WORLD                Barycenter position along world y axis                     [deg]
#   7 A_WORLD                Profile RMS along major axis (world units)                 [deg]
#   8 B_WORLD                Profile RMS along minor axis (world units)                 [deg]
#   9 THETA_WORLD            Position angle (CCW/world-x)                               [deg]
#  10 FWHM_WORLD             FWHM assuming a gaussian core                              [deg]
#  11 ELONGATION             A_IMAGE/B_IMAGE                                           
#  12 ELLIPTICITY            1 - B_IMAGE/A_IMAGE                                       
         1 -12.4494      6.4263     15.7253   7.1269111525e+01   7.1247450179e+01    0.3043632    0.1758508 -54.24  0.001402247    1.728    0.421
         2  -9.5291    245.8244     23.6122   1.2205330194e+01   2.1503589492e+01    0.1680939    0.1099186 -87.64 0.0002842991    1.494    0.331
         3 -12.4605     19.9182     17.3247   6.5023912231e+01   6.9977597484e+01    0.4580508    0.2088707 -45.86  0.002550298    1.909    0.476
         4 -10.9605     65.7999     16.7374   4.4549469570e+01   6.4251112326e+01    0.2554969    0.1928428   2.76 0.0004593527    1.192    0.161
         5 -13.0916    184.2518     13.8701   1.6385771429e+01   3.7594029109e+01    0.6004682    0.3241068  54.14  0.001713502    1.763    0.433
         6 -10.8257     49.4060     14.0264   4.9820645663e+01   6.7115363436e+01    0.2667092    0.1843218 -15.78 0.0008718207    1.265    0.210
         7 -10.5795     45.0985     11.9804   5.0707067326e+01   6.7981413103e+01    0.2311181    0.1633658 -12.58 0.0007246415    1.205    0.170
         8 -10.9991    204.1219     13.6202   1.3947625070e+01   3.2611177868e+01    0.2391021    0.1774234 -48.88  0.000318884    1.322    0.244
         9 -11.3340    200.8399     11.1638   1.3668646015e+01   3.3695196622e+01    0.2331846    0.2098081  28.59  0.001027711    1.373    0.272
        10 -12.1070     27.3769     11.2143   5.8592551434e+01   7.0207373016e+01    0.2783529     0.209523 -40.06  0.001262506    1.492    0.330
        11 -11.6826     23.2026      5.4535   5.7920516905e+01   7.1457706719e+01    0.2420465    0.2144738  69.18  0.001104226    2.449    0.592
        12 -12.6508     34.4198     12.6123   5.5856250124e+01   6.9231888372e+01    0.5702758    0.2857486 -40.41   0.00288083    1.918    0.479
        13  -9.8755     39.3419     12.2899   5.3424200460e+01   6.8685972260e+01     0.188324    0.1245469   9.84 0.0005728154    1.442    0.306
        14 -12.3433    162.2213     10.8027   1.8544984429e+01   4.3522697009e+01    0.4663148     0.227036 -19.94  0.002031883    2.444    0.591
        15 -12.3651    122.9307      7.3919   2.4337162670e+01   5.3537449153e+01    0.5925129    0.3545562  34.22   0.00143052    1.694    0.410
        16 -12.3206    155.0016     10.9981   1.9727485929e+01   4.5331628149e+01     0.380834    0.2074041  41.58  0.001504047    1.935    0.483
        17 -10.7922     98.7713      8.3067   3.0373556313e+01   5.8893723577e+01    0.2733692    0.2181475  61.60 0.0009331094    1.360    0.265
        18 -11.1802     71.9177     10.1752   3.9353847883e+01   6.3983669493e+01    0.3355815    0.1828174  50.82 0.0003332137    1.962    0.490
        19 -11.9541     56.1939      9.0393   4.4660281579e+01   6.6742226596e+01    0.3842909    0.2730919  22.30  0.001814776    1.252    0.201
        20 -13.8026    185.7468      5.2140   1.3779904560e+01   3.8095186725e+01     1.034174    0.5758393  79.74  0.004987544    1.699    0.411
        21 -13.3659    174.6405      3.7275   1.4706995560e+01   4.1046597606e+01    0.7605884    0.3909379  82.13  0.003416895    1.996    0.499
        22 -10.4703    104.5623     10.2569   2.9675079944e+01   5.7450812217e+01     0.300845    0.2490947 -65.72  0.001759553    1.642    0.391
        23 -10.2137     78.4692      8.4193   3.6362740160e+01   6.2971090479e+01    0.1933896    0.1684893 -56.02 4.082698e-05    1.662    0.398
        24 -12.1824      3.2552      8.1943   6.9891373848e+01   7.2679973016e+01    0.2601766    0.2052493 -32.36  0.001053277    1.187    0.158
        25 -11.5957     85.9297      7.3732   3.3580779883e+01   6.1633058635e+01    0.3562767    0.2222947  25.32  0.000482011    1.559    0.359
        26 -11.7498    203.5217      4.6480   1.1697055855e+01   3.3704622114e+01    0.2754255    0.1952894  53.34 0.0008677063    1.492    0.330
        27 -12.2606     16.4768      4.0702   6.0767000752e+01   7.2297043033e+01     0.339466    0.2154385  -9.99  0.002307496    1.375    0.273
        28 -11.3856    134.7263      3.9939   2.0821942526e+01   5.1011556891e+01    0.2623909    0.2443853  79.02 0.0005944195    1.131    0.116
        29 -11.2639    131.4767      3.9117   2.1387503394e+01   5.1806291481e+01    0.2554213    0.2155557  22.09 0.0008252212    1.230    0.187
        30  -9.8816    213.0907      8.6650   1.1756674910e+01   3.0936922010e+01    0.1907241    0.1477834  80.56  0.000700539    1.157    0.136
        31 -11.4393    114.3839      1.9118   2.4061510231e+01   5.6004783777e+01     0.449061    0.1853235  62.19  0.001428941    2.210    0.548
        32 -11.5205     38.2064      2.4520   4.9076085217e+01   7.0106337822e+01    0.2658119    0.1993929  25.09  0.001028344    1.331    0.249
        33 -11.5994    144.0880      1.8976   1.8503382515e+01   4.8892085530e+01    0.3873037    0.1807001  73.47  0.001245311    2.156    0.536
        34 -10.7910    231.4793      1.8715   8.5155576857e+00   2.7274234945e+01    0.4030982    0.1612593  81.69   0.00174489    2.491    0.599
        35  -9.6519    115.4780      8.5429   2.6386873608e+01   5.5165427534e+01    0.1338732    0.1168111  40.77 0.0008086987    1.006    0.006
        36 -17.4935      7.5703    234.6400   1.0122271330e+02   2.5146149984e+01      4.12841     3.296269  42.28   0.03074331    1.623    0.384
        37 -14.2708    102.5782    245.9254   8.5541497838e+01   1.1188073480e+01     1.051862    0.7012414  58.38  0.006760125    1.230    0.187
        38 -14.8108     94.3109    227.9053   8.5273805746e+01   1.5637552030e+01    0.9748487    0.7411893  40.06  0.006087935    1.354    0.261
        39 -15.3376     22.3085    161.3646   9.3682668729e+01   3.8773055808e+01     2.514824     1.311088  59.04   0.01390024    1.888    0.470
        40 -14.7309      9.9290    177.7889   9.7636149342e+01   3.6252153765e+01      1.58302     1.081316  45.76   0.01096287    1.524    0.344
        41 -12.2317      7.0668    147.5421   9.5931381822e+01   4.3149859745e+01    0.3764077    0.1741032  75.33 0.0004955259    2.271    0.560
        42 -11.5686     23.8545    146.0482   9.1810243219e+01   4.2131577318e+01    0.3036198    0.1528254 -84.20  0.001174034    1.803    0.445
        43 -11.8541     20.6790    142.7695   9.2237259595e+01   4.3162509212e+01    0.2696142    0.2192561 -47.26  0.001342071    1.458    0.314
        44 -14.9262      4.6687    202.7007   1.0015542869e+02   3.1536063377e+01     1.220239    0.4971541 -79.67  0.006980061    1.985    0.496
        45 -11.2428      2.0081    139.9826   9.6467569238e+01   4.5205510077e+01    0.2172146    0.1669801  77.82 0.0006159839    1.178    0.151
        46 -12.1355      5.5958    138.2128   9.5455076526e+01   4.5361116924e+01     0.302283    0.1949203 -75.65  0.001726037    1.197    0.164
        47 -14.9989     20.8565    248.2422   9.9738434980e+01   2.1353458059e+01    0.7862182    0.4566334  51.46   0.00573791    1.376    0.273
        48 -12.6460     15.6728    136.8774   9.2854047032e+01   4.4926263597e+01    0.3636298    0.2900688  82.68  0.002502788    1.135    0.119
        49 -11.4421     10.9717    133.0812   9.3636339666e+01   4.6150514391e+01    0.2639618    0.1572984 -87.11 0.0008925647    1.427    0.299
        50  -9.9798     35.2975    137.9219   8.7990059133e+01   4.2962770024e+01    0.1847958    0.1402602 -73.83 0.0007403168    1.094    0.086
        51 -10.4061    107.7422    133.4258   6.7809248325e+01   3.3933051269e+01     0.297454    0.1396111  44.53  0.001156649    2.163    0.538
        52 -10.8161     81.3709    132.0523   7.4670952178e+01   3.8660104463e+01    0.2500675    0.2029401  52.61 0.0004872297    1.280    0.219
        53 -10.7982     26.4364    129.4742   8.9229550487e+01   4.5763631875e+01    0.2120972   0.09399597  42.65  0.001037105    2.433    0.589
        54  -9.8531      7.3449    129.2844   9.4164637395e+01   4.7272057266e+01    0.1160091   0.07404129 -49.71 0.0007017489    1.644    0.392
        55 -12.3275     59.3843    129.9879   8.0356192248e+01   4.2185952907e+01    0.3705522    0.3066239 -52.89  0.001470348    1.207    0.171
        56  -9.8946     46.4998    130.9893   8.4048402009e+01   4.3448710281e+01    0.1953422    0.1132751 -69.57  0.000394936    1.496    0.332
        57 -11.9586     17.1475    124.1054   9.1038666461e+01   4.7765261666e+01    0.3404499    0.1802495 -65.41 0.0006980411    1.486    0.327
        58 -16.1124     32.1744    241.7907   9.7568856508e+01   2.1252449392e+01     1.496635    0.9423112  68.64   0.01081107    1.162    0.139
        59 -11.3722     50.3020    123.6111   8.1817857779e+01   4.4788315331e+01    0.2800861    0.1817154 -88.34  0.001435639    1.692    0.409
        60 -11.8551      7.2681    122.3074   9.3454046635e+01   4.8871433773e+01    0.4110741    0.2004419  55.89  0.002176492    2.367    0.577
        61 -10.4357    249.6833    120.3450   3.4082406877e+01   6.1572571121e+00    0.1417725    0.1034816 -61.94 0.0007048463    1.719    0.418
        62 -10.5253     53.0324    118.4035   8.0133453213e+01   4.5719918869e+01    0.3202942    0.1244816 -48.50   0.00128808    2.507    0.601
        63 -10.6622     91.6992    116.1626   6.8429420952e+01   4.0803570280e+01    0.2514398    0.2269395 -21.44 0.0004160087    1.250    0.200
        64 -10.4654     21.2078    116.0355   8.8890947405e+01   4.9331193448e+01     0.331516    0.1363369 -57.29  0.001616211    1.947    0.486
        65 -10.2498      1.6895    117.3412   9.4400432545e+01   5.0345556054e+01    0.1993345   0.09728177 -79.82 0.0005800798    1.655    0.396
        66 -11.6070      2.6216    111.6105   9.3522734722e+01   5.1591933213e+01    0.2893718    0.1579669 -63.38  0.001422339    1.414    0.293
        67  -9.8728     79.1967    111.1970   7.0958792142e+01   4.3959039506e+01    0.2124143    0.1831653 -37.03 0.0006652322    1.208    0.172
        68 -10.6662     69.7915    118.8422   7.5347700682e+01   4.3496781193e+01    0.2058527    0.1777562 -45.28 0.0005355712    1.182    0.154
        69  -9.9115     17.9974    108.7007   8.8792147023e+01   5.1272071039e+01    0.1556344    0.1453993 -69.94 0.0007541424    1.183    0.155
        70 -10.2717     61.9836    112.4708   7.6366966795e+01   4.6047474918e+01      0.19177    0.1036976  57.05 0.0008094043    2.514    0.602
        71 -11.2565    244.7625    102.9937   3.0837319489e+01   1.0017756797e+01    0.2533487    0.1455536  20.67 0.0009003461    3.651    0.726
        72  -9.6133    108.3414    101.2355   5.9921239664e+01   4.1257879458e+01    0.2120216    0.1362608 -57.72  0.000348073    1.653    0.395
        73 -10.2950    103.0603     97.1030   6.0344855941e+01   4.3178978869e+01    0.2996421    0.2425095  37.14  0.001531028    1.298    0.230
        74 -10.8442      2.9234     96.3806   9.1566801106e+01   5.5017673227e+01    0.2452106    0.1938415  46.03  0.001736092    1.545    0.353
        75 -10.7795      7.6784     95.6484   9.0019288170e+01   5.4921821763e+01    0.3053238    0.1680654  43.64  0.001289073    2.215    0.549
        76 -10.2136     63.8361     96.1793   7.2238952148e+01   4.9626534890e+01      0.20785    0.1857653 -77.72  0.001236142    1.172    0.147
        77 -10.8891    132.1435     92.6023   5.0921571314e+01   3.8188609299e+01    0.2857093    0.2766438  12.99 0.0006531827    1.056    0.053
        78 -11.4205     37.5470     91.3760   7.9733227701e+01   5.3670365798e+01    0.3384371   0.09916377 -59.56  0.001313991    2.657    0.624
        79 -10.5423     90.5108     89.1047   6.1942562923e+01   4.7195241361e+01    0.2730966    0.2519264  13.01 0.0006979071    1.151    0.131
        80  -9.6993     61.7961     90.4102   7.1512157744e+01   5.1209764702e+01    0.1738688    0.1324439   9.99 0.0008500401    1.595    0.373
        81 -10.4879    107.8517     89.0287   5.6671597382e+01   4.4026669714e+01    0.2595002    0.2184454  36.28 0.0008287729    1.232    0.188
        82  -9.7692     78.3045     88.4050   6.5616449275e+01   4.9334249606e+01    0.1828318    0.1344218  46.53  0.000699499    1.530    0.346
        83 -11.0239     67.7160    102.5305   7.2487019188e+01   4.7637362206e+01     0.269929    0.2220134 -36.35 0.0007081741    1.245    0.197
        84 -10.2964     28.5216     87.2816   8.1902589254e+01   5.5388194978e+01    0.1781535   0.09335937 -53.81 0.0004845205    1.520    0.342
        85 -12.5476     42.3483     78.0767   7.5108716008e+01   5.6196372683e+01    0.4239801     0.222996 -45.11  0.002141185    1.647    0.393
        86 -12.4793     52.3093     78.1059   7.1612969904e+01   5.5112599052e+01    0.6304521    0.4361375  49.65  0.002833083    1.833    0.454
        87 -10.6910     35.2337     82.4345   7.8607302747e+01   5.5905928224e+01    0.1547592    0.1173922  42.65 0.0004478614    1.594    0.373
        88  -9.5561    216.0205     78.2835   2.9225251124e+01   2.0601856934e+01    0.1646323    0.1311502  61.20 0.0002882328    1.297    0.229
        89  -9.9458     77.9941     78.0151   6.2795178168e+01   5.1644234439e+01     0.208954    0.1875062 -39.98 0.0003772276    1.034    0.033
        90  -9.1252     72.6692     78.2891   6.4655764068e+01   5.2393516681e+01    0.1324281    0.1097809  81.89 0.0005101611    1.623    0.384
        91 -10.6824     91.5795     75.0907   5.7485155779e+01   4.9989724284e+01    0.2485367    0.2332431  30.10 0.0005142516    1.123    0.110
        92 -10.0473      4.6691     76.6912   8.8035505509e+01   5.9301357046e+01    0.1239115   0.06517984 -44.26 0.0007040933    1.666    0.400
        93 -10.0556     76.8842     71.2644   6.1137927181e+01   5.3230919171e+01    0.1914931    0.1729385  -3.30 0.0006143589    1.115    0.103
        94 -12.1028     35.3457     67.5243   7.4991185347e+01   5.9155459130e+01    0.3199732    0.2702864  -9.59  0.002093604    1.274    0.215
        95 -10.5755      7.7610     68.2945   8.5405636197e+01   6.0963047136e+01    0.2360844    0.1320323 -68.31 0.0006536712    1.510    0.338
        96 -10.5744     24.7958     65.6883   7.8496002711e+01   6.0428975729e+01    0.2230168    0.1532774 -56.34 0.0008998099    1.200    0.167
        97 -10.4160     65.5108    165.5219   8.4115610060e+01   3.2975965908e+01    0.1337386    0.1137864  86.14 0.0003138634    1.006    0.006
        98  -9.4851    141.5752     65.4296   4.0249097152e+01   4.1241850961e+01    0.1494664    0.1461446  30.01 0.0001430986    1.004    0.004
        99 -10.2331      4.1675     64.1846   8.5920814606e+01   6.2021549994e+01    0.2068721    0.1142525 -54.13 0.0006767423    1.336    0.252
       100 -11.6729      4.0553     59.1887   8.4946853785e+01   6.3079390321e+01    0.3627915    0.2726785 -69.36  0.002259319    1.243    0.196
       101  -9.6457    126.4503     64.5789   4.3827757831e+01   4.4920824741e+01    0.1461119     0.144945  50.90 0.0004097949    1.063    0.060
       102 -11.1393     40.7959     69.5966   7.3511673477e+01   5.8193172562e+01    0.2282325    0.2027055  22.18  0.001167583    1.308    0.235
       103 -10.2244     43.5807     62.6928   7.0558646068e+01   5.9360410739e+01    0.1883407    0.1505526  52.33  0.000734347    1.666    0.400
       104 -10.8728    118.3208     61.5255   4.5033245907e+01   4.7274187028e+01    0.5082694    0.2184891  52.63  0.001869571    2.496    0.599
       105 -10.8636     98.7580     60.9194   5.0604491012e+01   5.1421764347e+01    0.3775434    0.2814102 -70.60  0.001789892    2.011    0.503
       106 -10.8913     96.6088     55.7076   4.9477161804e+01   5.2779301585e+01    0.2378171    0.2233085 -25.84 0.0003699143    1.094    0.086
       107 -10.5442     35.2248     61.2565   7.3352415933e+01   6.0483824090e+01    0.3051634    0.1683369  -6.90  0.001092074    2.656    0.623
       108  -9.6136     56.9516     59.9892   6.4694928688e+01   5.8351583472e+01     0.155771    0.1351284 -27.72 0.0003568761    1.017    0.017
       109 -10.2258     22.5052     57.9794   7.7443625901e+01   6.2217715928e+01    0.1724416    0.1459806 -37.62 0.0004842858    1.087    0.080
       110 -10.1290     78.0776     55.8460   5.5670809494e+01   5.6063447715e+01    0.1909893     0.184888 -42.75 0.0004079839    1.209    0.173
       111 -10.1149     63.9500     55.7224   6.0694760286e+01   5.8244728107e+01    0.2287372    0.1649414 -55.12 0.0008585328    1.553    0.356
       112 -10.3669     23.2662     50.8524   7.5193168881e+01   6.3611508139e+01    0.2096503   0.09788589 -37.79  0.001078909    1.891    0.471
       113  -9.3353     58.5094     50.4267   6.0918907525e+01   5.9995948379e+01    0.1311879    0.1116194 -20.70 0.0001293245    1.021    0.021
       114 -11.4998     94.0474     48.7152   4.7786162123e+01   5.4479604309e+01    0.2529136     0.190631 -27.20 0.0001717977    1.288    0.224
       115  -9.2376    148.2277     46.9945   3.2761653702e+01   4.2604277726e+01    0.1805378    0.1237496 -31.50  0.000326046    1.523    0.343
       116 -11.6937      6.3465     46.3347   8.1043462885e+01   6.5595427813e+01    0.3189427    0.1864396 -27.26 0.0004869582    1.661    0.398
       117 -10.8610     39.3021     43.7335   6.6266744196e+01   6.3543557146e+01    0.2683226    0.2066545 -41.08 0.0009305201    1.154    0.134
       118 -10.5832     20.8335     44.3829   7.4315095769e+01   6.5070766943e+01    0.2107023     0.137295 -34.19 0.0007109185    1.286    0.222
       119 -10.4395    118.9816     42.6385   3.8292223179e+01   5.0217789102e+01     0.268545     0.231443   9.60 0.0009372324    1.180    0.152
       120  -9.8764    112.9013     38.7154   3.8501871877e+01   5.2148621282e+01    0.1949234    0.1729297  40.33  0.000408313    1.090    0.083
       121  -9.2739     84.6434     39.2985   4.7319169488e+01   5.7767685198e+01    0.1264558    0.1107186 -84.68 0.0005803505    1.703    0.413
       122 -10.1354     69.5878     39.1106   5.2551791353e+01   6.0364014094e+01    0.2042654    0.1754855  38.68 0.0004725891    1.342    0.255
       123 -11.3840     12.6722     36.4837   7.5486987596e+01   6.7147151085e+01    0.3477363    0.1380983 -49.67  0.001843427    1.845    0.458
       124 -10.6804     40.1323     36.1931   6.3200818553e+01   6.4821695449e+01    0.3450727    0.1935712  14.66  0.001843403    2.075    0.518
       125  -9.4031     82.0019     35.9836   4.6913349017e+01   5.8758855049e+01    0.1606972    0.1406018  -2.43 0.0003539577    1.017    0.016
       126 -10.0990     57.6487     35.8951   5.5854370728e+01   6.2678852763e+01    0.2144741    0.1572459  10.91 0.0005421536    1.369    0.270
       127 -10.5836    153.8543     32.4751   2.6878682649e+01   4.3198677261e+01    0.3178667    0.2322322   3.92 0.0006469857    1.739    0.425
       128  -9.4128    139.4196     33.5601   3.0182548858e+01   4.6657065337e+01     0.145035    0.1298559  35.98 0.0001187239    1.082    0.075
       129  -9.7461     51.4898     33.4548   5.7368495114e+01   6.3919206980e+01    0.1772987    0.1466043  -8.26 0.0001036547    1.052    0.050
       130 -10.2070     48.4732     32.0575   5.8059062867e+01   6.4539360171e+01    0.1817553    0.1353615 -29.40 0.0005992866    1.158    0.137
       131 -10.8117     17.5693     31.5592   7.1618759700e+01   6.7722491852e+01    0.1959167    0.1509303 -34.54 0.0001910061    1.032    0.031
       132 -11.7792      3.9300     30.9873   7.7822415471e+01   6.8683469426e+01    0.3264052    0.2445625  46.77  0.001526341    2.036    0.509
       133 -11.1544      2.9691     23.9540   7.6024755131e+01   7.0019284788e+01    0.2234556    0.1182593 -45.77 0.0003551661    1.376    0.273
       134 -11.8534      4.8249     19.6873   7.3595880630e+01   7.0668682891e+01    0.2523935    0.1721316 -17.73  0.001136347    1.309    0.236
       135 -12.5654     11.4507     18.1335   6.9626328905e+01   7.0507511729e+01    0.4708132    0.2230578  -6.86  0.002454506    2.733    0.634
       136 -12.5387     90.3538    243.2145   8.7514603074e+01   1.3458742452e+01    0.5383208    0.4800925  16.08  0.003823269    1.686    0.407
       137  -9.2037     64.6968     29.7305   5.0609635016e+01   6.2613521181e+01    0.1278584   0.08821799   2.18 0.0003013468    1.531    0.347
       138  -9.2269     59.3023     29.3437   5.2541225947e+01   6.3489128881e+01    0.1331494   0.08686493  -5.53 0.0007039121    1.681    0.405
       139 -10.0894    153.3611     27.9189   2.5490970794e+01   4.3890756687e+01    0.1903425    0.1800597 -14.22 0.0004924521    1.148    0.129
       140  -9.6474    104.0298     28.0397   3.6910390018e+01   5.5535001224e+01     0.163299    0.1463119  18.24  0.000422141    1.012    0.012
       141 -10.3552    160.6052     26.8953   2.3855838447e+01   4.2174485167e+01    0.2327262    0.1827963  52.11 0.0004857529    1.199    0.166
       142 -10.4075    131.6875     25.9111   2.9203521237e+01   4.9493208423e+01    0.3102607    0.1822736   7.14   0.00128253    2.564    0.610
       143 -10.9311    135.9890     23.7610   2.7520620844e+01   4.8704378945e+01    0.3024586    0.1017104  53.79  0.001107412    2.505    0.601
       144  -9.6642     59.5923     25.8093   5.0933804374e+01   6.3979530705e+01    0.1738811    0.1092348 -43.30 0.0009431817    1.786    0.440
       145 -10.1106    111.0749     24.7917   3.3738787866e+01   5.4409164722e+01    0.2005353    0.1788089  65.49  0.001178411    1.259    0.206
       146 -10.5525     87.3586     23.5754   4.0095010880e+01   5.9503914347e+01    0.3727812    0.2170773 -47.51  0.001757927    2.366    0.577
       147  -9.4091    239.3086     24.3110   1.2966390946e+01   2.2898988216e+01    0.1215268    0.1003379  37.28 0.0003650278    1.621    0.383
       148 -10.0908    195.6327     24.2525   1.7798414209e+01   3.3527164172e+01    0.1860816     0.136348 -15.02 0.0009461372    1.690    0.408
       149 -10.4306    170.3943     23.7551   2.1261164794e+01   4.0040489727e+01     0.182198    0.1389638  -6.52 0.0004910894    1.614    0.380
       150 -12.1446     96.4912     22.1365   3.6717373785e+01   5.7858441462e+01    0.2943511    0.2542973  60.40 0.0004245463    1.352    0.260
       151  -9.3816     49.5061     24.4152   5.4447217802e+01   6.5616725087e+01    0.1221784    0.1012893  -8.94 0.0001035907    1.042    0.040
       152 -11.4142     38.0358     22.5583   5.8651362469e+01   6.7326985012e+01    0.2781544    0.2164295   3.11 0.0006380291    1.182    0.154
       153 -11.1921     35.3103     19.5661   5.8597189931e+01   6.8100102791e+01    0.2082956    0.1502269  -7.65 0.0006004755    1.220    0.180
       154 -11.9793    128.9990    232.5067   7.9075718854e+01   9.3402119808e+00    0.2757398    0.1326842  51.42   0.00134889    1.859    0.462
       155  -9.5088     72.5846     22.4788   4.4610743818e+01   6.2353889129e+01    0.1282515    0.1092873   1.89 0.0001799085    1.024    0.024
       156 -13.1805     92.2891    235.0807   8.6383761817e+01   1.4621524648e+01    0.7624584    0.3619213  30.42  0.003469658    2.942    0.660
       157 -11.1741     23.6809     16.6987   6.2890807570e+01   6.9739857858e+01    0.1824931    0.1423993 -21.60 0.0004388303    1.058    0.055
       158  -9.9389    158.9948     20.5134   2.2109763740e+01   4.3322779461e+01    0.2124628    0.1287613  65.22 0.0003832382    1.509    0.337
       159  -9.9512    189.5824    241.7933   6.8788497777e+01  -2.1306818661e+00     0.191917    0.1189734  41.44 0.0003025981    1.347    0.258
       160  -9.6288    208.3181     19.3275   1.4956105454e+01   3.0923955040e+01    0.1352403    0.1001257  39.00 0.0007046251    1.680    0.405
       161  -9.6434     48.8216     19.2000   5.2442886996e+01   6.6479121192e+01    0.1711751    0.1200903  -7.23 0.0007837253    1.306    0.234
       162  -9.5233    181.6898     23.2802   1.9425067176e+01   3.7198557421e+01    0.1432796    0.1004581 -71.13 0.0003049168    1.563    0.360
       163 -10.2089    147.5083     18.0488   2.3316396090e+01   4.6492171943e+01    0.1949818    0.1407048 -20.45 0.0007238158    1.547    0.354
       164 -11.2929     74.8869    159.3666   8.0983932232e+01   3.3115354920e+01    0.2331799    0.1694318 -81.03 0.0005550434    1.311    0.237
       165 -12.2513    109.9602    227.6873   8.2211197328e+01   1.3263676634e+01    0.3006069     0.178185 -72.01   0.00114852    1.995    0.499
       166  -9.9701    159.3975    229.4932   7.2752993317e+01   4.7482238527e+00    0.1264592    0.1071486  41.92 7.824352e-07    1.022    0.022
       167  -9.7673    212.3717     14.2506   1.3224027034e+01   3.0502376180e+01    0.1816865    0.1122789 -43.78 0.0004757327    1.558    0.358
       168 -12.3318     82.0190    218.0871   8.6656604707e+01   1.9331039664e+01    0.3745341    0.3121647 -78.29  0.002524538    1.272    0.214
       169 -10.9717     78.7762    213.7536   8.6855154944e+01   2.0656250320e+01    0.3272371    0.1808733  87.28  0.001211869    2.116    0.527
       170 -10.4447    128.1601     14.1558   2.5734738669e+01   5.1641974991e+01    0.1809318    0.1555326  86.55 0.0004325672    1.318    0.241
       171 -11.1047     55.6651    159.1211   8.5637138061e+01   3.5726522452e+01    0.3152337    0.1192735 -77.15  0.001152098    3.233    0.691
       172 -12.1656    113.3038    215.9668   8.0137027872e+01   1.4916696094e+01    0.3497998    0.1762726 -47.42  0.001227856    2.541    0.606
       173 -12.1317    110.4258    209.7383   7.9935651745e+01   1.6595284395e+01    0.2429671     0.194099 -59.05  0.001352593    1.415    0.293
       174 -12.7922     88.0684    224.4691   8.6126366360e+01   1.7213766465e+01    0.4080354    0.3564695 -15.73  0.002569953    1.874    0.466
       175 -11.8958     90.3699    214.9535   8.4660853064e+01   1.8715534938e+01    0.2475347    0.1713045  39.99 0.0007924829    1.435    0.303
       176 -10.4450    116.2588     13.1029   2.7962266566e+01   5.4540741021e+01    0.2107008    0.1657097  52.20 0.0004606195    1.158    0.136
       177 -10.0474    165.9635    212.7125   6.8924285058e+01   6.3985716501e+00    0.1881077    0.1557513  42.15 0.0005641844    1.055    0.052
       178 -12.2021    100.9271    212.5023   8.2236876985e+01   1.7574281355e+01    0.3380519    0.1624835  41.68  0.001634849    1.849    0.459
       179 -11.9668     52.5773    155.6515   8.5938684280e+01   3.6911824856e+01    0.2433316    0.1973014 -25.99  0.001432877    1.763    0.433
       180 -11.6620     72.6109    209.1063   8.7615965427e+01   2.2465692548e+01    0.4786559    0.1545847  56.92  0.001723137    3.823    0.738
       181  -9.7890    112.6643    200.2858   7.8199954032e+01   1.8118484796e+01    0.1403191   0.09216501  66.99 0.0002293019    1.626    0.385
       182 -11.5562      2.5188    159.4513   9.7884888291e+01   4.0837511936e+01    0.2464384    0.1729185  74.83  0.001710514    1.204    0.170
       183 -10.6216     41.5827    157.7577   8.8847587526e+01   3.7673667296e+01    0.2978918     0.164335 -73.55  0.001179446    1.560    0.359
       184 -11.7972     81.3474    192.9000   8.3992732997e+01   2.4614174945e+01     0.312145    0.1712902  89.44  0.001435666    2.283    0.562
       185 -10.2054    122.7631    190.7447   7.4602741213e+01   1.8344402084e+01     0.193594    0.1492481  70.87 0.0009882222    1.341    0.254
       186 -10.9996     74.3417    188.7623   8.5019060827e+01   2.6522281561e+01    0.2499333    0.1890568 -18.13 0.0009508281    2.428    0.588
       187 -13.1192     86.2795    185.2962   8.1946168457e+01   2.5530985553e+01    0.6287427    0.3972508  23.84  0.003041052    2.264    0.558
       188 -11.5412     63.3527    155.2622   8.3234392902e+01   3.5656800546e+01    0.2475601    0.2241276 -89.49 0.0005419852    1.082    0.076
       189 -10.3577     53.6576    184.3375   8.9022193547e+01   3.0240807406e+01    0.2234077    0.1114946 -84.70 0.0007622507    2.076    0.518
       190 -12.2671     52.8538    179.7092   8.8708530037e+01   3.1366630114e+01     0.432474    0.3591534  65.94  0.002507857    1.125    0.111
       191 -11.9173     66.2457    182.0722   8.6011762542e+01   2.9116718615e+01    0.4298857    0.1961214 -59.14  0.002015003    2.139    0.533
       192 -13.0977     71.5147    181.6400   8.4784867590e+01   2.8491174911e+01     0.501423    0.3065455  56.64  0.002675067    1.541    0.351
       193 -12.5442     58.8626    175.2802   8.6872024937e+01   3.1609948990e+01    0.5371326    0.2306181  51.85  0.002208496    2.299    0.565
       194 -11.9670     55.9174    169.8601   8.6907018421e+01   3.3213773720e+01     0.295354    0.2718453  12.47  0.001307306    1.494    0.331
       195 -15.3846     20.1729    214.8445   9.8065412608e+01   2.7631381050e+01     1.471171    0.5530713  54.15  0.008045877    2.141    0.533
       196 -11.3837     44.9684    166.5941   8.9053982201e+01   3.5263275486e+01    0.2393259    0.1485459 -58.39 0.0006744204    1.611    0.379
