#   1 NUMBER                 Running object number                                     
#   2 MAG_AUTO               Kron-like elliptical aperture magnitude                    [mag]
#   3 X_IMAGE                Object position along x                                    [pixel]
#   4 Y_IMAGE                Object position along y                                    [pixel]
#   5 X_WORLD                Barycenter position along world x axis                     [deg]
#   6 Y_WORLD                Barycenter position along world y axis                     [deg]
#   7 A_WORLD                Profile RMS along major axis (world units)                 [deg]
#   8 B_WORLD                Profile RMS along minor axis (world units)                 [deg]
#   9 THETA_WORLD            Position angle (CCW/world-x)                               [deg]
#  10 FWHM_WORLD             FWHM assuming a gaussian core                              [deg]
#  11 ELONGATION             A_IMAGE/B_IMAGE                                           
#  12 ELLIPTICITY            1 - B_IMAGE/A_IMAGE                                       
         1 -12.1103     73.9651     50.9138   9.4309099578e+01   5.7344611599e+01     1.315839    0.5508065 -51.95  0.005003368    2.910    0.656
         2 -12.2225     60.4130     45.2635   9.7242187601e+01   6.0445315685e+01    0.9686013    0.5089415 -43.20  0.004651568    1.696    0.410
         3 -13.3799    118.3929     40.6653   7.6682403449e+01   5.0386507144e+01     1.175406    0.8420237  46.22  0.002868656    1.360    0.265
         4 -11.3289    183.0230     25.1478   5.8495906352e+01   3.6268488115e+01    0.5017748    0.2973252  50.86  0.001219022    1.659    0.397
         5 -12.2031    105.0428     13.1001   6.9218936945e+01   5.6983519027e+01    0.5691107    0.4532324 -33.04  0.002256375    1.367    0.269
         6 -12.0239    105.5847     33.0580   7.7269619274e+01   5.4338586655e+01     0.943876    0.5047202   8.95  0.003123375    3.990    0.749
         7 -12.4107    106.0071     20.1118   7.1904627699e+01   5.5962715273e+01    0.3509637    0.2527567 -19.95  0.000385524    1.392    0.282
         8 -10.8570      5.1802      8.9763   1.0825680859e+02   7.2629534416e+01    0.6714878    0.2670722 -55.10   0.00304294    2.386    0.581
         9 -11.1716      3.2293      1.7453   1.0611309182e+02   7.3970196249e+01    0.3821436    0.1795801  10.65  0.002234554    2.446    0.591
        10 -12.6050     18.9360     22.6114   1.0662268387e+02   6.9219942178e+01    0.8690291     0.627421  29.92   0.00587159    1.720    0.419
        11 -11.4468     26.3242     27.4958   1.0497104764e+02   6.7694051682e+01    0.4851277    0.2897555 -44.69  0.001924095    1.367    0.269
        12 -11.9255     22.6880     11.3791   9.9910181942e+01   7.0813817103e+01    0.5016046    0.3614222  -5.07  0.002995414    1.297    0.229
        13 -12.3900     16.3875     12.6035   1.0375287921e+02   7.1178004592e+01    0.4944452    0.4250973 -46.04  0.003684867    1.396    0.284
        14 -11.4757    178.8677     21.1074   5.7854970371e+01   3.7805759172e+01    0.6747406     0.349449  37.68  0.002741504    2.381    0.580
        15 -11.1105     90.7051     20.2446   7.6345299746e+01   5.9191993374e+01     0.598811    0.4949828  -7.25   0.00354455    1.132    0.117
        16  -8.4204     87.6794      7.6835   7.1624975608e+01   6.1282057302e+01    0.6196554    0.3365385  54.24  0.003059385    1.853    0.460
        17 -11.3099     85.9031     13.9946   7.5053976920e+01   6.0930189979e+01    0.5912691    0.3172979 -17.98  0.001794916    1.947    0.486
        18 -10.6701     47.2209     18.7012   9.1699571461e+01   6.6814297872e+01    0.3390588    0.2484157 -19.17  0.001442113    1.164    0.141
        19 -11.8532     35.8862     18.1891   9.6577295944e+01   6.8314820512e+01    0.6355767    0.2454049 -33.49  0.002318051    2.454    0.593
        20 -12.0671     48.7093     12.8577   8.8273676321e+01   6.7476255718e+01    0.7815704    0.3512507  35.10  0.003874684    2.302    0.566
        21 -12.6640    237.5862     14.9583   4.9562982570e+01   2.3872804830e+01     0.727461    0.5157648  40.56  0.003436899    1.777    0.437
        22 -12.3909    245.5006      6.5671   4.6924830147e+01   2.2954726030e+01      1.14371    0.5847349 -82.92  0.005486435    2.173    0.540
        23 -11.8514     68.4167     17.8347   8.2772351297e+01   6.3685832654e+01    0.5342208    0.4208607  -3.20  0.003275441    1.134    0.118
        24 -11.0546    165.1608     17.4153   5.8729846376e+01   4.1763846661e+01    0.4450194    0.2664153  35.72  0.001215705    1.901    0.474
        25  -9.7815    147.6065     16.7671   6.1444953188e+01   4.6344208160e+01    0.4671025     0.402608  73.10  0.002621317    1.167    0.143
        26  -9.8889    191.6528     16.8197   5.4855168980e+01   3.4974043456e+01    0.3245485    0.2225841  22.55  0.001568944    1.898    0.473
        27  -9.6471    141.4542     12.3169   6.0970432860e+01   4.8360819045e+01    0.2304534    0.1871413   6.23 0.0007735431    1.329    0.248
        28 -11.6344    133.5776     15.2623   6.3566321546e+01   5.0022363746e+01    0.9950345    0.3127118  61.45  0.003462426    2.932    0.659
        29 -10.7126    126.9262     11.6171   6.3538671486e+01   5.2027861957e+01    0.7353256    0.2655092  67.45  0.002538696    3.242    0.692
        30 -12.0376    244.1288     14.7813   4.8963554870e+01   2.2389937170e+01    0.3731811    0.2991454 -19.73  0.002263636    1.402    0.287
        31 -11.4659    211.7818      9.7721   5.0642546176e+01   3.0626005372e+01    0.4884609    0.3369327   5.91  0.001469619    2.000    0.500
        32 -11.3041    192.3280      7.8249   5.2164001841e+01   3.5723815011e+01     0.509298    0.3314373   9.83  0.001827801    2.126    0.530
        33 -10.1753    168.9452      9.9391   5.5752836701e+01   4.1547325434e+01    0.3211609    0.1866046  47.89  0.001501094    1.684    0.406
        34 -10.3341     66.2325     10.0493   7.9870158191e+01   6.5078732170e+01    0.3509952    0.1707767  44.69  0.001729931    2.053    0.513
        35 -10.1229     62.7139      6.4017   7.9370005031e+01   6.6126258581e+01    0.2837868     0.211366  25.40   0.00148568    1.224    0.183
        36  -9.4599    151.6483      7.8961   5.7662338665e+01   4.6200240561e+01    0.3794313    0.0909133  52.64  0.000788181    3.289    0.696
        37  -9.9658      1.2928      7.2374   1.0971497429e+02   7.3170843439e+01    0.1746823   0.07405936 -49.62 0.0002528048    1.789    0.441
        38  -9.3770    184.7071      7.0282   5.2815334161e+01   3.7755400358e+01    0.1853856     0.171345 -45.25 0.0004352641    1.130    0.115
        39 -10.7770     77.2946      5.3683   7.3748211154e+01   6.3592902683e+01    0.4718846    0.2384093 -28.63  0.002346466    1.945    0.486
        40 -10.8654     41.9314      4.0396   8.6785219829e+01   6.9634453215e+01    0.5174925    0.2630337  -6.69  0.002340109    2.885    0.653
        41 -10.2221    175.7810      5.1062   5.3325350761e+01   4.0237679957e+01      0.45388    0.2351277  86.43  0.001896988    2.223    0.550
        42  -9.3430    170.0145      3.5066   5.3561882404e+01   4.1872270158e+01    0.3162868    0.1626584 -69.07  0.001251337    2.720    0.632
        43  -9.4340    162.8072      5.9166   5.5315672489e+01   4.3514662640e+01    0.2037179    0.1755497  39.80 0.0004773461    1.174    0.148
        44 -11.0610    218.8568      3.0263   4.8219594896e+01   2.9563528581e+01    0.3335617    0.2849341 -69.77  0.001020791    1.058    0.055
        45 -11.6790    224.0798      1.8752   4.7483898234e+01   2.8415328530e+01    0.7978597     0.345163 -87.17  0.003223686    2.818    0.645
        46 -10.2127     71.3622      3.9411   7.5023597650e+01   6.4866541444e+01    0.3941953    0.2127132  20.89  0.001898917    2.116    0.527
        47 -11.4355    205.3518      2.3787   4.9284967914e+01   3.2954447710e+01    0.4247922     0.250713 -85.69 0.0009760351    1.771    0.435
        48 -10.2529    142.3918      3.2602   5.7534369031e+01   4.8970991302e+01    0.3523765     0.279656  65.42   0.00197747    1.172    0.147
        49 -11.8710    133.7369      2.5348   5.8758535218e+01   5.1199698699e+01    0.4022936    0.2410363  56.53  0.000746569    1.464    0.317
        50  -9.7793     55.0751      3.9254   8.1077533163e+01   6.7685697294e+01    0.1826666    0.1484214   1.38  0.000401191    1.015    0.015
        51 -10.0319    117.3241      2.3311   6.1859769364e+01   5.5204068808e+01    0.2383134    0.1444427  46.59  0.001201175    1.455    0.313
        52 -11.0590    106.4464      1.6708   6.3989876970e+01   5.7791271161e+01    0.6967357     0.222773  62.44  0.002537825    3.140    0.681
        53  -9.2781    162.0013      1.1669   5.3871655830e+01   4.4143282907e+01    0.3694212    0.1179727  74.00  0.001223814    3.362    0.703
        54 -10.0291     12.8963      1.9540   1.0059705006e+02   7.3196955878e+01     0.248317    0.1413473   5.46  0.001159756    1.910    0.477
        55  -9.7261     32.0005     12.0085   9.5541528489e+01   6.9739020782e+01    0.1526127        0.144 -55.84  0.000527513    1.630    0.387
        56  -9.5835    123.0034      1.1964   6.0252238229e+01   5.3941913623e+01    0.3478547   0.09845485  64.24  0.001182222    3.271    0.694
        57  -9.2487     82.0111      1.1874   7.0251017584e+01   6.3089664570e+01    0.1672244   0.09096664  51.64 0.0004999966    1.751    0.429
        58  -9.6496     85.4979    150.0174   1.1501872849e+02   3.3774062243e+01     0.207859    0.1258011 -63.16 0.0009163321    1.597    0.374
        59  -9.6879    214.5210    151.5012   8.6639611153e+01   8.9492443763e+00    0.1394475    0.1281644   5.92 6.801898e-05    1.039    0.038
        60 -11.1602    249.7310    143.0759   7.8709614706e+01   3.5073779994e+00    0.6377307    0.2212663 -32.83  0.002507212    2.648    0.622
        61 -10.0629    239.8696    146.8263   8.1141976163e+01   4.7846170876e+00    0.2112752     0.168339   7.69 0.0007319928    1.203    0.169
        62  -9.9616    108.1163    146.0566   1.0877390593e+02   3.1006448094e+01     0.217791    0.1962114  72.70  0.000918998    1.074    0.069
        63 -10.6592     33.1345    144.3247   1.2707884153e+02   4.1517344025e+01    0.2546616    0.2016522  81.27  0.000834186    1.102    0.093
        64  -9.2725     74.0179    145.5060   1.1714825937e+02   3.6445601868e+01    0.1916715    0.1279228  39.20  0.001024327    1.565    0.361
        65  -9.3029    104.5033    142.4882   1.0900047193e+02   3.2412931826e+01    0.1403977    0.1309802  83.73 -3.46003e-05    1.013    0.013
        66 -10.2066    134.0694    139.9512   1.0124817883e+02   2.7537907890e+01    0.3775486    0.2866181   4.04  0.001383781    1.880    0.468
        67 -12.2169     29.9148    133.1241   1.2660826110e+02   4.4347677344e+01    0.6891055    0.3947742 -73.97  0.002877465    1.457    0.314
        68 -10.9884     20.9836    134.6908   1.2902263958e+02   4.4773965568e+01    0.2861703    0.2522164 -89.47 0.0007589682    1.133    0.117
        69 -10.7461     46.9637    134.8147   1.2245708082e+02   4.2249176499e+01    0.4246807    0.2693284 -72.62  0.002088529    1.379    0.275
        70 -10.0932     82.0008    135.1734   1.1339962209e+02   3.7653667067e+01    0.3031047    0.2312663 -10.03  0.001082095    2.005    0.501
        71 -11.1102     71.1754    134.1222   1.1604672056e+02   3.9435349555e+01    0.5421768    0.3526616  18.09  0.002671789    2.209    0.547
        72  -8.8215    216.6821    135.2909   8.2621880354e+01   1.1145672430e+01    0.1347608    0.1153773 -75.22 0.0002736594    1.599    0.375
        73 -11.3080     92.7249    130.4296   1.0970684436e+02   3.7078245694e+01    0.6264146    0.3138963 -57.87  0.002724683    1.930    0.482
        74  -9.8818     62.1668    132.0081   1.1807131028e+02   4.1104799176e+01    0.3841708    0.1481308 -52.44  0.001594787    2.471    0.595
        75 -10.8419     10.7010    127.2002   1.3083661108e+02   4.7247900088e+01    0.4531119    0.1618492 -56.72  0.001603221    2.468    0.595
        76 -10.3026     18.4855    124.7742   1.2859137445e+02   4.7210731353e+01    0.3283436    0.1454555 -62.04  0.001183648    1.841    0.457
        77 -11.0072     55.3467    123.2970   1.1849914884e+02   4.3954782512e+01    0.6269594    0.3332403  31.81  0.002259179    2.137    0.532
        78 -10.4835     45.8132    120.5109   1.2068038646e+02   4.5673371379e+01     0.335205    0.2225033  85.15  0.001385665    1.628    0.386
        79  -8.8690     41.6693    126.3176   1.2266588790e+02   4.4765011010e+01    0.1314318   0.08508513  72.50  0.000304828    1.686    0.407
        80 -11.1300     23.9972    137.0073   1.2852072836e+02   4.3998003174e+01    0.3909896    0.2412998 -57.91  0.001123876    1.553    0.356
        81  -9.6669      2.2241    125.9381   1.3284126419e+02   4.8101126259e+01    0.2373116    0.1284035  76.50  0.001380962    1.777    0.437
        82 -10.7117    239.4794    124.4966   7.6204517426e+01   8.2184116225e+00     0.400517    0.1271864 -33.16  0.001411268    2.922    0.658
        83 -10.4640     81.9518    124.4444   1.1142309535e+02   4.0124590055e+01    0.5608151    0.3180644  22.88  0.002427155    2.523    0.604
        84 -11.6864    104.7931    121.6420   1.0467983687e+02   3.7030502433e+01    0.4876137    0.4371878 -73.45  0.001682031    1.106    0.096
        85  -9.0008     40.6346    122.2419   1.2236185285e+02   4.5810992005e+01    0.1252158   0.08439312  65.89 0.0006193527    1.606    0.378
        86  -9.6148      4.3486    121.3520   1.3188809657e+02   4.8983098593e+01    0.2496329    0.1508768  71.79  0.001540672    1.622    0.384
        87  -9.5625    221.2342    120.4416   7.8325607348e+01   1.2618527232e+01    0.1893746    0.1425436  63.05 0.0006360249    1.614    0.381
        88  -9.9415    148.7577    119.4024   9.3011956979e+01   2.8806631349e+01    0.4385133    0.2500705  26.89  0.001631383    2.539    0.606
        89  -9.2195     72.7789    119.9468   1.1308057702e+02   4.2490327515e+01    0.1807206    0.1500862 -15.30  0.000707383    1.568    0.362
        90 -11.0453     34.0182    119.5033   1.2378122287e+02   4.7085833318e+01    0.2480396    0.1616619 -70.03  0.000839554    1.277    0.217
        91  -9.7120    113.8335    115.9592   1.0097436019e+02   3.6646825116e+01     0.218407    0.1968276 -21.42 0.0003538631    1.231    0.187
        92 -10.5122     67.0470    112.0824   1.1317756178e+02   4.5094386259e+01    0.4859714    0.2718157 -66.48  0.002302092    1.744    0.426
        93  -9.6659     36.8252    114.8076   1.2231911344e+02   4.7904390624e+01    0.1769537    0.1327481  80.71 0.0007021236    1.352    0.260
        94  -9.4450     42.8672     94.9044   1.1709241865e+02   5.1908602625e+01    0.4526089    0.3168944 -54.48  0.002645239    1.230    0.187
        95 -11.0737     25.3996     87.2341   1.2125182264e+02   5.5234909583e+01    0.5987646    0.3984995  52.45  0.003548937    1.819    0.450
        96 -11.2114     35.7317     93.1637   1.1901674379e+02   5.2999921196e+01     1.512309    0.6764519 -75.20  0.006320747    2.535    0.606
        97 -11.3172     18.8930    106.0559   1.2618710416e+02   5.1437905275e+01    0.4215716    0.2769945 -75.01  0.001270233    1.242    0.195
        98 -11.3841     43.6504     85.6940   1.1494181462e+02   5.3931985726e+01    0.3867156    0.3163821   7.56  0.001587081    1.486    0.327
        99 -11.0916     37.6253     85.9755   1.1699515435e+02   5.4463133595e+01    0.3697058     0.267594  43.35  0.001284181    1.620    0.383
       100 -12.4560     21.4319     95.3708   1.2387449969e+02   5.3687559029e+01     0.734391    0.5861309 -15.14  0.003717489    1.597    0.374
       101 -12.3327     18.2338     90.5664   1.2411483211e+02   5.5011983159e+01    0.4275737    0.3697573 -35.03  0.001177827    1.307    0.235
       102 -11.9639     21.9647    114.2001   1.2639303270e+02   4.9342310024e+01     1.021383    0.4289219   7.65  0.003960033    5.216    0.808
       103 -12.6778     25.1663    107.9174   1.2463553776e+02   5.0524469950e+01      1.06276    0.6822666 -35.43  0.006133276    1.912    0.477
       104 -12.4040      8.4761     95.1659   1.2779892573e+02   5.4608060597e+01    0.5900917    0.3416828 -86.15  0.001197666    1.610    0.379
       105 -12.2276      7.9582     89.3550   1.2716229070e+02   5.5945901647e+01    0.4576548    0.3951935 -66.72  0.001334019    1.119    0.106
       106  -9.8145      7.0283    114.6966   1.3052201504e+02   5.0299448137e+01    0.2259123    0.1502346  79.30  0.001158858    1.421    0.296
       107 -11.3746      2.4491    112.1072   1.3148240685e+02   5.1162179254e+01    0.3595363    0.1936591 -69.92  0.001110428    1.417    0.294
       108 -11.9510      3.9241    105.0838   1.3033187466e+02   5.2647501261e+01    0.4030213    0.3220507 -75.30  0.001195248    1.048    0.046
       109  -9.2410    126.8066    113.8172   9.7061767868e+01   3.4578470549e+01    0.2044219    0.1790817  88.36 0.0007560041    1.288    0.224
       110 -10.4484     85.8250    104.2329   1.0600948203e+02   4.4165286990e+01    0.3792692    0.2488431 -40.34  0.001069514    1.585    0.369
       111 -10.2501     90.9765    104.1261   1.0448687357e+02   4.3354325089e+01    0.4834216    0.2752791  26.63  0.002062215    2.286    0.563
       112 -11.2923     79.3668    108.6972   1.0890264528e+02   4.4139140757e+01    0.6384802    0.4103802  48.37  0.003168434    1.699    0.411
       113 -10.4831    107.7910    112.2619   1.0171922498e+02   3.8590829294e+01    0.7035958    0.3577195 -66.26  0.002487627    3.004    0.667
       114 -10.7648    101.3241    108.9706   1.0271182895e+02   4.0491317076e+01     0.465251    0.4050038  76.23  0.002532994    1.265    0.210
       115  -9.4235    103.3704    106.1819   1.0146229020e+02   4.0748690646e+01    0.2678482    0.2288206 -71.40 0.0006600047    1.233    0.189
       116 -10.8679    170.2264    110.2501   8.5780147440e+01   2.5839353051e+01    0.4413652    0.4027011 -29.60  0.001558895    1.094    0.086
       117 -10.9095    175.1513    107.5378   8.4008386085e+01   2.5220516806e+01    0.3857428    0.3072715 -12.66  0.001159717    1.424    0.298
       118  -9.9188     49.1338    112.0769   1.1835943549e+02   4.7271296801e+01    0.2067485    0.1883299  57.13 0.0008716006    1.207    0.172
       119 -10.4321     14.6946    109.6950   1.2785095778e+02   5.0912771199e+01    0.3359224    0.2194017 -83.20  0.002086733    1.307    0.235
       120 -10.1518    120.1451    109.3306   9.7681120848e+01   3.6880274994e+01    0.2616463    0.2009184 -36.82 0.0007053552    1.349    0.259
       121  -9.8920    130.4819    108.4913   9.4772488933e+01   3.4962544272e+01    0.3295913    0.1477372 -45.29  0.001222576    2.208    0.547
       122  -8.7782     58.6825    109.3353   1.1507786773e+02   4.6799081167e+01    0.1368044   0.09676154  78.37 0.0007048419    1.697    0.411
       123 -10.5764    157.6139    106.1908   8.7549189688e+01   2.9505381131e+01      0.38641    0.2854919  -8.15  0.001606274    1.785    0.440
       124 -10.9096    143.3081    106.1722   9.0949047613e+01   3.2704852059e+01    0.3996208    0.3539902  66.14 0.0008537095    1.217    0.178
       125 -11.5328    145.7455    100.2925   8.8773803126e+01   3.3358224369e+01    0.5077065    0.4571868 -11.54  0.001830065    1.184    0.156
       126 -11.5574     47.7528    103.6179   1.1724831120e+02   4.9385048872e+01    0.4340532    0.2633793 -29.30  0.001136647    2.297    0.565
       127 -10.1947     52.4365     96.2461   1.1435656127e+02   5.0565856151e+01    0.4568737    0.1848364 -54.29  0.001989229    2.063    0.515
       128  -9.9659     93.7848    111.2485   1.0535679082e+02   4.1274266396e+01    0.3530367    0.2304463 -77.27  0.001565263    2.042    0.510
       129  -9.1450     82.2076    102.7774   1.0673067164e+02   4.5062596223e+01    0.1878071     0.156901 -31.67  0.000512513    1.296    0.229
       130  -9.7921     61.1685    101.1618   1.1269102702e+02   4.8383077326e+01    0.3390011    0.1480461  44.50  0.001438673    2.612    0.617
       131 -10.0089     57.5194    102.0378   1.1398260127e+02   4.8631657861e+01    0.2685133    0.1876011 -66.07 0.0006578318    1.303    0.233
       132 -10.0233     57.5043     97.9664   1.1314028966e+02   4.9572487753e+01    0.2891675    0.2034129 -66.69 0.0009338919    1.320    0.243
       133  -9.6919    120.4999    101.5209   9.5568080107e+01   3.8492687409e+01    0.1489857    0.1453406 -32.90 0.0008102458    1.020    0.019
       134  -9.5031     67.4962     87.9607   1.0768242154e+02   5.0562009053e+01    0.2639772    0.1144928 -49.69  0.001079225    2.029    0.507
       135 -11.1678     89.3193     90.1632   1.0143585440e+02   4.6746786778e+01    0.4906957    0.2996849 -38.63 0.0009142628    1.675    0.403
       136  -9.1694     92.9168     85.5275   9.9071154971e+01   4.7141837403e+01     0.271854    0.1795025  39.43 0.0006757929    1.611    0.379
       137 -10.8202     66.7504     81.8242   1.0635584179e+02   5.2032235818e+01    0.4629329    0.3281877  23.90   0.00247632    1.647    0.393
       138 -10.6293     77.9468     96.9637   1.0662615274e+02   4.7031220743e+01    0.3378074    0.1919751 -60.19 0.0003358655    1.740    0.425
       139 -11.1433     81.4904     92.6355   1.0447062791e+02   4.7464259888e+01    0.7057177    0.6469276 -47.62  0.004160122    1.018    0.017
       140 -11.0485     79.7695     83.0236   1.0246340267e+02   4.9858096497e+01    0.5668632    0.5026807  82.81  0.002707891    1.333    0.250
       141 -11.4206     73.4801     77.9226   1.0307914467e+02   5.1925342964e+01    0.5758532    0.4468855 -22.16  0.003135883    1.425    0.298
       142 -11.2120     67.8849     96.8031   1.0967184447e+02   4.8504885901e+01    0.5894902    0.3332756 -46.63  0.002106021    1.657    0.396
       143  -9.8662     87.2423    114.1306   1.0783993891e+02   4.1681016129e+01    0.3737755    0.2141312  58.72  0.001599784    2.278    0.561
       144  -9.5449    210.4923     97.9832   7.4634946810e+01   1.8699627371e+01    0.2346059    0.1415418 -33.35  0.001033409    1.591    0.372
       145  -9.6941    140.9195     96.0760   8.8796389858e+01   3.5283820785e+01    0.2561995    0.1936051   6.87  0.001141303    1.766    0.434
       146 -10.9891    119.8572     85.3718   9.1226617911e+01   4.2007177503e+01    0.5479109    0.3871115  65.85  0.002467317    1.826    0.452
       147 -10.4948    117.5384     92.9345   9.4032998980e+01   4.0913950859e+01     0.736821    0.4687072   8.15  0.002688274    3.052    0.672
       148 -10.9377    122.3890     93.7654   9.2946743012e+01   3.9747080907e+01    0.5379322    0.2360269 -42.86  0.001993722    2.238    0.553
       149 -10.6408    126.0378     93.0521   9.1771211899e+01   3.9132465147e+01    0.4963278    0.3809898 -53.33  0.002225364    1.352    0.260
       150  -9.9244    137.6590     93.7695   8.8965552570e+01   3.6472003140e+01    0.3936564    0.2530912  20.44  0.001045141    2.314    0.568
       151  -9.4457    160.7356     93.4592   8.3358705295e+01   3.1247986002e+01    0.2896012     0.154393  55.78 0.0009762511    2.023    0.506
       152 -10.5476    152.9254     92.0309   8.4754325160e+01   3.3347529953e+01    0.4320528    0.3053041  32.80  0.001938141    1.571    0.363
       153 -11.6289    102.0898     90.2202   9.7650693994e+01   4.4484133730e+01    0.4810491    0.4111614 -17.37 0.0005852142    1.287    0.223
       154  -9.9457     49.0900     91.0963   1.1433129668e+02   5.2122471503e+01    0.3126332    0.2049776  48.36  0.001692562    1.795    0.443
       155  -9.4710    212.0056     87.9339   7.1760593332e+01   1.9993414844e+01    0.2376093    0.1773674  14.41  0.000875963    1.667    0.400
       156 -10.4529    183.8610     86.2104   7.6430468311e+01   2.7018934287e+01     0.603517    0.2666315 -43.23  0.002193575    2.303    0.566
       157 -10.0717    104.5445     76.9154   9.3045101574e+01   4.6811684308e+01    0.4567119    0.3317106 -32.81  0.002115521    1.382    0.277
       158 -10.8513    113.2956     83.3188   9.2446619437e+01   4.3772318022e+01    0.7449758    0.3231442 -37.75  0.002713869    2.430    0.588
       159 -10.9515    109.3268     80.5696   9.2758618097e+01   4.5129253104e+01    0.3763807    0.3234286 -14.38 0.0007642519    1.246    0.198
       160  -9.4073     51.8580     87.8423   1.1271895687e+02   5.2552860777e+01    0.1757188     0.142315 -78.95 0.0004717741    1.294    0.227
       161 -10.4550    165.6172     83.2810   7.9369059528e+01   3.1967681429e+01    0.4238532    0.3558541 -56.21  0.001624823    1.288    0.224
       162 -11.2576    143.1774     84.1081   8.4794305485e+01   3.7128862950e+01    0.3429332    0.3238326 -19.14 0.0009691974    1.057    0.054
       163 -10.4674    127.5568     83.2502   8.8521662010e+01   4.0796467601e+01    0.3269232    0.2823593 -42.45   0.00110523    1.143    0.125
       164  -9.7094     60.5211     83.0991   1.0873931359e+02   5.2573769782e+01    0.2758545    0.1967999 -62.33  0.001001995    1.340    0.254
       165 -10.6559     59.2859     78.2855   1.0792022897e+02   5.3799493860e+01    0.3331956    0.2460454  23.04  0.001870417    1.569    0.363
       166 -11.4365     53.0109     76.4897   1.0959880892e+02   5.4963011064e+01    0.6934603    0.2805362 -51.12  0.002900945    2.062    0.515
       167 -10.9846     52.6889     72.9368   1.0878377843e+02   5.5781109757e+01    0.3244895    0.2187692 -42.49 0.0008179324    1.332    0.249
       168 -11.3677     14.3873     66.6309   1.2112525213e+02   6.0610293061e+01    0.3119185    0.2105745 -70.34 0.0005227706    1.301    0.232
       169 -11.7469     13.7207     74.8010   1.2293078825e+02   5.8851662822e+01    0.6103492    0.4467423   6.28  0.004044437    1.739    0.425
       170  -9.6000      1.3503     78.2393   1.2768809602e+02   5.8776842364e+01    0.1796536   0.08830481 -70.15 0.0004226518    1.550    0.355
       171 -11.6443      1.9285     71.4831   1.2645509218e+02   6.0236711911e+01    0.5243976    0.1531199 -69.61  0.002309599    2.610    0.617
       172 -12.0682      6.1847     62.4703   1.2333522307e+02   6.1988483963e+01    0.6472344    0.3013845 -44.78   0.00315364    1.837    0.456
       173 -10.7185     12.2093     62.3366   1.2105061634e+02   6.1678988949e+01    0.2718953    0.1698036 -13.21  0.001325488    2.008    0.502
       174 -10.0864    246.0052     78.0147   6.4138387743e+01   1.3828428934e+01    0.1700822    0.1478234 -33.14 0.0003556151    1.041    0.039
       175  -9.3593    170.3810     77.8176   7.6760797609e+01   3.1775059214e+01    0.2134663    0.1998103  75.04 0.0006737789    1.130    0.115
       176 -10.7955     93.5024     76.4356   9.6240160405e+01   4.8965035486e+01    0.4682531     0.345806  20.46  0.001536178    1.598    0.374
       177 -10.2131    143.2134    249.5699   1.1631457344e+02   6.4014671906e+00    0.2315353   0.08428666  43.93  0.001144568    2.087    0.521
       178 -10.0191     81.6875     49.8918   9.1259379661e+01   5.6246533808e+01    0.4956523    0.2401881 -29.06  0.001597856    2.402    0.584
       179 -11.7053     85.7443     73.6790   9.7848649714e+01   5.0884938075e+01    0.6961114    0.6239929  73.13  0.003966116    1.350    0.259
       180 -10.9960     78.4804     67.1934   9.8222865403e+01   5.3418830878e+01     0.559552    0.4543213  63.35  0.002561434    1.596    0.373
       181 -10.1214     20.5928     71.8298   1.1994054627e+02   5.9049398387e+01    0.2633202     0.178874  31.08  0.000742381    1.785    0.440
       182  -9.5447    135.0519     77.6143   8.4864306975e+01   4.0228424920e+01    0.3104502    0.1483306  57.56  0.001103995    2.542    0.607
       183 -10.0918    126.9737     76.9482   8.6759431020e+01   4.2160236908e+01    0.2241617    0.2187027  -9.63 0.0003233424    1.009    0.009
       184 -10.0254     46.7084     73.2308   1.1096396357e+02   5.6394750719e+01     0.350756    0.1529402 -60.25  0.001547217    2.129    0.530
       185  -9.7788     32.9867     77.2865   1.1673042661e+02   5.6845512191e+01    0.1646531    0.1471496 -50.40 0.0002858006    1.092    0.084
       186 -11.9275    186.4413     70.6840   7.1527492404e+01   2.8992808146e+01    0.8297633    0.6536082 -30.19  0.003255077    1.267    0.211
       187  -9.3416    151.4632     73.5284   7.9622149797e+01   3.7140760934e+01    0.2948211    0.1320304  42.04  0.001035068    2.430    0.588
       188  -9.9268    123.2115     73.1347   8.6574367449e+01   4.3716351770e+01    0.2732792    0.2270749  59.45 0.0004753015    1.325    0.245
       189 -11.7998    122.7585     68.4763   8.5204195598e+01   4.4695619135e+01    0.8214152    0.3824865  45.10  0.003174308    2.171    0.539
       190 -11.8513     40.8471     70.0996   1.1226108446e+02   5.7694830122e+01     0.518653    0.2483402 -57.18  0.001352936    1.757    0.431
       191 -11.4085     33.2380     71.9346   1.1544084280e+02   5.8012388797e+01    0.5052087    0.2560807  29.02  0.002625953    2.297    0.565
       192 -10.2217    161.7583     70.4772   7.6391351575e+01   3.5166906434e+01    0.3667507    0.2749048  83.04  0.001082549    1.722    0.419
       193 -10.4749    171.9655     67.6453   7.3414075745e+01   3.3106931727e+01    0.4594079    0.2978048 -43.54  0.002033879    1.570    0.363
       194  -9.5614    208.4023     68.1301   6.7045838847e+01   2.3969676667e+01    0.2550855    0.1972239  45.72 0.0009110353    1.355    0.262
       195  -9.6696     21.4394     65.4331   1.1826589669e+02   6.0393239286e+01    0.2750247    0.1945144  73.12   0.00131004    1.928    0.481
       196  -9.2357     25.5850     65.4439   1.1672608871e+02   6.0077220496e+01    0.1836314     0.118006 -39.40 0.0005329476    1.442    0.306
       197  -9.6858    192.5116     65.9181   6.9069416083e+01   2.8235113485e+01    0.2815799    0.2141142  87.84 0.0009583821    1.591    0.371
       198  -9.8976     51.9672     47.7984   1.0141266790e+02   6.1085521081e+01    0.2499141    0.1697474 -22.11   0.00100735    1.535    0.348
       199 -10.9327     58.1620     61.5680   1.0356773716e+02   5.7526413090e+01     0.435983    0.3437566 -53.14  0.001625765    1.218    0.179
       200 -11.5795     25.3015     55.8318   1.1445754265e+02   6.2162944386e+01    0.7990741    0.6476533   2.01  0.004558988    1.425    0.298
       201 -11.1677     34.4515     42.4318   1.0671489403e+02   6.4093033267e+01    0.6544625    0.4751977 -10.77  0.003258281    1.468    0.319
       202 -12.5007     49.7244     60.3756   1.0631950793e+02   5.8814984232e+01    0.6679759    0.5528614  74.05  0.001834681    1.674    0.403
       203 -10.3095     33.7385     58.1314   1.1177001173e+02   6.0953880902e+01    0.3653803    0.1866427 -32.14 0.0005027095    2.179    0.541
       204 -11.3335     40.1891     55.7579   1.0858387564e+02   6.0823447754e+01    0.4331234    0.4124851 -73.86  0.002475107    1.259    0.206
       205  -9.6541    175.4933    246.4816   1.1029193573e+02   1.8727195455e+00    0.1165476   0.08936349  38.28 0.0001825297    1.046    0.044
       206 -11.0802     60.7141     36.1798   9.3654429740e+01   6.2043557798e+01    0.3480048    0.2045387 -36.17  0.001024081    1.520    0.342
       207 -11.4804     46.2810     48.9863   1.0405779300e+02   6.1536178999e+01    0.4289636    0.3444808   1.13   0.00145537    1.334    0.250
       208 -11.3493     42.5325     45.0500   1.0424206326e+02   6.2735723811e+01    0.4556272    0.2973985   0.61  0.001005588    1.890    0.471
       209 -10.1401     98.3920     62.9519   9.0421694771e+01   5.0757488367e+01    0.3859871    0.2513476  -2.56  0.001604078    2.416    0.586
       210 -11.3944     91.4299     62.4916   9.2452375074e+01   5.2144952349e+01    0.8011399    0.4679326  44.49  0.002966798    1.834    0.455
       211 -10.5159     91.2473     57.5955   9.0841075641e+01   5.3113850757e+01      0.34536    0.2454064  28.63  0.001488283    1.518    0.341
       212 -10.6657     87.5186     56.9498   9.1826373597e+01   5.3910721992e+01    0.5029646     0.231135 -36.66  0.001457307    2.140    0.533
       213 -11.3709    219.7880     66.4497   6.4856696290e+01   2.1478325518e+01    0.5979408    0.3470705  64.46  0.002386968    1.866    0.464
       214 -10.6470    159.4556     61.6681   7.4153773776e+01   3.7213286314e+01    0.5066352    0.2618955  40.97  0.001950969    2.128    0.530
       215  -9.8972    105.9454     63.5254   8.8330773842e+01   4.9164825380e+01    0.2178736    0.1439115  43.61  0.001020988    1.559    0.358
       216  -9.7560     66.4647     74.3998   1.0443057607e+02   5.3694703528e+01    0.2590811    0.1835596 -71.51 0.0008053925    1.738    0.425
       217 -10.2183    113.2066     60.9805   8.5362780889e+01   4.8136085288e+01    0.4163342    0.2449007 -40.35  0.001525778    1.666    0.400
       218 -11.7870    120.3178     57.5654   8.2219018306e+01   4.7203654379e+01    0.9715409    0.6519206  74.97  0.004086734    2.329    0.571
       219 -11.7591    124.9697     27.5970   7.0112193088e+01   5.0675396798e+01     0.575965    0.4823419  46.56  0.002123408    1.134    0.118
       220 -10.2254    117.1154     31.9079   7.3700643023e+01   5.1938104766e+01    0.2656028    0.2200344   2.43 0.0004123949    1.227    0.185
       221 -11.1010    113.4183     49.5811   8.1306292130e+01   5.0077529436e+01    0.5304422    0.3271106  27.86  0.001343763    1.950    0.487
       222  -9.7820    199.2266    244.4153   1.0589474144e+02  -1.5133337550e+00    0.1663848   0.08823671  45.11 0.0009537946    1.692    0.409
       223  -9.4401    236.1317     59.5330   6.0835460439e+01   1.8649053382e+01    0.2005324    0.1387215  67.94  0.001019209    1.568    0.362
       224  -9.9442    134.3200     50.3661   7.6131083385e+01   4.5180365698e+01    0.3423394    0.2107192 -54.46  0.001427489    2.099    0.524
       225 -10.7665    136.5992     56.3506   7.7619086181e+01   4.3667336782e+01    0.6548911    0.4318207  16.52  0.002602472    2.117    0.528
       226 -10.2644    145.5180     52.1427   7.4114641063e+01   4.2191189487e+01    0.3825612    0.3102691  34.02  0.001457127    1.260    0.206
       227 -11.1869    146.0492     46.5306   7.2105186704e+01   4.2920123643e+01    0.6114873    0.3425373 -22.54  0.001958024    2.006    0.502
       228 -11.1598    157.3683     54.9072   7.2442255218e+01   3.8816234307e+01    0.5350817    0.4311193 -51.40  0.002658808    1.335    0.251
       229 -10.9773    155.1395     49.6845   7.1211255374e+01   4.0177929352e+01    0.4716644    0.2949675 -17.82 0.0003774925    1.871    0.466
       230  -9.6535    101.1792     56.3784   8.7309362223e+01   5.1440636784e+01    0.1924177    0.1373906  56.39 0.0004775716    1.656    0.396
       231  -9.1330      1.7994     56.3373   1.2380675648e+02   6.3522719581e+01    0.1364378   0.09723359 -19.34 0.0005792427    1.605    0.377
       232  -9.3066    187.8164     55.3625   6.6812665466e+01   3.1023443883e+01    0.2157798    0.1321183  51.10 0.0004365514    1.624    0.384
       233 -10.0099     67.0678     54.6923   9.8098666158e+01   5.7679993413e+01    0.2451592    0.1802453 -57.67 0.0007499581    1.536    0.349
       234 -10.2561    248.7594     53.3780   5.7801464486e+01   1.6647872539e+01    0.2420496    0.1699265  54.12  0.001306256    1.566    0.362
       235 -11.1661    240.2243     50.3398   5.8031493409e+01   1.8964348502e+01     0.318753    0.2999085 -84.36 0.0007544552    1.096    0.087
       236 -10.6827    201.5171     46.6826   6.2126378176e+01   2.8790276485e+01    0.5119417    0.3746914 -57.56   0.00253794    1.449    0.310
       237 -10.8076    174.1020     48.2489   6.7068369982e+01   3.5565347267e+01    0.4893411    0.3446212  72.28  0.002090734    1.537    0.349
       238  -9.8928     26.0213     48.0278   1.1200471610e+02   6.3729628400e+01    0.2337348    0.1395373 -46.36 0.0003863073    1.329    0.247
       239 -10.8169     21.1053     46.9976   1.1375929647e+02   6.4327447276e+01     0.360315    0.2463049 -46.57  0.001784809    1.148    0.129
       240 -10.1754     13.0308     47.1614   1.1719066900e+02   6.4847973619e+01    0.4650342    0.1259523 -37.17  0.001659047    4.516    0.779
       241  -9.9344      2.3876     48.7813   1.2199682038e+02   6.5092606489e+01     0.218426    0.1992111 -43.96  0.001219901    1.209    0.173
       242  -9.7686      4.5549     43.3518   1.1982048508e+02   6.6113693369e+01    0.4566923    0.2311145 -46.95  0.001549791    1.502    0.334
       243 -10.8166      4.3231     35.8532   1.1796991913e+02   6.7647675544e+01    0.2367982    0.2139546  -7.26 0.0003307947    1.318    0.241
       244  -9.7473      6.6726     30.7545   1.1539930087e+02   6.8528734426e+01    0.3174032    0.1658799  -6.40  0.001806762    2.374    0.579
       245  -9.2666     91.1697     48.2487   8.7511786611e+01   5.4826780142e+01    0.1875096    0.1680644 -61.59   0.00106059    1.367    0.269
       246  -9.9033    195.2618     46.8833   6.3125905299e+01   3.0345248134e+01      0.50225    0.2459589  88.46  0.001502229    4.353    0.770
       247  -9.5335    147.4445     60.6480   7.6478580593e+01   4.0342480519e+01    0.3674473    0.1491686  58.72  0.001150856    2.758    0.637
       248 -10.4626    233.7792     45.3039   5.7516852038e+01   2.1115338026e+01    0.3474455    0.2276413  73.27  0.001434426    1.636    0.389
       249 -10.3286    139.8074     43.3541   7.2407193172e+01   4.4927438280e+01    0.4944519    0.2904125  22.66   0.00192336    2.466    0.595
       250  -8.9758    132.4694     45.4687   7.4868266400e+01   4.6383132323e+01    0.1500906    0.1383945  19.30 6.001662e-05    1.057    0.054
       251  -9.5967    162.7749     43.8653   6.7785284907e+01   3.9091955847e+01    0.2669882    0.1944507  46.59  0.001285468    1.352    0.260
       252 -10.0827    101.1954     43.7293   8.2689934948e+01   5.3621096522e+01    0.3158062    0.2456095 -72.99  0.001555429    1.948    0.487
       253 -10.9492     93.9874     41.3371   8.3994759692e+01   5.5454973523e+01    0.5427207    0.2708174  44.65  0.002029268    2.029    0.507
       254 -11.4445    156.1771     41.6496   6.8345998432e+01   4.1084677406e+01    0.3844747     0.346849   8.55 0.0009840234    1.164    0.141
       255 -10.6015    153.2304     36.1889   6.7098137344e+01   4.2580030157e+01    0.3224351    0.2574043 -41.04  0.000394447    1.308    0.235
       256  -9.4547     26.4567     43.4987   1.1045592137e+02   6.4611415601e+01     0.123922   0.09631944 -39.82 5.189907e-05    1.032    0.031
       257 -10.0440    189.0108     41.8464   6.2617637648e+01   3.2627742033e+01    0.2922109    0.1984297 -30.60 0.0005114876    1.482    0.325
       258 -10.6390     81.2371     39.6260   8.7518805153e+01   5.8122102192e+01    0.5578583    0.3787847  42.93  0.002939226    1.565    0.361
       259  -9.9542     77.9998     34.2220   8.6468545467e+01   5.9580289278e+01     1.013012    0.3391505  35.07  0.003438512    3.849    0.740
       260 -10.5523     82.1130     31.4364   8.3901975219e+01   5.9276819245e+01    0.4429289    0.3215261 -56.59   0.00228157    1.958    0.489
       261 -10.0653     18.1280     41.4615   1.1342836841e+02   6.5671096343e+01    0.2788253    0.1823576 -29.54  0.001752038    1.439    0.305
       262 -10.8361    231.3341     39.1175   5.6222832719e+01   2.2487026836e+01    0.3913136    0.2718775 -72.48  0.001060362    1.581    0.368
       263 -11.1453    176.7775     37.3737   6.3224807577e+01   3.6372666412e+01    0.5394545    0.2945446 -36.20  0.002330901    1.815    0.449
       264 -10.2352    172.7218     33.1401   6.2569943377e+01   3.7966908157e+01    0.3302496    0.2365121  66.35  0.001211645    1.367    0.268
       265 -10.6503    175.7688     30.4350   6.1224352792e+01   3.7515165899e+01    0.4212348    0.2201159  47.65  0.001773999    1.925    0.481
       266 -11.1682    127.7223    242.8889   1.1832130440e+02   9.6944123723e+00    0.2892985    0.1789628 -74.48  0.001745145    2.293    0.564
       267 -10.8511     23.1487     37.1284   1.0985819751e+02   6.6146649939e+01     0.342402    0.2470624  47.63  0.001554628    1.996    0.499
       268  -9.7052    133.5012     37.5359   7.1792869141e+01   4.7297582662e+01    0.3360281    0.2185217 -67.64  0.001387672    2.437    0.590
       269  -9.6737    206.9320     37.0553   5.8662511683e+01   2.8701954586e+01    0.2171023    0.2045528 -67.78  0.000679752    1.014    0.013
       270 -10.7186    138.5045     32.5031   6.8859733143e+01   4.6759067818e+01    0.6375869    0.4416768 -24.09  0.002863077    1.497    0.332
       271  -9.7823    135.6672     31.3413   6.9061352510e+01   4.7609031435e+01    0.2882088     0.196302  82.91  0.001022258    1.984    0.496
       272 -10.4841    150.5001    237.7831   1.1364644603e+02   6.9413771312e+00     0.236845    0.1695446 -27.01  0.001496397    2.004    0.501
       273 -10.0155    143.3172    235.6616   1.1469244263e+02   8.3759261757e+00    0.1190075    0.0799616  64.07 0.0007048702    1.704    0.413
       274 -10.5362    198.2980    232.9957   1.0442721510e+02   1.3703260407e-02    0.2603533    0.2062304 -70.65  0.001640473    2.268    0.559
       275 -12.0980    115.1861     24.8896   7.1453049944e+01   5.3303751703e+01    0.4232059     0.263444  45.53 0.0004042574    1.504    0.335
       276 -11.3619    110.3333     23.6183   7.2194073933e+01   5.4565364581e+01    0.3571241    0.3132774 -22.03  0.001107943    1.168    0.144
       277 -11.3448    159.9206     30.0446   6.3775441191e+01   4.1660159436e+01    0.5823059    0.3296394 -43.10  0.001807897    1.883    0.469
       278 -11.2589    164.0110     27.5299   6.2228994600e+01   4.0912704864e+01    0.2933996     0.276812 -39.57 0.0003946179    1.104    0.094
       279 -10.5354     68.7971     32.5600   8.9101838445e+01   6.1405819414e+01    0.4312491    0.2607042  35.36  0.002246618    1.714    0.416
       280 -11.0118    240.7176     31.1474   5.3227842584e+01   2.1287342099e+01    0.3971364    0.2642195 -29.33  0.001432691    1.465    0.317
       281  -9.4736    187.7051     22.6541   5.7090899340e+01   3.5345470234e+01    0.1995231    0.1746226 -21.13 0.0004281274    1.227    0.185
       282 -10.2668    147.6199     31.6995   6.6673818177e+01   4.4587757962e+01    0.2453264    0.2320945  72.03 0.0005327015    1.091    0.083
       283 -11.8722     55.7773     30.9918   9.3499203571e+01   6.3643687459e+01    0.4465022     0.273381  32.89 0.0004235636    1.740    0.425
       284 -11.4735     47.2931     30.5607   9.6830838897e+01   6.4855632289e+01     0.536732    0.2853608  18.96  0.001966246    2.353    0.575
       285  -9.4666     15.2555    234.0193   1.3693397038e+02   2.5430307979e+01    0.1419929   0.09788598  75.58  0.000865855    1.091    0.083
       286  -9.4981    247.4545    231.4671   9.5828228429e+01  -7.2171874625e+00    0.1146771   0.08492644  15.90 9.631499e-05    1.004    0.004
       287  -9.3970     23.4976    231.5120   1.3548501092e+02   2.5034053530e+01    0.1041151   0.07236356  68.36 0.0008105563    1.008    0.008
       288 -10.2594      9.5729     21.7481   1.1096771529e+02   7.0064791814e+01    0.2432217    0.1624772 -51.50 0.0007715458    1.283    0.221
       289 -10.9414     31.1122     30.0696   1.0375082053e+02   6.6768082676e+01    0.3837011    0.2946763 -24.14 0.0008605986    1.115    0.103
       290  -9.8021    180.5516    228.4891   1.0695198748e+02   3.4400077702e+00    0.1219844   0.09730894  31.38 -2.225999e-05    1.033    0.032
       291  -9.2428      9.5245    227.4995   1.3756978768e+02   2.7102978880e+01    0.1016303   0.07004146  70.44 0.0008101761    1.007    0.007
       292 -10.1566    234.1019    222.2237   9.6544022630e+01  -4.2500159594e+00    0.1741755    0.1307248  53.79  0.001088664    1.958    0.489
       293 -11.5564    199.1129     28.1140   5.7167269044e+01   3.1783898477e+01    0.5057951    0.3945387   3.24 0.0009930611    1.576    0.366
       294 -10.3154    189.2924     27.8446   5.8416137245e+01   3.4331750738e+01    0.4134734    0.2852375   1.98  0.001946128    1.902    0.474
       295 -10.0147     98.7283     28.7185   7.7508021554e+01   5.6407106489e+01       0.4459     0.326115 -59.09  0.001701631    1.967    0.492
       296  -9.3405    221.4971     29.4760   5.4834391692e+01   2.6038468352e+01    0.1387578    0.1249434 -65.36 -2.646489e-05    1.033    0.032
       297  -9.0715    158.4709     20.4485   6.0818976568e+01   4.3161740710e+01    0.2406783    0.1749323  68.13  0.000749341    1.334    0.250
       298  -9.6598    155.2967     20.6682   6.1436902441e+01   4.3953662662e+01    0.2524348    0.2235051   1.51 0.0006007884    1.210    0.174
       299 -10.4372    152.7955     26.7929   6.3979545162e+01   4.3883783990e+01     0.445428    0.3142145  11.30   0.00129381    1.733    0.423
       300 -10.3199    156.8156     25.1185   6.2679113962e+01   4.3053527516e+01    0.4458168    0.2844543 -85.72  0.001668865    2.139    0.532
       301  -9.3634     67.9302     27.7300   8.7381565533e+01   6.2317125749e+01    0.1703428     0.148104  -0.81 0.0002053659    1.046    0.044
       302 -10.9520    250.3329     25.5928   5.0986531597e+01   1.9772243253e+01    0.3764602    0.1338073 -34.59  0.001587245    2.347    0.574
       303 -10.0711    230.5135     26.5378   5.3109221941e+01   2.4220721105e+01    0.2406418    0.2143735 -58.81 0.0007424648    1.023    0.023
       304  -9.4722    133.7126     24.0702   6.6820044803e+01   4.8997384246e+01    0.3699838    0.3126166 -80.98  0.001995741    1.427    0.299
       305  -9.9434    142.8495     24.8175   6.5203103191e+01   4.6639299058e+01    0.3151184    0.2408233  84.54  0.001289418    1.534    0.348
       306 -10.2200    138.2003     21.6028   6.4976906474e+01   4.8177192230e+01    0.3997392    0.2015538  50.00  0.001275739    1.810    0.447
       307  -9.8204    141.7945     19.6131   6.3543247117e+01   4.7503467106e+01    0.3292211    0.1894552  56.19  0.001502527    1.585    0.369
       308 -10.6645    214.6763     23.5595   5.4026471329e+01   2.8408372674e+01    0.4441139    0.3074358 -13.10  0.002257022    1.717    0.417
       309  -9.4774      9.6251    217.7892   1.3712479921e+02   2.8809862656e+01    0.1429954   0.07138649  83.54 0.0006689234    1.635    0.388
       310  -9.6623     62.0288     21.2750   8.6778768654e+01   6.4248842741e+01    0.2488597    0.1755835   3.60 0.0005008335    1.456    0.313
       311  -9.3846    152.7566    207.6155   1.0916597142e+02   1.1217306993e+01    0.1839396     0.103283  48.16 0.0008074939    1.593    0.372
       312 -10.5544    238.8641    204.4637   9.2703141988e+01  -2.8827814479e+00    0.2485506    0.1644969 -21.37  0.001516887    1.504    0.335
       313 -10.1555     81.3169     19.3395   7.8940789696e+01   6.1151965046e+01    0.3626329    0.1931667  46.18  0.001170623    1.863    0.463
       314 -10.5944      4.6178    204.0643   1.3734464858e+02   3.1781304668e+01    0.3501623    0.1018832 -64.66  0.001760475    3.388    0.705
       315  -9.1940     59.6854     24.7168   8.9243305125e+01   6.4089799972e+01    0.1792767    0.1544239   1.51 0.0004440178    1.081    0.075
       316 -11.3626    244.8513    199.9038   9.0875124102e+01  -3.2679759043e+00    0.3434183    0.2237941 -48.77  0.001863464    2.536    0.606
       317 -10.1374     38.5640     22.0138   9.7046185242e+01   6.7374860278e+01    0.3204276     0.169188 -34.23  0.001378568    1.624    0.384
       318 -10.1168    233.8620    197.3120   9.2275710218e+01  -1.1840262569e+00    0.2020133    0.1665237 -26.65  0.001146521    1.365    0.267
       319  -9.8326    169.7675    191.5133   1.0323231504e+02   1.0892666645e+01    0.3546023    0.1687147  33.27  0.001427122    2.191    0.543
       320  -9.5934     16.8074    191.9306   1.3448636255e+02   3.3008517404e+01    0.1522101    0.1231101 -88.04 0.0003866121    1.217    0.178
       321 -12.1385      4.7983    184.5764   1.3632789917e+02   3.5522695168e+01    0.5730351    0.3451375  69.75  0.003952642    1.308    0.235
       322  -9.4753    223.4729     22.0889   5.2694018346e+01   2.6424336022e+01    0.2072582    0.1731966  83.47 0.0007065816    1.163    0.141
       323 -10.2986     74.0275     19.7103   8.1605362438e+01   6.2446211187e+01    0.2709407    0.2164942   7.09  0.001159926    1.143    0.125
       324 -10.0351    239.7071    184.8067   8.8935575512e+01  -5.2023952583e-01    0.1829313    0.1375895  20.88  0.001037728    1.158    0.137
       325  -8.7232    221.2580     19.2723   5.2190349748e+01   2.7279765826e+01    0.1234407    0.1014634  34.47            0    1.459    0.315
       326  -9.6480    211.2197     19.0259   5.3187641445e+01   2.9778630225e+01    0.1895829     0.181342  34.69 0.0003859262    1.182    0.154
       327 -10.1652    212.7547    181.7212   9.3139315060e+01   4.6013476498e+00     0.295984    0.1839787  10.95  0.001420005    2.042    0.510
       328 -10.4454    249.9829    179.7393   8.6228938945e+01  -1.5574024946e+00    0.2880921    0.1566561 -20.63  0.001487254    1.841    0.457
       329  -9.4101     28.2793    176.0088   1.3111642420e+02   3.5131231554e+01    0.1663705    0.1233634  85.46  0.001026932    1.073    0.068
       330  -8.6659    230.3052    175.3429   8.8724826453e+01   2.3886791494e+00    0.1383079   0.09122828   7.11 0.0003455954    1.686    0.407
       331  -9.9859    248.0217    173.8265   8.5391270520e+01  -4.5686852755e-01    0.3178439     0.137847  25.74  0.001247798    3.189    0.686
       332  -9.8552     39.6651    173.5156   1.2851426988e+02   3.4480241562e+01    0.1981195    0.0946558 -74.13 0.0002527829    1.863    0.463
       333  -9.9058     51.5185    173.0734   1.2591835077e+02   3.3240842769e+01     0.181176    0.1054486 -75.28 0.0007611511    1.568    0.362
       334 -10.2509    186.4880     15.1888   5.5025871558e+01   3.6476244377e+01    0.2649457    0.2287561  68.01 0.0006332443    1.095    0.087
       335  -8.7395      1.3305     20.7262   1.1480663121e+02   7.0737703793e+01   0.09255479   0.08389457  82.57 0.0004267398    1.592    0.372
       336  -9.9432    220.9522     12.4748   5.0458371985e+01   2.8093505204e+01    0.2004838     0.124937  77.23  0.001019989    1.563    0.360
       337 -10.4875     36.0840    170.8806   1.2904105931e+02   3.5417178097e+01    0.2994298    0.1443578 -87.14  0.001553418    2.029    0.507
       338 -11.7536      9.9315    166.1309   1.3418858603e+02   3.8855151725e+01    0.5369161     0.320828 -74.38  0.003263353    1.417    0.294
       339 -10.7815     13.8550    158.2959   1.3278994271e+02   4.0186892285e+01    0.3862865    0.1525859 -76.31   0.00201103    2.060    0.515
       340  -9.5948    198.0485    167.7215   9.3180045143e+01   9.5331692543e+00    0.1964459    0.1671988  25.57 0.0006172471    1.072    0.067
       341 -10.1393     18.7957    165.1620   1.3225630708e+02   3.8300022011e+01    0.2289103    0.2084342  57.35  0.001528527    1.323    0.244
       342 -10.3553    205.5871    163.0046   9.0762060941e+01   8.8431566076e+00    0.3668447    0.2630622   8.94  0.001836605    1.591    0.371
       343  -9.6468    188.8182    163.9521   9.4241243320e+01   1.1964102327e+01    0.2223805    0.1796315   5.75  0.001045092    1.331    0.249
       344 -10.1723     28.2689    162.9131   1.3002544741e+02   3.7902998913e+01    0.3215377    0.1401429 -68.80  0.001701768    1.950    0.487
       345  -9.7122     79.9005    160.3633   1.1792789671e+02   3.2303266374e+01    0.2375334    0.1721776 -83.18  0.001339716    1.366    0.268
       346  -9.6824    223.3747    156.8401   8.6166306965e+01   6.3928637614e+00    0.1896935    0.1690485  29.06   0.00105212    1.138    0.121
       347 -10.7591    104.3918    154.4452   1.1117594739e+02   2.9803931813e+01    0.6464638    0.3049144 -67.39  0.002550455    2.705    0.630
       348  -9.3323    108.2706    152.7707   1.0995460071e+02   2.9514047024e+01    0.2264739    0.1812301  -8.98 0.0008039109    1.815    0.449
       349 -10.1544      8.7652    156.1695   1.3373512533e+02   4.1053042767e+01    0.2219301    0.1206854 -63.74  0.001360323    1.705    0.414
       350 -11.7714    244.6874     21.3048   5.0469362278e+01   2.1534845132e+01    0.5404397    0.2574252  56.83  0.002535933    2.231    0.552
       351 -10.6857     31.1385    153.8633   1.2853880629e+02   3.9593483259e+01    0.3815434    0.2210453  69.87  0.002182033    1.692    0.409
       352 -10.4035     30.7715    149.5455   1.2819202903e+02   4.0581730010e+01    0.2840419    0.1601654  62.16 0.0009514119    1.768    0.434
       353 -10.4661     72.5831    152.3009   1.1851710352e+02   3.5113863929e+01    0.4810588    0.2585514  62.78     0.002214    2.222    0.550
       354 -11.6630     12.7991    139.2489   1.3145083318e+02   4.4414229978e+01    0.6524093    0.2842372  75.19  0.003110351    2.636    0.621
       355  -9.9614     14.6067    133.6168   1.3048884865e+02   4.5525035744e+01    0.2732199    0.1555876  77.76  0.001576947    1.703    0.413
       356 -12.0368     22.8379    149.1559   1.3000203506e+02   4.1398575728e+01    0.5267284    0.3122156 -35.37  0.002224133    2.756    0.637
       357 -11.3014     15.6515    148.1236   1.3156385967e+02   4.2237500574e+01    0.3641892    0.2173961  52.37  0.001917539    1.635    0.388
       358 -10.2569     47.7787    151.8523   1.2442618247e+02   3.8300711519e+01    0.3352162    0.2288682  34.73  0.001360211    1.643    0.391
       359 -11.1745     47.1906    146.7053   1.2394543708e+02   3.9520697141e+01    0.5301037    0.4462475 -36.88  0.003429111    1.543    0.352
       360 -11.7526      3.7759    147.4605   1.3419691976e+02   4.3295342787e+01    0.5797728     0.347302 -80.52  0.003273464    1.300    0.231
       361 -11.7506      3.7794    141.9006   1.3377917808e+02   4.4497132605e+01    0.4086543    0.3024357  51.63  0.002047389    1.412    0.292
       362 -11.4789      3.8724    136.6338   1.3334205194e+02   4.5638912280e+01    0.2227138     0.165266 -75.03 0.0002882526    1.150    0.131
       363 -11.6085     62.4563    150.0738   1.2066434581e+02   3.6947389209e+01     0.475227    0.4088367  52.85  0.002674856    1.202    0.168
