#   1 NUMBER                 Running object number                                     
#   2 MAG_AUTO               Kron-like elliptical aperture magnitude                    [mag]
#   3 X_IMAGE                Object position along x                                    [pixel]
#   4 Y_IMAGE                Object position along y                                    [pixel]
#   5 X_WORLD                Barycenter position along world x axis                     [deg]
#   6 Y_WORLD                Barycenter position along world y axis                     [deg]
#   7 A_WORLD                Profile RMS along major axis (world units)                 [deg]
#   8 B_WORLD                Profile RMS along minor axis (world units)                 [deg]
#   9 THETA_WORLD            Position angle (CCW/world-x)                               [deg]
#  10 FWHM_WORLD             FWHM assuming a gaussian core                              [deg]
#  11 ELONGATION             A_IMAGE/B_IMAGE                                           
#  12 ELLIPTICITY            1 - B_IMAGE/A_IMAGE                                       
         1 -12.5265     74.8828     50.6683   8.5290198037e+01   5.7796124103e+01     1.355396    0.7587841 -52.51  0.006036429    1.928    0.481
         2 -12.1005    124.5957     27.7897   6.1176039380e+01   5.0957032800e+01    0.8837626    0.6275917  31.75  0.002739628    1.494    0.331
         3 -12.6868    119.8599     38.2120   6.6494323849e+01   5.0632167808e+01    0.9594453    0.6865638 -67.40  0.003269742    1.944    0.486
         4 -10.1834     60.2149     22.1311   7.8460612895e+01   6.5333723502e+01    0.6911243    0.2430534 -32.10  0.002311653    2.788    0.641
         5 -12.1527     60.8117     45.1158   8.8416942280e+01   6.1149596596e+01     1.072672    0.5062041 -44.32  0.004788577    1.858    0.462
         6 -11.1310      3.0905      1.7979   9.7585075055e+01   7.5541967597e+01    0.3650571     0.182388   6.81  0.002071583    2.455    0.593
         7 -11.3676      5.4516      9.6520   1.0009318243e+02   7.3978537559e+01    0.8077636    0.5769597 -54.61  0.004504951    1.387    0.279
         8 -11.6666     26.4746     28.0890   9.6690202921e+01   6.8745492782e+01    0.4927709    0.4626721 -40.52  0.002607452    1.262    0.208
         9 -11.8486     11.9889     24.3993   1.0270209616e+02   7.0702240831e+01    0.9333277    0.3571832 -45.45  0.002770739    1.934    0.483
        10 -11.6158     19.9337     22.3872   9.7622102221e+01   7.0452578467e+01    0.6667607    0.3001436 -49.79  0.001929651    1.784    0.439
        11 -12.6695     17.7333     13.8032   9.4842033313e+01   7.2235967251e+01    0.4968842    0.4154904  27.08 0.0007893239    1.521    0.342
        12 -11.9118     22.5239     10.8026   9.0595246097e+01   7.2287961983e+01    0.4614708     0.287154  23.22  0.002040039    1.789    0.441
        13 -11.4153    240.4310     31.3777   4.5263910633e+01   2.1046779702e+01    0.6972722    0.4199147 -27.65  0.003502236    1.544    0.352
        14 -11.8903    106.0238     20.2043   6.2486636874e+01   5.6376718048e+01    0.5121986    0.3928935 -35.90 0.0004096225    1.351    0.260
        15 -11.3060    154.9963     23.7463   5.3640745560e+01   4.3659026405e+01     0.944358    0.8718044  58.71  0.005253525    1.063    0.060
        16 -11.2101    165.1079     17.6837   4.9923643131e+01   4.1673272162e+01    0.5141236    0.3112288  33.65   0.00143004    1.973    0.493
        17 -11.3933    138.0797     21.9320   5.6015874778e+01   4.8283033374e+01     1.598963    0.4271628  44.76  0.004460879    4.378    0.772
        18 -10.7375    145.4403     16.5829   5.2631980746e+01   4.6977519367e+01    0.4290859    0.3143443 -60.27 0.0004491161    1.562    0.360
        19 -12.2105    132.5432     15.0922   5.4390403913e+01   5.0471132055e+01     1.169062    0.5679228  77.20  0.001812243    2.696    0.629
        20  -9.7819    141.4511     12.2988   5.1685625257e+01   4.8465589443e+01    0.2606393    0.2263282  30.62 0.0006796986    1.160    0.138
        21 -12.4592    163.9761     27.8856   5.3616242638e+01   4.0788917868e+01    0.5516598    0.4082523  22.72 0.0004261046    1.594    0.373
        22 -11.1662    198.8036     28.7219   4.8974792158e+01   3.1549650430e+01    0.6698763    0.4293841 -11.83  0.003062258    1.836    0.455
        23 -11.2896    178.4032     21.2638   4.9265298630e+01   3.7755419656e+01    0.6275707    0.3720827  32.57   0.00236677    2.153    0.536
        24 -11.5397    182.9447     25.2515   4.9939748971e+01   3.6096039752e+01    0.6810451     0.363314  50.09  0.002844161    1.939    0.484
        25 -10.8587    214.6665     23.4278   4.5650047497e+01   2.8160665825e+01    0.5105287    0.3685417  -3.21  0.002576835    1.708    0.415
        26 -10.3343     87.1460      7.4582   6.1622336348e+01   6.2076188078e+01    0.5630988    0.3392361  53.74   0.00240902    1.649    0.394
        27 -10.8618     91.1674     21.4196   6.7207331498e+01   5.9534492490e+01    0.6627107    0.5125573 -21.14  0.003638936    1.226    0.184
        28 -11.3408     85.9902     13.6494   6.5052286518e+01   6.1621899770e+01    0.5013532    0.3546222 -20.78  0.001581097    1.345    0.257
        29 -12.2181    238.2936     15.9629   4.1503545011e+01   2.3321062572e+01    0.8998491    0.4885755  74.52  0.003044641    1.926    0.481
        30 -12.2174    246.2198      6.5057   3.8567327923e+01   2.2521274640e+01    0.7864086    0.6079291 -43.81  0.003833416    1.114    0.102
        31 -12.0010    234.2526      6.8334   3.9485953487e+01   2.5233933426e+01    0.8722337    0.4652032  84.52   0.00424962    1.962    0.490
        32 -11.2341    223.6553      1.9120   3.8989147660e+01   2.8245812482e+01    0.5730225    0.2611772  83.22  0.002523944    2.290    0.563
        33 -11.3467     40.6810      5.9051   7.8304966724e+01   7.0771672554e+01    0.4650711    0.2282847 -19.30  0.001180463    2.256    0.557
        34 -12.4010     48.4363     12.9662   7.8712318505e+01   6.8602832759e+01    0.7636217    0.4830973  30.45  0.004312787    1.650    0.394
        35 -11.5758     36.3653     19.3182   8.7739843843e+01   6.9258136012e+01    0.6158159    0.3696211 -42.91  0.002634314    1.487    0.328
        36 -11.0878     32.5367     12.4945   8.6122756900e+01   7.0869738987e+01    0.2258179    0.2199965  52.64 0.0005277489    1.548    0.354
        37 -11.5906    119.7933     58.1178   7.4052440444e+01   4.7312551132e+01     2.413912     1.451752 -63.18  0.009053193    2.646    0.622
        38 -10.5901    120.1131     19.2412   5.8670033431e+01   5.3123995805e+01    0.4792596    0.2729389 -27.17  0.001595844    1.735    0.424
        39 -10.5307     82.1858      1.3249   5.9897944675e+01   6.3758180174e+01    0.2173616    0.1148125  55.58 0.0003285739    1.866    0.464
        40 -10.9377     75.3555      4.3099   6.3575333031e+01   6.4879346580e+01    0.6819796    0.4993341  57.67  0.003875457    1.551    0.355
        41 -10.2806     64.2592     10.6427   7.0897502332e+01   6.6273322067e+01    0.5919853    0.2650403  36.62  0.002638109    2.356    0.576
        42 -10.1209     62.9470      6.6293   6.9186749148e+01   6.7012091776e+01    0.3239053    0.2187108   6.50  0.001184268    1.506    0.336
        43 -11.9071     68.4375     18.2569   7.3312993215e+01   6.4481452127e+01     0.525448    0.4936047  62.50  0.003323559    1.409    0.290
        44  -9.8568    191.6978     16.5120   4.6113246785e+01   3.4793979083e+01    0.3421582    0.3003189  29.90  0.001916174    1.288    0.223
        45 -10.9042    186.4552     14.9562   4.6238140742e+01   3.6329353942e+01    0.3255982    0.2688286  53.16 0.0003391841    1.251    0.200
        46 -11.6047    192.6152      7.2804   4.3199975392e+01   3.5506688372e+01    0.7606344    0.4788761  15.45  0.003175017    2.214    0.548
        47 -10.3950    226.0747     15.5914   4.2423046824e+01   2.6248649749e+01    0.4081998    0.2090761 -36.93  0.001028795    1.697    0.411
        48 -11.0714    218.7761      3.2855   3.9725737350e+01   2.9296648517e+01    0.3584501    0.2939226 -29.10   0.00114905    1.237    0.192
        49 -12.3720    104.6550     12.8709   5.9530328643e+01   5.7553125563e+01    0.5398459    0.4574836 -28.46  0.001594655    1.220    0.180
        50 -11.5305    211.9356      9.8678   4.2107895472e+01   3.0326793138e+01    0.4597731    0.3118952   5.41 0.0005166794    1.986    0.496
        51  -9.3235     94.6797     12.0861   6.1773305072e+01   5.9916976966e+01     0.322697    0.1660794  31.82  0.001376644    2.184    0.542
        52  -9.8429    169.0994      9.6944   4.6654748790e+01   4.1441773666e+01    0.3784577    0.1808602  46.26  0.001536583    2.215    0.549
        53 -10.2460    163.2912      4.9922   4.5792331007e+01   4.3422208351e+01    0.4208978    0.2545897  -0.46  0.001616077    2.051    0.512
        54  -9.2906    157.4852      2.5210   4.5675268200e+01   4.5174310429e+01     0.254302    0.2041107  20.93   0.00137158    1.375    0.273
        55  -9.2626    161.0348      1.0000   4.4692623725e+01   4.4369111956e+01     0.355815    0.1230208  71.85  0.001274659    2.744    0.636
        56 -10.1581    184.6902      6.3314   4.3734186947e+01   3.7661061934e+01    0.4615099    0.1834011 -34.35  0.001463144    2.297    0.565
        57  -9.0459    157.3529      7.7595   4.7552520988e+01   4.4735037260e+01    0.1925437    0.1347571  -2.98 0.0006240003    1.635    0.389
        58  -9.8306    151.8123      7.5835   4.8279721991e+01   4.6212492311e+01    0.5686028    0.2142517  65.62  0.001150166    2.407    0.585
        59 -10.4055     21.9552      4.2326   8.7219291422e+01   7.3417259695e+01    0.4647526     0.209856 -50.96  0.002131954    2.997    0.666
        60 -10.4398    174.5840      4.8812   4.4390469555e+01   4.0450991176e+01    0.5888869    0.2736193  84.22  0.002315314    2.439    0.590
        61 -10.9028    205.8455      2.4545   4.0552003962e+01   3.2588897406e+01    0.4932277    0.2774119  89.79  0.002320313    1.842    0.457
        62  -9.1365    122.9549      1.0000   5.0380846772e+01   5.4239872891e+01    0.4510384   0.07510456  67.23  0.001136197    5.735    0.826
        63  -9.5271    117.0115      2.5091   5.2147703479e+01   5.5592337597e+01    0.3307706    0.1448265  46.32  0.001373376    2.101    0.524
        64 -10.4465    111.7207      2.3953   5.3165206105e+01   5.6897885733e+01    0.5612696    0.2819671  81.29  0.002195405    2.900    0.655
        65 -10.6993    105.3832      1.8878   5.4293194230e+01   5.8464655773e+01    0.4703071     0.320762 -81.37 0.0009214375    2.108    0.526
        66 -10.5370    142.3726      3.2116   4.8053792710e+01   4.9078687197e+01    0.4031435    0.3012538  57.07  0.001476409    1.245    0.197
        67  -9.7418     13.6465      1.6544   9.0674770230e+01   7.4680366981e+01    0.2342435    0.1444537  12.79  0.001471628    1.765    0.433
        68 -11.7190    133.3869      2.7915   4.9314238569e+01   5.1439093374e+01    0.4700595    0.3000316  62.16   0.00169829    1.453    0.312
        69  -8.9318     42.3262    148.3317   1.1741436296e+02   3.9470799534e+01    0.2289928    0.1889752  10.33  0.001437101    1.767    0.434
        70 -10.0202    142.8643    249.3456   1.0826477229e+02   6.3929413961e+00    0.1691607    0.1441257  68.81  0.001192531    1.333    0.250
        71 -11.1352     47.0547    147.0543   1.1610909921e+02   3.9233759796e+01    0.5748067    0.2859524 -74.65  0.002854612    1.802    0.445
        72 -11.2209     63.0365    149.9804   1.1255575350e+02   3.6596104714e+01    0.4412006    0.3783815  35.45  0.001791719    1.385    0.278
        73  -9.6021    239.8453    146.6897   7.3795943043e+01   4.7370358009e+00    0.2266339    0.1643801 -13.55 0.0005737827    1.274    0.215
        74 -10.6056    249.6921    142.4504   7.1309607693e+01   3.5667930832e+00    0.5852709    0.2244144 -32.74  0.002475174    2.316    0.568
        75  -9.6713    214.5033    151.0423   7.9079878067e+01   8.8324575491e+00    0.2465348     0.199804  61.32  0.001130669    1.592    0.372
        76 -10.7278     32.8754    144.3520   1.1928906473e+02   4.1383666148e+01    0.2812698    0.2475514  53.88  0.001468954    1.284    0.221
        77 -10.0354    133.1023    140.2400   9.3666408232e+01   2.7226524213e+01    0.3213556     0.289107  44.01  0.001028919    1.112    0.101
        78 -12.0407     23.5419    135.8514   1.2073201439e+02   4.4241707511e+01    0.7744116    0.4029798  49.33  0.002436067    1.914    0.478
        79 -12.2925     29.8980    133.0062   1.1879894759e+02   4.4319549364e+01    0.3975271    0.2629741 -88.38 0.0003020262    1.288    0.224
        80 -10.3231     80.2327    136.5041   1.0613798943e+02   3.7320225932e+01    0.4065937    0.3293304 -14.71  0.002180854    1.816    0.449
        81  -9.7170     40.2943    137.8499   1.1669227553e+02   4.2129221486e+01    0.2260043    0.1479344  67.17  0.001277609    1.494    0.331
        82  -9.2955    192.3963    136.2789   7.9906341428e+01   1.5742145720e+01    0.2028076    0.1337857 -45.15 0.0008776843    1.599    0.375
        83 -10.5693     46.8485    135.2923   1.1467223182e+02   4.2009504132e+01    0.4430827    0.2806709 -77.27  0.002439919    1.377    0.274
        84  -8.9877    216.6150    135.2049   7.5149551445e+01   1.0931188135e+01    0.1981875    0.1264964 -21.25 0.0005408399    1.608    0.378
        85 -10.9141     92.9204    129.2733   1.0146989990e+02   3.7012361112e+01    0.4113749    0.2960506 -79.69  0.001919366    1.503    0.334
        86 -10.2109     68.1200    134.8446   1.0902751162e+02   3.9450727999e+01    0.2145906    0.1658357  80.00 0.0008379659    1.265    0.209
        87  -9.2767    107.7031    146.0242   1.0092727153e+02   3.0668687080e+01    0.1990526    0.1783029 -73.51 0.0005630153    1.083    0.076
        88 -10.2264     74.3258    132.5275   1.0700183945e+02   3.9126482604e+01    0.2922618    0.2287496 -43.62  0.001612279    1.469    0.319
        89  -9.8468     62.9361    131.1715   1.0981133718e+02   4.1019009470e+01    0.3668667    0.1462929 -55.46  0.001528506    2.288    0.563
        90  -9.4038    103.9197    130.8385   9.8913254919e+01   3.4768791502e+01    0.2068256    0.1954654  -6.10 0.0003616476    1.266    0.210
        91  -9.5077     87.6315    123.4705   1.0172497981e+02   3.9240071119e+01    0.2516553    0.1411744  39.71  0.001131507    1.887    0.470
        92 -10.3863     82.3413    125.4710   1.0355954081e+02   3.9601968787e+01    0.3956776    0.2886666 -16.42   0.00137806    2.216    0.549
        93  -8.9471    224.1308    127.0994   7.1953349860e+01   1.0701490494e+01    0.1943751    0.1561325 -44.25 0.0004811416    1.347    0.258
        94  -9.4233     22.9457    126.9349   1.1994005758e+02   4.6383005294e+01    0.1827111    0.1418723  88.35            0    1.066    0.062
        95 -10.2275     18.5346    124.8317   1.2088335740e+02   4.7250691663e+01    0.3779463    0.1568173 -70.56  0.001859602    1.882    0.469
        96  -9.5395      2.1312    125.7570   1.2525399466e+02   4.8249417578e+01    0.2705992    0.1442367  87.66  0.001551589    1.545    0.353
        97 -10.4785      4.4753    120.3374   1.2418023487e+02   4.9346239567e+01    0.4043273    0.1585294 -56.35  0.001817129    2.371    0.578
        98  -9.8428      7.6724    114.9935   1.2280759244e+02   5.0378442431e+01    0.2113797    0.1775529  78.39 0.0006491797    1.173    0.148
        99 -11.3929      2.4208    112.1109   1.2397838170e+02   5.1394887510e+01    0.3598582    0.2310518 -80.56  0.001148297    1.179    0.152
       100 -11.6299      3.7846    105.5402   1.2293653389e+02   5.2849864227e+01    0.4304527    0.3333864  84.98  0.001952844    1.144    0.126
       101 -10.8012     56.2237    123.5588   1.1040728424e+02   4.3699258005e+01    0.4677918    0.3711668  -1.66   0.00201057    1.859    0.462
       102  -9.5679     67.2608    124.2237   1.0746230891e+02   4.2099755163e+01    0.3014121    0.2006944  12.03  0.001418627    2.415    0.586
       103 -10.8642     45.6511    120.4707   1.1287352824e+02   4.5685538133e+01    0.5379731    0.2826244 -87.63  0.001762103    2.196    0.545
       104 -10.4666     33.1327    119.3165   1.1622413908e+02   4.7262305958e+01    0.3170556    0.2605556 -82.35  0.001654662    1.018    0.018
       105  -9.0312    221.3000    120.6317   7.0886167122e+01   1.2310484254e+01    0.1455121      0.10926 -58.95 0.0004391841    1.737    0.424
       106  -9.1996    148.0684    119.9871   8.5467760353e+01   2.8426499718e+01    0.2436438    0.1898229  -1.47 0.0006496461    1.709    0.415
       107  -9.5862    185.1723    118.8466   7.7117298041e+01   2.0446438304e+01    0.2148613    0.1791901   0.36  0.001003313    1.318    0.242
       108  -9.8958     94.8271    111.9305   9.7228967434e+01   4.0756588210e+01    0.3693618      0.25737  41.06  0.001804711    1.533    0.348
       109 -10.3085    113.2476    115.9832   9.3168619524e+01   3.6451192139e+01    0.2953182     0.219363  43.28 0.0003013863    1.401    0.286
       110 -10.7763    107.5104    111.4831   9.3619305194e+01   3.8568512417e+01    0.7156144    0.4089701 -71.92  0.002495246    2.656    0.624
       111 -10.8783    102.0478    108.9378   9.4499335497e+01   4.0167946430e+01     0.656652    0.4924534 -24.00  0.003117388    1.738    0.425
       112 -11.8784    104.2663    122.1025   9.6959058727e+01   3.6719116240e+01    0.4468786    0.4324624  58.11  0.001141079    1.099    0.090
       113  -9.6007     67.4878    114.0007   1.0549128709e+02   4.4528096492e+01    0.3549206    0.2345984  89.14  0.001710304    1.799    0.444
       114  -9.7751     67.0153    111.0000   1.0503275049e+02   4.5317181180e+01    0.3164787    0.2303319  40.74   0.00169993    1.510    0.338
       115 -10.4056     42.0538     93.6948   1.0929052671e+02   5.2551767645e+01    0.5061859    0.3290623  84.71  0.002583843    1.838    0.456
       116  99.0000     25.9417     86.8805   1.1334596619e+02   5.5710377927e+01     1.022007    0.6884944 -86.65  0.005838571    1.472    0.320
       117 -11.6777      9.5407     97.4107   1.2027434456e+02   5.4406735395e+01     1.227336    0.5429967  89.64  0.005657068    2.393    0.582
       118 -11.9010      7.0542     88.7735   1.1992772408e+02   5.6606827882e+01    0.6075693    0.5470928  28.28  0.003848483    1.437    0.304
       119 -11.2300     17.5439    100.8056   1.1826011092e+02   5.3038556955e+01    0.6104578    0.2525539  33.09  0.003005172    2.697    0.629
       120 -11.5183     35.3990     93.0561   1.1134000490e+02   5.3377911264e+01     1.578999    0.6355457 -74.01  0.006341577    2.614    0.617
       121 -11.8596     22.4213     94.9102   1.1586351822e+02   5.4073451114e+01    0.5795388    0.4686139  14.64  0.003479353    1.619    0.382
       122 -12.2630     18.2994     90.2788   1.1647007241e+02   5.5498033964e+01    0.3352199     0.240533 -65.57 0.0004139961    1.113    0.102
       123 -12.2047     18.7427    106.2031   1.1862283577e+02   5.1657103965e+01    0.2686672    0.2331798 -63.39 0.0002687473    1.201    0.167
       124 -12.0359     43.5899     85.2642   1.0700679411e+02   5.4411011403e+01    0.5994349    0.4533566  14.16  0.002353118    1.698    0.411
       125 -10.7318     37.1863     85.8218   1.0931502355e+02   5.4940512639e+01    0.2791309    0.2518475  58.08 0.0008004539    1.277    0.217
       126 -11.9917     22.7822    113.9002   1.1843999301e+02   4.9491884810e+01     1.035088     0.382461  17.33  0.004131282    4.448    0.775
       127 -12.5304     25.3029    107.7467   1.1688378382e+02   5.0752824419e+01    0.8515227    0.5430267 -32.80  0.004444408    2.131    0.531
       128  -9.0295    126.6241    113.7744   8.9151774488e+01   3.4286999289e+01    0.2150389    0.1405912 -55.99 0.0009403015    1.579    0.367
       129 -11.2027    171.1283    110.0442   7.7746440699e+01   2.5276290602e+01    0.6689678    0.4591966  28.81  0.002516085    1.739    0.425
       130  -9.7510     48.9366    112.1958   1.1058140915e+02   4.7314263595e+01     0.267952    0.1931789  36.74  0.001378311    1.582    0.368
       131 -10.4374     90.7799    104.0367   9.6503115948e+01   4.3305306928e+01    0.4143652    0.3848005 -17.21  0.001776374    1.238    0.192
       132 -11.4655     79.7506    108.1563   1.0068868107e+02   4.4130069122e+01    0.6809788    0.4269236  40.56  0.002497975    1.725    0.420
       133 -10.5265     85.8560    104.1016   9.7958161427e+01   4.4116201092e+01    0.4185587    0.2817921 -34.58  0.001474487    1.773    0.436
       134 -10.0119    120.7306    108.8624   8.9427382505e+01   3.6577297838e+01    0.3905079    0.2850181  -1.68  0.001666007    2.165    0.538
       135  -9.5259     58.3778    108.2318   1.0704849402e+02   4.7132796528e+01    0.2377018    0.1502531 -72.36 0.0005865385    1.491    0.329
       136 -10.8812    158.1630    106.1974   7.9560448377e+01   2.8999118632e+01     0.536328    0.3670479  23.78  0.002263521    1.925    0.481
       137 -10.4912    143.3103    106.0100   8.2978574781e+01   3.2386976477e+01    0.3284582    0.2967834  86.22  0.001139233    1.221    0.181
       138 -11.8847    145.4042    100.5976   8.0990836261e+01   3.3041176954e+01    0.6209439     0.548427  30.88  0.002178263    1.206    0.171
       139 -10.2919     57.5302    102.4801   1.0615669634e+02   4.8631971933e+01    0.3943664    0.1742622 -66.53   0.00134305    2.174    0.540
       140 -10.3074     57.8169     97.8949   1.0510143280e+02   4.9702308632e+01     0.388681    0.2031544  29.44  0.001774545    2.316    0.568
       141 -10.7747     64.7004     99.2230   1.0323445597e+02   4.8473078000e+01     0.253243    0.2214438 -37.56 0.0007087536    1.249    0.200
       142 -10.5023     68.6732     95.5966   1.0115425920e+02   4.8784922637e+01     0.392271    0.3254431 -37.08  0.001114402    1.291    0.225
       143  -9.2934     82.0742    102.6952   9.8741271887e+01   4.5062774084e+01    0.1917656    0.1840211 -62.99 0.0004351893    1.078    0.073
       144 -10.8398     51.7368     96.8874   1.0681768899e+02   5.0694241551e+01      1.01194    0.2572102 -62.23  0.003299694    3.462    0.711
       145  -9.4872    120.9593    101.0112   8.7288133638e+01   3.8269288908e+01    0.2446383      0.19244  -8.12  0.001128365    1.693    0.409
       146 -10.9922     90.0078     89.1712   9.2849702655e+01   4.6889343940e+01    0.7735253    0.3846226 -37.49  0.002977982    2.338    0.572
       147 -11.0877     82.0157     92.6961   9.6261064733e+01   4.7427023727e+01    0.5527322    0.4109539  77.07  0.002013708    1.741    0.426
       148 -12.0001     78.1180     97.2011   9.8606600688e+01   4.6989593630e+01    0.4274541     0.307885 -63.22 0.0003758678    1.309    0.236
       149  -9.9122     77.1776     92.6237   9.7748174822e+01   4.8216233685e+01    0.2508649    0.2166778 -17.83 0.0005416523    1.371    0.271
       150  -9.9961    210.7172     97.6639   6.6878978747e+01   1.8369059256e+01    0.3815433    0.2976265  19.46  0.001894182    1.471    0.320
       151  -8.7760     45.5453    105.5744   1.1043215248e+02   4.9300987139e+01    0.1335775    0.1125169 -69.77 0.0001628911    1.031    0.030
       152  -9.4803    160.5397     93.7041   7.5543166519e+01   3.0906781668e+01    0.4219386    0.2529416  72.60   0.00153114    2.637    0.621
       153 -10.5769    153.1148     91.7344   7.6648318667e+01   3.3046917534e+01    0.5851631    0.3584225  50.71  0.002463996    1.684    0.406
       154 -10.1798    117.5256     93.1262   8.6009028296e+01   4.0710305888e+01    0.5868464    0.3535216  35.41  0.002454951    1.923    0.480
       155 -10.4203    120.5430     89.5189   8.4139149231e+01   4.0856341299e+01    0.3528792    0.3175578 -33.99 0.0009627736    1.101    0.092
       156 -11.1581    120.5680     85.1276   8.2816101927e+01   4.1785602868e+01    0.5671681    0.4082758  83.70  0.002410343    2.073    0.518
       157 -10.3122    126.0435     93.4954   8.3833862480e+01   3.8825730149e+01    0.3666221    0.3240651  41.18  0.001218321    1.186    0.157
       158 -10.1782    122.4953     93.5415   8.4786934273e+01   3.9575950448e+01    0.3324054    0.2368361 -26.29 0.0008057842    1.645    0.392
       159 -12.2686    101.8990     89.9232   8.9506328694e+01   4.4538379175e+01    0.5554001    0.4557657 -30.13 0.0003863707    1.298    0.229
       160 -10.1672    105.0630     76.5212   8.4517936225e+01   4.6844631181e+01    0.4271102    0.3973835 -36.53  0.002323306    1.021    0.021
       161 -11.2443    113.3568     84.5353   8.4627368347e+01   4.3436300170e+01    0.7043126    0.3769597 -33.85  0.002181567    2.105    0.525
       162 -10.3816     94.0362     76.6437   8.7895670298e+01   4.8960873196e+01    0.6085796    0.3284452  36.14  0.001459847    2.126    0.530
       163  -9.3316    213.4716    248.5108   9.6328318736e+01  -3.7631543524e+00    0.1106269   0.08040655  24.10 6.282843e-06    1.026    0.025
       164 -12.3222     89.7955     59.5357   8.3487622086e+01   5.3345640480e+01     1.089012     1.035939 -67.89  0.006242749    1.176    0.150
       165 -11.5661     76.6732     80.3422   9.4569351686e+01   5.1144281880e+01     1.320408    0.9570091  70.30  0.006395289    1.888    0.470
       166 -10.6900     67.3162     81.8895   9.8108376455e+01   5.2211697934e+01    0.8841447    0.7268408 -15.29  0.004879332    1.465    0.317
       167 -13.0893     52.5683     73.5919   1.0096703256e+02   5.6117924698e+01     0.538676    0.2850952 -60.00  0.001017611    1.705    0.413
       168 -10.9430     58.0016     77.8190   1.0018956808e+02   5.4444500200e+01    0.6273656    0.2937529 -64.10 0.0004280484    2.274    0.560
       169 -11.6080     85.6071     73.6433   8.9623867450e+01   5.1144504227e+01    0.5876006    0.5724469  21.74  0.002332248    1.119    0.107
       170 -10.6927     79.4142     67.7336   8.9767211061e+01   5.3497624168e+01    0.5969257    0.4985305  66.32  0.003217913    1.482    0.325
       171 -10.4301    183.3576     85.4372   6.8442192332e+01   2.6929380404e+01    0.7902405    0.3073198 -44.73  0.002622561    2.675    0.626
       172 -10.4171    165.6852     83.6090   7.1466815905e+01   3.1578710979e+01    0.4301727    0.3497129 -68.51  0.001540402    1.436    0.304
       173 -11.2492    143.0127     84.0868   7.6743805304e+01   3.6934813101e+01    0.4090012    0.3688245  39.40 0.0009175984    1.152    0.132
       174 -10.5350    127.5931     82.8072   8.0229627320e+01   4.0728829367e+01    0.4803551    0.3185362 -46.47   0.00186812    1.468    0.319
       175  -9.6806    127.3209     77.1003   7.8503109979e+01   4.1949437075e+01    0.2943046    0.2742233  71.29 0.0008658579    1.160    0.138
       176 -11.0382    109.2471     80.6476   8.4600444870e+01   4.5116131189e+01    0.4021714    0.3537679  -4.96  0.001267133    1.283    0.221
       177 -10.1905    232.9216     77.8219   5.8247997789e+01   1.6458026822e+01    0.3542368    0.2444311 -21.23  0.001329047    1.421    0.296
       178 -11.8571     14.2971     74.4454   1.1515982262e+02   5.9530205672e+01    0.5520847    0.3869027 -50.44  0.002592281    1.280    0.219
       179  -9.5510      8.9682     76.2549   1.1739623166e+02   5.9441608782e+01    0.1681265    0.1285769 -65.44 0.0002366533    1.040    0.038
       180 -10.0211     14.4353     67.2247   1.1371290998e+02   6.1206645518e+01    0.3190827     0.241119   6.40  0.002061969    1.706    0.414
       181  -9.3169    170.3427     77.9448   6.8796838433e+01   3.1459379801e+01    0.2223879    0.2014353 -31.43 0.0005034296    1.068    0.064
       182 -10.8718     58.9900     63.6303   9.5676152609e+01   5.7531618843e+01    0.7263095    0.4679736 -67.54  0.003511635    1.842    0.457
       183 -10.5624     22.7775     36.9470   1.0190835928e+02   6.7303666262e+01    0.4469399    0.3128309  56.62  0.001829625    2.212    0.548
       184 -10.2845     53.3157     49.4461   9.3037608987e+01   6.1341439855e+01    0.4589849    0.3346775  87.15  0.002240785    2.431    0.589
       185 -10.6085     32.8478     43.5650   9.9596344664e+01   6.4980973037e+01    0.9586309     0.476451 -24.79   0.00414053    2.898    0.655
       186 -11.7973      2.0075     71.3865   1.1912091330e+02   6.0959759548e+01    0.6579252    0.1471086 -69.24   0.00255664    3.032    0.670
       187 -12.4793      6.7270     62.1132   1.1569475189e+02   6.2853924391e+01    0.6846613    0.4511633 -32.06   0.00343362    1.664    0.399
       188 -11.8814     21.1979     46.8408   1.0585577651e+02   6.5326407656e+01    0.4649859    0.3196758 -47.96  0.001033793    1.152    0.132
       189 -11.6206     32.9625     58.8107   1.0433872773e+02   6.1645327163e+01    0.6502301    0.3467084   4.46 0.0003395242    3.035    0.671
       190 -12.0844     25.3918     54.4041   1.0622462573e+02   6.3314349103e+01     1.114336    0.5935168  10.09  0.005603659    2.611    0.617
       191 -11.1478     40.9131     56.9420   1.0057095260e+02   6.1246110523e+01     0.425646    0.3274848  58.77  0.001702102    1.734    0.423
       192 -11.4729     51.0008     61.2286   9.7933656365e+01   5.9113035360e+01    0.3575004    0.2760835 -60.12 0.0004931225    1.238    0.193
       193  -9.3569    139.3235     77.3030   7.5526309493e+01   3.9133577563e+01    0.1596067    0.1240827  10.22 0.0002147872    1.636    0.389
       194  -9.8092    242.0081     75.1932   5.6363997356e+01   1.4841092608e+01    0.2441577    0.1818277 -30.22 0.0003409351    1.180    0.152
       195 -12.0296    186.5771     70.4470   6.3446583051e+01   2.8686912341e+01    0.9612695     0.639931 -38.84  0.003012596    1.422    0.297
       196  -9.2274    137.9693     93.2045   8.0700573496e+01   3.6249947134e+01    0.2718874    0.1851837  17.70  0.001082945    2.195    0.544
       197 -10.0287    184.1652     61.8366   6.1267475246e+01   3.0685574352e+01    0.3311916    0.2527193 -25.08 0.0007919713    1.312    0.238
       198  -9.2091    151.2562     73.6906   7.1566102137e+01   3.6945824649e+01    0.3162628    0.1746954  34.36  0.001156692    2.364    0.577
       199 -11.3647     32.3995     72.2249   1.0801628024e+02   5.8616912715e+01    0.5044371    0.3256498  29.02   0.00284287    1.864    0.463
       200 -11.6383     40.8842     70.7449   1.0448990412e+02   5.8119904635e+01    0.5382513    0.2772199 -52.57  0.002643994    1.581    0.368
       201  -9.9538    123.7875     72.9836   7.8100920236e+01   4.3568261792e+01    0.4818645    0.3345672  79.42   0.00198729    2.189    0.543
       202 -11.4338    123.9771     68.4727   7.6545866822e+01   4.4409350555e+01    0.4434388    0.3819154 -63.64  0.001298888    1.283    0.221
       203 -10.5250    119.9812     68.7606   7.7718293262e+01   4.5254432862e+01    0.2871136    0.2724633 -40.42 0.0005513353    1.032    0.031
       204  -9.7049    162.1825     70.8818   6.8296177576e+01   3.4744982730e+01    0.2991266    0.2505657 -59.04  0.001242477    1.280    0.219
       205  -9.9227    172.3306     68.3306   6.5450362374e+01   3.2630690376e+01    0.4013321    0.3332182  47.79  0.001981824    1.245    0.197
       206  -9.8327    172.0000     64.9890   6.4469580445e+01   3.3274396524e+01    0.4254919    0.3802304  44.37  0.001746401    1.161    0.138
       207  -9.2211    115.0119     69.4681   7.9331094409e+01   4.6210145642e+01    0.2283497    0.1530615  47.72 0.0007095874    1.569    0.363
       208 -11.4504    219.9678     66.2942   5.6968575147e+01   2.1150104937e+01    0.6628865    0.4103931  56.30    0.0024427    1.730    0.422
       209 -11.5545     46.1023     58.1686   9.8881381103e+01   6.0384703214e+01    0.6179671    0.2915781 -45.97  0.001293236    1.795    0.443
       210 -10.6698     25.9831     65.4741   1.0885413285e+02   6.0749737661e+01     0.225018    0.1618027 -58.81 0.0001398046    1.107    0.097
       211 -10.6678     21.2388     65.4247   1.1069237327e+02   6.1139598776e+01    0.2691266    0.2002147  87.37  0.000826819    1.528    0.346
       212  -9.8407    192.6544     65.6759   6.0976870148e+01   2.7930828773e+01    0.2940722      0.24815 -63.44 0.0008059374    1.264    0.209
       213 -10.0856    106.4533     63.6873   7.9802546062e+01   4.9187260320e+01    0.3588713    0.2842096 -25.27  0.001787934    1.284    0.221
       214  -9.7114    198.5342     63.0924   5.9256865534e+01   2.6860435332e+01    0.4742149    0.2461059  82.09    0.0015904    3.350    0.701
       215 -10.5472    159.4637     61.8109   6.5945551137e+01   3.6993642078e+01    0.4985127    0.2922267  41.04   0.00201841    1.897    0.473
       216  -9.5832    146.4719     61.2652   6.8569350960e+01   4.0354051376e+01    0.3429158    0.2460427   7.62  0.001461545    1.884    0.469
       217  -9.5087    175.0174    246.7017   1.0247539160e+02   1.9962429167e+00    0.1695143    0.1182928  37.14 0.0009140053    1.094    0.086
       218 -11.3052    113.3201     49.6109   7.2669062519e+01   5.0299768040e+01    0.7298304    0.4159049  33.49  0.002592239    2.130    0.530
       219 -10.9718    127.7787    242.9426   1.1019584887e+02   9.4829437648e+00     0.353411    0.1803697 -59.60  0.002085874    2.553    0.608
       220 -12.3771    117.3837     43.1960   6.9094676075e+01   5.0438025805e+01    0.8463567    0.5588297  79.10  0.003516906    2.321    0.569
       221 -11.7722    114.2540     38.5287   6.8073423547e+01   5.1904364309e+01    0.5961719    0.3027523 -21.65  0.001322354    2.277    0.561
       222  -8.8908    228.3024     59.6459   5.4051315574e+01   2.0151340382e+01    0.1556002   0.09824051 -55.60 0.0007039121    1.706    0.414
       223 -11.1600    140.2577     43.2088   6.3594876684e+01   4.4855454796e+01    0.9062446    0.4764105  32.89  0.002754703    2.583    0.613
       224 -10.9127    136.5437     56.4700   6.9216556725e+01   4.3632463953e+01    0.9080614    0.5271185  28.40  0.003407081    2.453    0.592
       225 -10.5825    134.5011     50.2016   6.7459360696e+01   4.5187332475e+01    0.4884724    0.3517497 -81.43  0.002115129    1.995    0.499
       226 -10.7016    146.1723     43.1522   6.2308364819e+01   4.3360133069e+01    0.4201905    0.3035263  58.38 0.0008954417    1.399    0.285
       227 -10.5963     46.8845     74.5454   1.0327223613e+02   5.6574689758e+01    0.3432684    0.2075435 -58.98 0.0002810056    1.406    0.289
       228  -9.0006    161.7990     47.8602   6.0836410520e+01   3.8620685814e+01    0.3587335    0.2591908 -73.42 0.0009390548    1.743    0.426
       229  -9.7682    162.3863     43.8175   5.9356541941e+01   3.9066067755e+01    0.3610825    0.2725112  71.32  0.001722657    1.411    0.291
       230 -11.4946    156.0022     41.9326   5.9908166097e+01   4.1002424634e+01    0.4931251    0.4000361 -38.08 0.0009427855    1.216    0.177
       231 -11.2091    153.1553     36.1415   5.8408871616e+01   4.2559179390e+01    0.3406988     0.288543 -47.34 0.0004157896    1.207    0.171
       232 -11.1865    157.3533     55.1176   6.4158120209e+01   3.8634833599e+01    0.6211028    0.5435457  87.18  0.003150451    1.263    0.208
       233 -10.9190    155.3350     49.7654   6.2749820595e+01   4.0000331503e+01    0.5055012    0.3316945  -8.55  0.001086258    1.944    0.486
       234  -9.2704    208.1210     68.4801   5.9312859537e+01   2.3666520250e+01    0.2202297     0.149446  59.06  0.001024367    1.571    0.363
       235 -10.1965    188.0296     55.7374   5.8746758041e+01   3.0641272031e+01    0.2644693    0.2501485  -7.49 0.0004550375    1.101    0.091
       236  -9.9892     66.9973     54.6925   8.9665622126e+01   5.8270837788e+01    0.3814399    0.1865027 -53.50  0.001134548    2.102    0.524
       237 -12.6663     43.1763     46.4492   9.6133571937e+01   6.3245662491e+01    0.7623918    0.6538948 -82.16  0.001654203    1.511    0.338
       238  -9.7584    249.0203     53.0534   4.9924750899e+01   1.6369167411e+01    0.2231101    0.1678748 -53.54 0.0006417311    1.274    0.215
       239  -9.6869    234.0966     44.8842   4.9427952168e+01   2.0810445928e+01    0.3086081    0.2211019 -52.03 0.0009746091    1.320    0.242
       240 -10.8197    231.6220     39.5137   4.8270859629e+01   2.2083584365e+01    0.6420352    0.3024332 -61.90  0.001530487    2.847    0.649
       241  -9.4239    238.3388     54.6649   5.1517993636e+01   1.8531266724e+01    0.2939744    0.1607324 -34.11  0.001359476    1.575    0.365
       242 -10.3279    244.8625     51.1363   4.9882728917e+01   1.7538527746e+01    0.2769105    0.2036462  76.45 0.0007619662    1.550    0.355
       243 -10.8898    240.2178     50.2242   5.0152888522e+01   1.8701521598e+01    0.3965584    0.3170328 -42.42  0.001173204    1.098    0.089
       244  99.0000     68.4389     33.0084   8.0357752457e+01   6.2160148812e+01    0.6886898    0.4797109 -53.21  0.003547622    1.755    0.430
       245  -9.4317    199.0262    244.5180   9.8156876766e+01  -1.2724148043e+00    0.1764467   0.08601167  39.19  0.001034338    1.603    0.376
       246  -8.8845    163.5109    243.5049   1.0405045252e+02   4.1055633867e+00    0.1139388   0.08775672  39.68 5.732406e-05    1.035    0.034
       247 -11.6617     60.4921     36.1299   8.4839981369e+01   6.2906274997e+01    0.3963173    0.2413981 -35.37  0.001118723    1.457    0.313
       248 -11.7639     56.9654     30.9405   8.3980600074e+01   6.4382282426e+01    0.4125024    0.2975564   5.49  0.001473672    1.572    0.364
       249 -11.3522     48.6338     30.5221   8.7344496586e+01   6.5670276765e+01    0.5985971    0.2845929  29.65  0.002765817    2.483    0.597
       250  -9.9381    211.2338     53.0280   5.4471664851e+01   2.5190076961e+01    0.2917885    0.2226494  81.23  0.001465413    1.461    0.316
       251 -11.2641    202.0417     47.3759   5.4104657708e+01   2.8283298529e+01     0.673281    0.4650613 -36.08  0.003246434    1.346    0.257
       252 -10.7471    174.0903     48.0335   5.8665402177e+01   3.5395544215e+01    0.5847906    0.4407226  86.88  0.002712164    1.540    0.351
       253  -9.6625    176.9115     43.7579   5.6804423092e+01   3.5276284350e+01    0.3413205    0.2387365  85.66  0.001540173    1.690    0.408
       254 -11.4895    146.2896     47.2259   6.3738839135e+01   4.2710036387e+01    0.9087062    0.4055662 -22.95  0.003128898    2.677    0.626
       255 -10.2219     90.8593     47.4660   7.8576908991e+01   5.5454744773e+01    0.2998035    0.2286254 -36.56 0.0004548999    1.223    0.182
       256  -9.4617      6.0181     42.0256   1.1141528363e+02   6.7394982865e+01    0.4300866    0.2594807 -88.67  0.002345914    2.189    0.543
       257  -9.4358      2.2775     48.7980   1.1476047078e+02   6.6096205739e+01     0.229147    0.2081671 -14.42  0.001723748    1.348    0.258
       258  -9.3353      2.9367     44.8444   1.1354657161e+02   6.6939270481e+01    0.2375711    0.1242005 -28.12  0.001028447    2.141    0.533
       259  -9.9405     14.0370     46.2695   1.0889838675e+02   6.5976115916e+01    0.3817275    0.1506727 -39.27  0.001762808    2.453    0.592
       260 -10.0023     17.6048     41.6481   1.0590750677e+02   6.6725896704e+01    0.3670667    0.1926862 -33.60   0.00183224    1.915    0.478
       261 -10.0327    194.6013     46.6047   5.4942127431e+01   3.0287109933e+01    0.5574021    0.2650824  89.87  0.001602995    4.611    0.783
       262  -9.1490    132.0182     45.4964   6.6317176291e+01   4.6556427273e+01    0.2275412    0.1481139  52.52 0.0005137445    1.544    0.352
       263 -10.7837     97.7869     41.5902   7.4021398470e+01   5.5069435645e+01    0.6210667    0.4228832  88.25  0.002184521    2.920    0.658
       264 -10.7465     92.9954     41.1554   7.5335649801e+01   5.6138846792e+01    0.4308748    0.3146013  47.09  0.002196628    1.458    0.314
       265 -10.8111    189.7041     40.5754   5.3812860297e+01   3.2381800578e+01    0.5893178     0.451867  -8.45  0.002891779    1.482    0.325
       266  -9.7304     86.4742     30.9349   7.3043319959e+01   5.9130753302e+01    0.5447526    0.2289571 -22.95   0.00189904    3.139    0.681
       267 -10.3724     80.2417     40.1864   7.9176478310e+01   5.8799671996e+01    0.5785928    0.4631972  42.94   0.00319488    1.366    0.268
       268 -10.8511     77.4121     34.2202   7.7599439639e+01   6.0352833475e+01    0.4825828    0.2799459  40.53 0.0009402936    1.821    0.451
       269 -10.4014     81.8811     31.7431   7.4940673603e+01   5.9911205262e+01    0.4601849    0.2654409 -53.90  0.001944564    2.514    0.602
       270  -9.8299    182.4001     32.1718   5.2227854348e+01   3.5390797084e+01    0.2355791    0.2072944  37.69 0.0005709741    1.223    0.183
       271 -10.9657    177.0512     36.3953   5.4392892397e+01   3.6248837659e+01    0.4832287    0.3838494  16.67  0.001494903    1.486    0.327
       272 -10.2037    172.0194     32.8623   5.4018495696e+01   3.8036338944e+01    0.6453883    0.3312293 -62.85  0.002288004    2.886    0.653
       273  -9.6864    133.1866     36.8608   6.2790465554e+01   4.7571708143e+01    0.4198755    0.2705782 -72.37  0.001680255    2.430    0.588
       274  -9.7694    206.8152     37.0031   5.0430692768e+01   2.8468337334e+01    0.2415821    0.2127735  79.16 0.0006922761    1.167    0.143
       275 -11.1105    138.5791     33.0820   6.0184366069e+01   4.6738757427e+01    0.5097014    0.4360014  78.49  0.001301148    1.277    0.217
       276  -9.3375     94.4984     36.1408   7.2758090783e+01   5.6658114517e+01    0.2596167    0.1938742  71.96 0.0009596974    1.864    0.464
       277  -9.4982     67.7987    240.4064   1.2036829609e+02   1.8085539876e+01    0.1432484    0.0886308  36.34 0.0009486536    1.680    0.405
       278  -8.3742    221.3319    239.6660   9.3804957466e+01  -3.9526662149e+00   0.09775221   0.08252004  51.50 0.0007052211    1.730    0.422
       279 -10.0128    150.5935    237.1931   1.0554486372e+02   6.8957819036e+00    0.1953576     0.144665 -24.73  0.001296866    1.894    0.472
       280  -9.6389    167.5131    237.5250   1.0261359162e+02   4.2768185290e+00    0.1158197   0.09040189  36.17 0.0001730837    1.006    0.006
       281 -10.4477    197.9703    232.7926   9.6706311630e+01   2.3767985591e-01    0.2486185    0.2376101 -72.89   0.00191579    1.577    0.366
       282  -9.5588     23.7482    231.7451   1.2726571572e+02   2.4594760271e+01    0.1492879   0.08060521  62.76  0.001045852    1.340    0.254
       283 -10.0078    247.4673    231.1058   8.8334695585e+01  -6.7145857127e+00    0.1480249   0.09466178 -18.39 0.0006755657    1.553    0.356
       284  -9.4915    108.3439    230.1738   1.1235059583e+02   1.4260171549e+01     0.146044    0.1006531 -83.97  0.000613523    1.730    0.422
       285  -9.8211    148.5025     32.7191   5.8060852759e+01   4.4232304608e+01    0.4348067    0.1946148 -18.68  0.001529962    2.707    0.631
       286  -9.8122     15.1177    233.7214   1.2875790701e+02   2.5129410535e+01    0.1764966    0.1182922  89.49   0.00107272    1.341    0.254
       287 -12.2554    106.2001     32.4776   6.7764202055e+01   5.4668032090e+01     0.843134    0.4585281  15.45  0.002888172    3.458    0.711
       288 -12.2695    114.2431     25.0183   6.2492738737e+01   5.3831676309e+01    0.8007689    0.3385778  56.20  0.001810912    2.311    0.567
       289  -9.7935    248.8153     33.5124   4.5039109025e+01   1.8895608839e+01    0.2690713    0.1686298 -32.34  0.001407243    1.390    0.281
       290  -9.4883    216.2399     32.4983   4.8030192000e+01   2.6682215461e+01    0.3296163    0.1950979  -1.91  0.001222782    2.501    0.600
       291  -9.9886    234.3445    222.9274   8.9130418807e+01  -4.0351164199e+00    0.1596868     0.121809   7.13 0.0006089209    1.101    0.092
       292 -10.4291    144.8887     25.5246   5.6087976129e+01   4.6090786567e+01    0.5811139    0.3101531  71.32  0.002359389    2.093    0.522
       293  -9.5521    167.6640    221.3174   1.0042381868e+02   6.4629531625e+00    0.1174276   0.08639845  62.95 0.0007048479    1.699    0.411
       294  -9.4069      9.8564    217.8166   1.2897716847e+02   2.8430191764e+01    0.1503112   0.08326168  66.51 0.0006303341    1.302    0.232
       295 -10.2972    165.4187    212.5068   9.9577131535e+01   8.1115393131e+00    0.2600957    0.1700376  55.83  0.001106641    1.689    0.408
       296  -9.5932    152.9575    207.9486   1.0126890950e+02   1.0876319266e+01    0.1927962    0.1404733  65.50 0.0008495094    1.644    0.392
       297  -9.5983     60.9846    206.9808   1.1905560814e+02   2.4831278910e+01    0.1792912    0.1341779  67.24 0.0004581067    1.047    0.045
       298  -9.6246    238.5257    204.4926   8.5363739285e+01  -2.5862012505e+00    0.2331142    0.1071212 -29.62  0.001223514    2.215    0.548
       299 -10.4457      4.6281    204.5444   1.2932655125e+02   3.1365722489e+01    0.2209237    0.1220576 -82.09  0.001524905    1.557    0.358
       300 -10.5544    189.2828     28.3502   5.0072437804e+01   3.4063035507e+01    0.5324083    0.3250273 -11.18  0.002071268    1.974    0.494
       301 -10.3967     16.5886    202.7807   1.2709834715e+02   3.0585210663e+01    0.3017179    0.1098043 -83.07  0.001603979    2.436    0.590
       302 -10.3947    176.7309     30.0317   5.2363907278e+01   3.7152188145e+01    0.4791635    0.2290315  53.66  0.001919087    2.052    0.513
       303 -10.5604    245.6226    200.8793   8.3574760463e+01  -3.2366684738e+00    0.2068761    0.1330799  23.58 0.0006747417    1.331    0.249
       304  -9.1967     35.8138     31.5719   9.3631508560e+01   6.7085797907e+01    0.1581387     0.118197  42.55  0.000593413    1.746    0.427
       305 -10.3266    230.6608     27.4160   4.5150924323e+01   2.3802187545e+01    0.4639996    0.1960137 -33.83  0.001831834    2.008    0.502
       306  -9.7609    221.5492     29.6389   4.6662262725e+01   2.5728547767e+01    0.2746476    0.2171736 -24.38 0.0009056761    1.270    0.213
       307 -10.2357     98.5986     27.9489   6.7966535629e+01   5.7021471170e+01    0.4840175     0.238027 -42.30  0.001107916    2.200    0.545
       308  -9.3702     41.2010     28.0830   8.9594534147e+01   6.7097463827e+01    0.3548013     0.125653 -34.81  0.001074421    3.043    0.671
       309 -10.0487    250.3884     26.7378   4.3220991764e+01   1.9354761373e+01    0.2588135    0.1608118 -24.55 0.0006336625    1.560    0.359
       310  -8.8391    207.4512    201.4689   9.0139842547e+01   2.7119106747e+00      0.12475    0.1029062  19.06 0.0002112621    1.007    0.007
       311 -10.5118    211.1124     18.9094   4.4736129838e+01   2.9562591855e+01    0.3625083    0.2188838  61.81 0.0004243567    1.680    0.405
       312  -8.5423      1.2994    200.3094   1.2974131188e+02   3.2464414449e+01   0.09063619   0.07143959 -69.33 0.0003724204    1.599    0.375
       313 -10.1046     86.0540     23.9233   6.9972321776e+01   6.0260107044e+01    0.2207565    0.1805913 -16.87  0.001240233    1.133    0.117
       314 -10.3408    234.4873    197.0379   8.4710922897e+01  -1.0760125528e+00    0.4040687     0.248634  12.56  0.001767492    1.666    0.400
       315 -10.4423     81.2034     19.2817   6.9337810912e+01   6.1889161459e+01    0.5781565    0.1971485  48.05  0.002199733    2.869    0.651
       316  -8.7803     83.6303    196.1557   1.1354223082e+02   2.3887706895e+01    0.1529227    0.1072402 -59.99 0.0005738195    1.590    0.371
       317  -9.9408    161.5238     23.4681   5.2475231495e+01   4.1968626637e+01    0.2446933    0.2127994 -53.83 2.110259e-05    1.176    0.150
       318 -10.8340    242.9826     22.1672   4.2694393748e+01   2.1547418577e+01    0.3982886    0.2206724  62.39  0.001581176    1.944    0.485
       319  -9.9684    169.7627    191.4118   9.5440257737e+01   1.0660507708e+01    0.3390686    0.1716074  31.77   0.00103047    2.092    0.522
       320 -11.9495      4.2278    185.6598   1.2854787490e+02   3.5082795682e+01    0.4924401    0.4075385  57.63    0.0028711    1.323    0.244
       321 -10.5694      2.6746    181.3232   1.2863578932e+02   3.6091173538e+01    0.2156257    0.1486051  75.00  0.001101031    1.050    0.048
       322  -9.8447    239.8756    184.6605   8.1533313937e+01  -3.9407346650e-01    0.2059033    0.1474563  -6.75 0.0006039802    1.274    0.215
       323  -9.5121    223.0562     22.3439   4.4516676257e+01   2.6222355029e+01    0.2355633    0.1845466 -40.11 0.0005483181    1.159    0.137
       324  -9.0727    220.9638     19.2560   4.3873738629e+01   2.7083209613e+01    0.1846707    0.1618388 -71.55 0.0001801999    1.079    0.073
       325  -9.9187    213.2268    181.1667   8.5444624270e+01   4.5442362243e+00    0.2288369    0.1274229   9.32 0.0009550938    2.865    0.651
       326 -10.1905     47.1169     19.3039   8.2652657928e+01   6.7816473569e+01    0.3121648    0.2737783   5.34  0.001506442    1.165    0.141
       327  -9.4518    250.1446    179.3005   7.8842302445e+01  -1.3599862959e+00    0.2498722    0.1255998 -16.48  0.001224335    2.142    0.533
       328  -9.4957     27.8597    176.5209   1.2327146118e+02   3.4763118747e+01    0.2616493    0.1422299 -70.48  0.001554602    1.675    0.403
       329 -10.0868     51.9694    173.4030   1.1784714897e+02   3.2759283194e+01    0.3523997    0.1661001 -84.87  0.001692224    2.238    0.553
       330  -9.0069    230.4372    175.4944   8.1344535388e+01   2.3660920093e+00    0.1293832    0.1078641   5.27 9.009161e-05    1.009    0.009
       331  -9.2608     57.3118    174.9507   1.1683732800e+02   3.1771168545e+01    0.1701032    0.1376846  85.55  0.000451711    1.059    0.056
       332  -9.3321      2.7646    175.5785   1.2833039824e+02   3.7261616525e+01    0.1446228    0.0801755  51.54 0.0006909941    1.561    0.359
       333  -9.7617    247.2307    174.0524   7.8283047346e+01  -2.3582773530e-01    0.3687138    0.1377839  28.58  0.001351305    3.833    0.739
       334  -8.8764     92.5037    174.4891   1.0901670344e+02   2.6971184527e+01    0.1313931    0.1139785  71.97  -6.8126e-05    1.001    0.001
       335  -9.6353     39.5073    173.4984   1.2055994166e+02   3.4176058801e+01    0.2097034    0.1323671 -70.18 0.0008098075    1.482    0.325
       336 -10.5001     35.4613    170.6176   1.2118477749e+02   3.5235245699e+01    0.3706798    0.1795802  78.85  0.001876888    2.104    0.525
       337  -9.7327     74.5091     19.5369   7.1750217522e+01   6.3166862198e+01    0.2513314    0.1902529  16.26 0.0008474441    1.325    0.245
       338  -8.9194      6.0666     36.0467   1.0971769744e+02   6.8680290762e+01    0.5320632    0.2675116 -76.75  0.002630594    2.435    0.589
       339  -9.1868    194.4902     18.5562   4.6417778137e+01   3.3845089459e+01    0.2206726      0.19096 -17.61 0.0007809267    1.231    0.187
       340  -9.9460      8.9180    156.2308   1.2589714907e+02   4.0880168085e+01    0.2846161    0.1268102 -70.49  0.001570866    1.868    0.465
       341 -11.4454      9.5838    166.9081   1.2644471521e+02   3.8512771678e+01    0.4359378    0.2764365  88.54  0.001722531    1.214    0.176
       342 -11.2861     13.7015    159.4095   1.2506195332e+02   3.9780736879e+01    0.4461507     0.258621 -69.67  0.001668005    1.546    0.353
       343  -8.8893    197.7818    167.9974   8.5716412235e+01   9.3280339904e+00    0.1731698    0.1081329 -35.09 0.0008631013    1.650    0.394
       344  -9.3323    205.4974     17.3338   4.4857446714e+01   3.1154333143e+01    0.2414132    0.1274878  72.70 0.0009943042    1.904    0.475
       345  -9.9113    188.8847    164.5387   8.6729013190e+01   1.1578308696e+01    0.3017396    0.1911185 -20.29  0.001161063    1.919    0.479
       346 -10.3339     18.8837    164.8031   1.2431783075e+02   3.8142169000e+01    0.2386522    0.1950506  28.29  0.001585207    1.636    0.389
       347  -9.6484    220.0926     12.5122   4.2114636390e+01   2.8033025634e+01    0.3473823    0.1311788  74.18  0.001358086    2.712    0.631
       348 -10.0197    205.0220    162.9787   8.3341384763e+01   8.7627325131e+00    0.2568994    0.1838451  31.18 0.0005879552    1.333    0.250
       349  -9.6842     40.3965    163.1349   1.1941195757e+02   3.6338611326e+01    0.3590313    0.1054053 -73.63  0.001421131    3.159    0.683
       350 -10.2776     28.2023    163.4264   1.2216850038e+02   3.7550797441e+01    0.2449499    0.1476393 -89.01  0.001470446    1.386    0.279
       351  -9.5864     79.3242    160.4565   1.1008804731e+02   3.1973847230e+01    0.2387558    0.1480222  89.16   0.00118249    1.825    0.452
       352  -9.5604    215.3946    158.2809   8.0469347214e+01   7.5419589903e+00     0.259499      0.12479 -29.25 0.0008815908    2.142    0.533
       353  -9.1681    224.1120    156.8473   7.8627310086e+01   6.1374769531e+00    0.1934518    0.1461168   3.82 0.0006645418    1.317    0.241
       354 -10.6669    104.6182    154.4683   1.0317090439e+02   2.9330379624e+01    0.4216438    0.2969423 -73.91   0.00217816    1.509    0.337
       355  -8.7847     60.2619    156.3570   1.1405281486e+02   3.5499350290e+01    0.1231139   0.09201849 -48.43 0.0002862341    1.625    0.384
       356 -11.1358     11.2118    127.0853   1.2303179040e+02   4.7298860019e+01    0.5405511    0.2680954 -72.72 0.0006486211    1.573    0.364
       357 -12.2651     22.7430    149.4349   1.2221466869e+02   4.1195318899e+01    0.6076379    0.3429852 -51.24  0.002287337    2.123    0.529
       358 -10.4587     15.1275    147.8073   1.2386309250e+02   4.2235747477e+01    0.3275941    0.2077104  46.73  0.001446346    1.582    0.368
       359 -11.7179     12.6877    139.6978   1.2377759525e+02   4.4276647100e+01    0.9312502    0.4119056  83.10  0.004568763    2.200    0.546
       360 -11.0742     31.4441    153.0748   1.2050633442e+02   3.9534214604e+01    0.4411894    0.2612414  88.07  0.002529867    1.481    0.325
       361  -9.3321     74.9938    153.5119   1.1013618065e+02   3.4156245814e+01    0.2436349    0.1778228 -72.32 0.0007840685    1.273    0.214
       362  -9.7559     70.9222    151.5079   1.1083893486e+02   3.5184123043e+01    0.2786195     0.159826  57.23  0.001079126    1.778    0.437
       363 -11.8601      3.8399    147.2345   1.2643147359e+02   4.3265693251e+01    0.6792625    0.3623879 -87.76  0.003653674    1.460    0.315
       364 -10.7448      5.6147    141.7919   1.2563580274e+02   4.4350482754e+01     0.307278    0.1756874  81.06 0.0007195623    1.445    0.308
       365 -12.8755      3.9301    137.1590   1.2569515300e+02   4.5520847725e+01    0.3468376    0.2073923 -71.83 0.0004970817    1.385    0.278
