#   1 NUMBER                 Running object number                                     
#   2 MAG_AUTO               Kron-like elliptical aperture magnitude                    [mag]
#   3 X_IMAGE                Object position along x                                    [pixel]
#   4 Y_IMAGE                Object position along y                                    [pixel]
#   5 X_WORLD                Barycenter position along world x axis                     [deg]
#   6 Y_WORLD                Barycenter position along world y axis                     [deg]
#   7 A_WORLD                Profile RMS along major axis (world units)                 [deg]
#   8 B_WORLD                Profile RMS along minor axis (world units)                 [deg]
#   9 THETA_WORLD            Position angle (CCW/world-x)                               [deg]
#  10 FWHM_WORLD             FWHM assuming a gaussian core                              [deg]
#  11 ELONGATION             A_IMAGE/B_IMAGE                                           
#  12 ELLIPTICITY            1 - B_IMAGE/A_IMAGE                                       
         1 -11.9026     37.7664     22.0949   5.4180004816e+01   7.2219778012e+01    0.5582134    0.4825374  27.19  0.001822071    1.144    0.126
         2 -11.5814     20.7158     17.7122   6.4015163640e+01   7.5776643353e+01    0.4462015    0.3696264 -13.14  0.002356519    1.219    0.180
         3 -10.5827     66.2753     16.3366   3.6584323429e+01   6.7045301632e+01     0.277267    0.2531129  17.12  0.001042173    1.176    0.150
         4 -10.9943     49.3485     13.4213   4.1941483950e+01   7.1307245865e+01    0.3343399    0.2766988 -25.98  0.001918926    1.259    0.206
         5 -10.7230     45.3291     11.9565   4.2988429600e+01   7.2376115650e+01    0.2685445    0.2234819  16.97 0.0006862563    1.280    0.219
         6 -10.8570      6.5635     14.8345   7.5856438382e+01   7.7966474081e+01     0.238312    0.1927424  77.68   0.00141298    1.622    0.384
         7 -10.0466    204.1106     13.5006   1.4622570714e+01   3.3323107523e+01    0.2263494    0.1343709 -43.19 0.0004456683    1.312    0.238
         8 -10.4331    116.4850     13.5245   2.3046673812e+01   5.4548957856e+01    0.5082938    0.1616557  68.48  0.001809794    2.806    0.644
         9 -11.1297    120.1078      8.8829   2.0617075497e+01   5.4079502163e+01    0.3304528    0.2267571 -37.00 0.0004010177    1.433    0.302
        10 -11.1946    123.6973      6.5718   1.9225964753e+01   5.3365387540e+01    0.3295641     0.219301 -82.46  0.001070832    1.436    0.303
        11 -10.5382     35.0161     13.2673   5.0044760318e+01   7.4239934987e+01    0.2684472    0.2496785   9.04 0.0007301059    1.024    0.023
        12  -9.8058     32.3047     10.3403   4.9707310803e+01   7.5210370902e+01    0.2032098    0.1749913   9.48 0.0006423601    1.168    0.144
        13  -9.6939    162.1869     11.6130   1.7059859290e+01   4.3090573898e+01    0.2362408    0.1540463 -46.96 0.0006770794    1.319    0.242
        14 -10.4861    104.2738     10.4890   2.3757324274e+01   5.8075111214e+01    0.3826996    0.2880037 -57.25  0.002043518    1.313    0.239
        15 -10.7606     98.2110      7.6648   2.3537234532e+01   5.9949126720e+01    0.4715182    0.2657255 -65.35  0.002089313    2.028    0.507
        16 -10.9901     69.9156      8.6074   3.0782977667e+01   6.7098413290e+01    0.5246723    0.3683688 -61.53  0.002566935    1.655    0.396
        17 -10.3846     77.7601      7.9794   2.8191689817e+01   6.5201333040e+01    0.4342147    0.2450999  32.54  0.001890873    2.272    0.560
        18 -10.4272     74.6073      6.7900   2.8357582738e+01   6.6120496196e+01    0.3858489    0.1933057 -21.37  0.001492321    2.225    0.551
        19 -11.0159     27.5630     11.4954   5.4054690075e+01   7.5866030466e+01    0.2383719    0.2142377 -19.69  0.001211195    1.086    0.079
        20 -11.6468     56.1670      9.0173   3.5917498689e+01   7.0352130355e+01    0.4255716    0.3491708  45.10  0.001384546    1.159    0.137
        21 -11.0729     22.8870      5.0404   5.2618627129e+01   7.7712264633e+01    0.2106013    0.1935559  11.80            0    1.027    0.026
        22 -10.8809      3.4424      8.2808   7.5461020181e+01   7.9622864259e+01    0.2681609    0.2206663 -49.90 0.0007474052    1.171    0.146
        23  -9.8776    213.1199      8.3912   1.2864623232e+01   3.1987130564e+01    0.1634564    0.1313926  82.39 0.0008411692    1.406    0.289
        24 -11.2037    174.0961      3.3694   1.3678695664e+01   4.1067121520e+01    0.3954666    0.1571232 -53.78  0.001762757    2.124    0.529
        25 -11.5812    178.3058      2.8279   1.3264507405e+01   4.0137153685e+01    0.3414979    0.2639343  -1.12  0.002017053    1.759    0.431
        26  -9.0977    115.3481      8.7157   2.1215015206e+01   5.5344673657e+01    0.1508359    0.0930665 -65.20 0.0007018418    1.651    0.394
        27 -11.7337     86.0875      7.1552   2.5732396567e+01   6.3154284249e+01    0.3846056    0.2632117  53.46 0.0007107481    1.409    0.290
        28  -8.8172     40.3260      8.3223   4.3097047277e+01   7.3931025008e+01     0.139166   0.09793301  19.53 0.0003504986    1.686    0.407
        29  -9.6636     34.8001      6.6639   4.5158182907e+01   7.5279501096e+01    0.2304702    0.1723832  57.36  0.001147436    1.432    0.302
        30  -9.2649    236.0032      6.5221   1.1434702506e+01   2.7729426513e+01    0.1516732    0.1027106  89.48  0.001025531    1.592    0.372
        31 -11.4618    188.9415      5.3402   1.3349681605e+01   3.7468974724e+01    0.2757965    0.1671534  58.67  0.001338841    1.997    0.499
        32 -10.1691    203.6098      4.5612   1.2374016857e+01   3.4351514978e+01    0.2231005    0.1921669  51.94 0.0009996728    1.573    0.364
        33 -10.3041     16.3969      4.8091   5.8375876040e+01   7.8777672314e+01    0.1792812    0.1105894 -32.15 0.0009118619    1.669    0.401
        34  -9.3330    134.6682      4.2813   1.7124630475e+01   5.0733100491e+01    0.2007821    0.1329516 -31.00 0.0003616499    1.513    0.339
        35  -9.8568    131.4697      3.4878   1.7155791843e+01   5.1631673570e+01    0.2599549    0.2012632 -64.34 0.0005711375    1.157    0.136
        36 -11.3606    114.3693      1.9010   1.8473409824e+01   5.6234138024e+01    0.4591864    0.2169281  77.84  0.001342863    1.959    0.490
        37 -10.7426     38.1957      2.3418   3.9579588528e+01   7.5150072485e+01    0.3434357    0.2325591  54.25  0.001177357    1.415    0.293
        38 -10.1393    231.6926      1.7744   1.0536760189e+01   2.9005458504e+01    0.3319592    0.1421482  88.33  0.001790972    2.495    0.599
        39  -9.6376    242.8410      5.2033   1.0892921508e+01   2.6616298023e+01    0.1372345    0.1175209 -37.54 0.0004713293    1.305    0.234
        40  -9.2142    143.4796      1.5122   1.5314989990e+01   4.8733363686e+01     0.134869    0.1173089 -73.46 0.0001093854    1.037    0.036
        41 -10.4321      5.1556    157.0357   9.9326959281e+01   4.0363990875e+01    0.2929893    0.1874739  54.40  0.001559923    1.333    0.250
        42 -11.3360     65.4729    249.3789   8.9190519629e+01   1.4451440013e+01    0.4990128    0.2319364  31.25  0.002813885    1.599    0.375
        43 -14.4209     25.4434    162.4822   9.3398862429e+01   3.7276470323e+01     4.055979     1.509796  68.35   0.01170945    3.168    0.684
        44  -9.4414     30.6267    150.1917   9.0778339263e+01   3.9985455262e+01    0.2018859    0.1183036 -64.56 0.0007603663    1.701    0.412
        45 -15.3400     51.3802    231.7094   9.1178655164e+01   1.9091411202e+01     3.419143     1.777947 -74.73   0.01910122    2.263    0.558
        46 -10.3105     79.6196    149.1727   7.5134939764e+01   3.4027754517e+01    0.2156952    0.1300138 -51.72 0.0001681719    1.733    0.423
        47 -12.4569     60.5434    175.4647   8.4238180462e+01   3.0158908255e+01    0.6360027    0.3995682  59.33  0.003121881    1.600    0.375
        48 -10.1110    244.3179    147.6841   4.0375912656e+01   8.2855164713e+00     0.105172    0.0789034 -49.15 0.0007038829    1.653    0.395
        49 -14.0080      2.5371    236.9374   1.0226300803e+02   2.2619372995e+01    0.6136106    0.2863193 -79.74  0.003525517    2.397    0.583
        50 -10.9168      2.9271    139.5134   9.9273006903e+01   4.5128432199e+01    0.4017211    0.2714264 -13.07 4.556624e-05    1.951    0.487
        51  -9.8443    104.7774    138.3016   6.5809009485e+01   3.2583088024e+01    0.2551145    0.2025218 -71.68 0.0006593592    1.359    0.264
        52 -10.4111    107.8336    132.4711   6.3748863263e+01   3.3427272316e+01    0.3903753    0.2780631 -45.59  0.001844065    1.437    0.304
        53  -9.3713     10.9413    132.7073   9.6098756106e+01   4.6424742823e+01       0.1985    0.1677054  60.03 0.0005522258    1.078    0.072
        54  -9.1017    136.9723    131.9831   5.6097785877e+01   2.8147727939e+01    0.1715021    0.1657776 -37.73  0.000374077    1.004    0.004
        55  -9.8419     81.0986    131.9152   7.1637714667e+01   3.8187655304e+01    0.2278281    0.2225285 -86.48 0.0006397216    1.057    0.054
        56 -10.6477     58.4537    129.0945   7.8677178379e+01   4.2369552273e+01    0.2599316    0.1831626 -61.57 0.0003763324    1.396    0.284
        57  -9.0298     46.4783    130.5556   8.3115354968e+01   4.3542263131e+01    0.1533445    0.1342064  68.99 0.0004965047    1.063    0.059
        58  -9.3495      1.2576    129.1796   9.9363712521e+01   4.8025115582e+01     0.185224    0.1050287  85.35 0.0002431977    1.571    0.363
        59  -9.1651     41.3331    128.6161   8.4689665819e+01   4.4690247580e+01    0.1710352   0.09780297  62.68 0.0007008492    1.879    0.468
        60 -11.2494     63.5094    155.2221   8.0924675186e+01   3.4795072057e+01    0.3447064    0.2361557  35.51 0.0005015188    1.378    0.275
        61  -9.6213     50.3498    123.8503   8.0703869060e+01   4.4892131479e+01    0.2285704    0.1256474 -58.56 0.0009520821    1.761    0.432
        62 -10.3171      6.4628    121.6689   9.7007741021e+01   4.9770495961e+01    0.4162034     0.188237  54.67  0.001120694    2.091    0.522
        63  -8.7950     63.4312    121.7036   7.5625184537e+01   4.3647647841e+01    0.1736585    0.1051185  61.46 0.0001201651    1.908    0.476
        64  -9.7390    103.0266    119.9859   6.2365978739e+01   3.7312070584e+01    0.2242869    0.2187181  55.47            0    1.051    0.049
        65  -9.2199     69.6141    118.8089   7.2884943713e+01   4.3472053878e+01    0.2089711    0.1447812 -77.13 0.0004524121    1.531    0.347
        66  -9.9125     91.7218    116.2678   6.4954929343e+01   4.0334178847e+01    0.2537977    0.2116617 -54.19  0.000444333    1.192    0.161
        67 -13.8818     10.0992    178.9142   9.8781662635e+01   3.4513239223e+01     2.177817     1.058869  33.65  0.005785016    1.737    0.424
        68  -9.6337     21.5923    115.2645   9.0533799725e+01   5.0427284164e+01    0.2775026    0.1675693 -65.27  0.001282649    1.549    0.354
        69  -9.7060    153.1119    113.8446   4.8231616118e+01   2.8769210318e+01    0.2152615    0.1909838 -73.09 0.0004810509    1.227    0.185
        70 -10.8946    246.7638    112.5718   3.3360784635e+01   1.2732783612e+01    0.1306214    0.1137487  88.38 0.0004288183    1.643    0.391
        71 -10.4331     97.0509    110.3821   6.1876600646e+01   4.0794404527e+01    0.4556621    0.2358815 -46.01  0.001508636    1.987    0.497
        72 -10.4617      2.1654    111.5858   9.8035536894e+01   5.2822307586e+01    0.2553408    0.1988436 -81.69 0.0003059174    1.155    0.135
        73  -9.9186     79.8391    110.3323   6.7488497364e+01   4.3988652567e+01    0.2456109     0.203446 -70.75 0.0004396229    1.195    0.163
        74  -9.8873     17.9269    108.5668   9.1280615067e+01   5.2616888134e+01    0.2314328    0.1865105 -61.98 0.0008062581    1.225    0.184
        75  -9.5485    102.2903    105.7286   5.9094183920e+01   4.0896060280e+01    0.2694438    0.1835324  47.65 0.0006654814    1.490    0.329
        76 -10.2123      1.9359    104.6168   9.7666952780e+01   5.4775273299e+01    0.2763216    0.1681825 -63.31  0.001249984    1.547    0.354
        77  -9.9783    108.0303    101.8075   5.6356935253e+01   4.0656363204e+01    0.3769969    0.2165533 -43.32 0.0008997101    1.784    0.440
        78  -9.6351     66.3204    103.0365   7.0646599029e+01   4.8209653075e+01    0.2532086    0.2155107 -15.04 0.0007913059    1.459    0.314
        79 -11.1483     50.3286     98.8116   7.6025493662e+01   5.1791652431e+01    0.7442281    0.1324781 -52.35  0.001837662    4.942    0.798
        80  -9.6019     86.8006     98.7951   6.2222439150e+01   4.5640892810e+01    0.5009041     0.228324 -35.01  0.001432509    4.036    0.752
        81  -9.0728    159.2801     97.9912   4.2987206198e+01   3.0585271310e+01    0.1816485    0.1202599 -41.96  0.000430441    1.384    0.278
        82 -10.1080    102.9337     97.0874   5.6580160677e+01   4.2817294463e+01    0.3471702    0.2984236  36.62  0.001057904    1.257    0.205
        83 -10.2335     63.7881     95.9552   6.9910283552e+01   5.0506745846e+01    0.4052513    0.3177859 -81.88  0.001936369    1.335    0.251
        84 -12.0799     40.8211     95.4942   7.9377097014e+01   5.3965978299e+01    0.6055772    0.3193651  15.68  0.002348521    2.426    0.588
        85 -11.1456     37.5087     91.4891   8.0032352358e+01   5.5478811186e+01    0.4286797    0.1421399 -67.99  0.001393708    2.867    0.651
        86 -10.9122      3.9136     96.5835   9.6182344190e+01   5.6916443170e+01    0.3241138    0.2264721 -51.38 0.0003829799    1.457    0.313
        87  -9.9577      8.3956     96.1553   9.4109087136e+01   5.6782060168e+01    0.2534577    0.1940264  42.83 0.0003644757    1.326    0.246
        88  -9.6313    142.9149     96.0019   4.5866650938e+01   3.4462890870e+01    0.2302406    0.2138432 -59.39 0.0009263257    1.016    0.016
        89  -9.4941     20.2176     95.2029   8.8586411866e+01   5.6195383209e+01    0.2070776    0.1549979  70.64 0.0007140958    1.324    0.245
        90 -11.6089    132.3080     92.7645   4.7416669855e+01   3.7440911784e+01     0.303805    0.2890336 -69.98 0.0004385053    1.019    0.018
        91  -9.9192     50.4525     91.4750   7.4306219551e+01   5.3772983610e+01    0.1542868    0.1434693 -89.73 2.918012e-05    1.026    0.025
        92  -9.0844    125.8870     88.8228   4.7865088046e+01   3.9687622870e+01    0.2076993    0.1743495 -84.05 0.0003613868    1.295    0.228
        93  -9.4487    108.5378     88.9555   5.2585110830e+01   4.3494196052e+01    0.2379067    0.1504881 -47.76 0.0005171533    1.538    0.350
        94  -9.4628     78.2705     88.0687   6.2247968721e+01   4.9956248512e+01    0.2175151    0.2033597  84.61 0.0006055261    1.046    0.044
        95 -11.1768     29.3864     86.3889   8.2795803538e+01   5.7801293221e+01     0.381069    0.2463509 -48.96  0.001767846    1.555    0.357
        96  -9.1316     88.4999     86.0017   5.8009347846e+01   4.8431910237e+01    0.2324786    0.1522957 -52.66 0.0003913789    1.492    0.330
        97  -9.3754     12.5245     85.1603   9.0848096711e+01   5.9596224316e+01    0.2141932     0.130349 -77.99 0.0006325966    1.493    0.330
        98 -12.0761     54.7110     79.0705   6.9179333925e+01   5.6419811868e+01    0.3697055     0.293676 -72.60 0.0003360447    1.267    0.211
        99  -9.0070    111.6662     81.6992   4.9494519357e+01   4.4398325656e+01    0.1534888    0.1271979   4.95  0.000703438    1.655    0.396
       100 -12.4481     41.8921     74.0298   7.3763434415e+01   5.9650951998e+01    0.9560925    0.4041773 -63.35  0.003529801    2.289    0.563
       101  -9.1806    216.1545     78.1326   2.9437396646e+01   2.2585108752e+01    0.1674318    0.1225992 -52.27 0.0002854669    1.234    0.190
       102  -9.7632     78.0270     77.9729   5.9259767205e+01   5.2475331958e+01    0.2314278    0.2192612 -81.84            0    1.015    0.015
       103  -9.5647    144.4662     76.9343   4.0137088532e+01   3.7815333870e+01    0.2281832    0.1409318 -39.10  0.001012132    1.546    0.353
       104  -9.5487    153.1957     75.9170   3.8120929040e+01   3.6000375090e+01    0.2673216    0.2098299 -17.49  0.001102616    1.569    0.363
       105  -9.9524      2.4087     75.1562   9.4824145464e+01   6.2943119523e+01    0.3614835    0.1588289 -48.03  0.001500548    2.218    0.549
       106  -9.6215     91.4279     74.2226   5.3272950041e+01   5.0545477112e+01    0.2266783    0.1452488 -59.69 0.0009459674    1.675    0.403
       107  -9.3750     76.4024     71.2754   5.7657613849e+01   5.4388416617e+01    0.2737985    0.1888877  32.07  0.001059923    1.670    0.401
       108  -9.9907      7.8834     68.1173   9.0821171051e+01   6.4590671586e+01    0.2699794    0.1753459 -77.28 0.0007142486    1.403    0.287
       109  -9.5425     83.4262     68.0905   5.3935564142e+01   5.3649352456e+01    0.2299363    0.1993239  54.77 0.0002972376    1.159    0.137
       110  -8.9476      5.9468     80.0602   9.3527983919e+01   6.1414968271e+01    0.1660206    0.1475389 -83.72 0.0003636195    1.012    0.012
       111  -9.9449    151.5637     66.2368   3.5573593126e+01   3.8079066182e+01    0.2833593    0.2085552 -69.76 0.0007433531    1.450    0.310
       112 -10.2979    192.0646     65.7506   2.9292967799e+01   2.9136087697e+01    0.2140456     0.164538 -41.88 0.0003267048    1.111    0.100
       113  -9.7531    126.3804     64.7772   4.0276847419e+01   4.4353795253e+01    0.2512898    0.2043079 -63.23 0.0004779883    1.208    0.172
       114 -10.2593     67.0683     64.5496   5.9043655535e+01   5.7813149338e+01    0.3553031     0.203068 -48.51 0.0009386872    1.721    0.419
       115 -10.1975      4.4664     64.1623   9.2213342389e+01   6.5845252302e+01    0.2787334    0.1800652 -51.98 0.0007296571    1.440    0.305
       116 -10.9577      3.4040     59.3264   9.2112687996e+01   6.7195610023e+01    0.3295171    0.3053201 -57.89  0.001183982    1.053    0.050
       117  -9.1381     75.4712     64.5411   5.5633284236e+01   5.6124961601e+01    0.1547381     0.146281 -86.86 0.0001928539    1.041    0.039
       118 -10.6296     98.8125     60.9590   4.6248640867e+01   5.1692775507e+01    0.4338232     0.281482 -67.01  0.001671063    1.935    0.483
       119  -9.5865     85.9108     61.5945   5.0687628034e+01   5.4519590336e+01    0.3847571    0.2077238 -26.54  0.001274404    3.233    0.691
       120 -10.1407     43.6626     62.3559   6.9291019832e+01   6.2400972944e+01    0.3079389    0.2262285  68.75   0.00145173    1.660    0.398
       121 -10.5480    116.4107     61.1540   4.1450119164e+01   4.7443488284e+01    0.4977346    0.2403536  55.97  0.001926384    2.096    0.523
       122 -10.1691     35.2064     60.9404   7.3380320543e+01   6.3943757378e+01    0.2594858    0.2107899  10.91 0.0004250306    1.379    0.275
       123  -9.8713     13.4405     61.3060   8.6263631621e+01   6.6067024939e+01    0.3251238    0.1290056  16.74  0.001255391    2.733    0.634
       124 -10.5427    232.8710     60.0391   2.3637000944e+01   2.2069605650e+01    0.3124079    0.1762188  47.73  0.001717907    2.491    0.599
       125  -9.8975     57.6713     59.8542   6.1478079040e+01   6.0680100339e+01    0.2584527     0.201967  28.76 0.0006522682    1.401    0.286
       126 -10.3027     22.2916     58.2016   8.0098430196e+01   6.6130003437e+01    0.3045889    0.2095011 -41.21 0.0008889489    1.468    0.319
       127  -8.9667    169.4234     56.4469   2.9797164785e+01   3.5515669995e+01    0.1406031    0.1249844 -52.90 0.0001486942    1.048    0.046
       128 -10.8109     96.6678     55.3775   4.4805700621e+01   5.3297871856e+01    0.2803586     0.250048 -65.32 0.0003635609    1.099    0.090
       129 -10.0977     78.0544     55.6289   5.1232013120e+01   5.7510852804e+01    0.2690818    0.2471653 -66.79 0.0004774678    1.079    0.073
       130 -10.9964     63.3039     51.9562   5.5777372353e+01   6.1386275685e+01    0.3137846     0.212205 -56.69  0.001030153    1.547    0.354
       131  -8.9188    132.9833     55.2534   3.5661551236e+01   4.4434847145e+01    0.1830749    0.1270401  64.89  0.000327495    1.468    0.319
       132 -10.1955     82.9882     53.9678   4.8759314543e+01   5.6753976291e+01     0.222927    0.2140303 -79.98            0    1.008    0.008
       133  -9.9298    111.7073     51.5211   3.9163965736e+01   5.0353094457e+01    0.2619434    0.2274812   5.59  0.000656578    1.482    0.325
       134 -10.5449     23.1382     51.2265   7.7495371482e+01   6.7834195750e+01    0.4202991    0.2403728 -42.06  0.001503384    1.778    0.438
       135  -9.4208      2.3611     52.0869   9.1570842169e+01   6.9161398024e+01    0.1952641    0.1161442  86.51 0.0009282627    1.755    0.430
       136  -9.0607     29.6637     56.6761   7.5207360097e+01   6.5721321818e+01    0.1541137    0.1033405 -30.80 0.0004237804    1.715    0.417
       137  -9.5944     94.0781     48.3822   4.2833244010e+01   5.5234388955e+01    0.2363114    0.2002372 -33.62  0.001204272    1.260    0.206
       138  -9.1611     87.3375     49.2420   4.5335594761e+01   5.6677216837e+01    0.1472224    0.1174242  26.52 0.0001874933    1.552    0.356
       139  -9.9943     34.7081     47.7288   6.8990597783e+01   6.7271876994e+01    0.3011224    0.2193744 -23.09  0.001132115    1.630    0.387
       140 -10.8549     38.9181     43.4144   6.4663312700e+01   6.7649629119e+01     0.415121    0.2728687  32.90  0.001657962    1.566    0.361
       141 -10.1147     44.9752     42.3595   6.0699414729e+01   6.6889484683e+01    0.2730592    0.2436346   4.59 0.0009343961    1.216    0.178
       142 -10.3847     12.7152     48.4249   8.3628772058e+01   6.9492571321e+01    0.2568401    0.1267444  23.64  0.001140167    2.088    0.521
       143  -9.3880     83.5382     46.4668   4.5458583110e+01   5.8089330088e+01    0.2733823    0.1444165  64.95  0.001024005    2.361    0.577
       144 -10.4121      6.8704     45.8317   8.7097725135e+01   7.0553005675e+01    0.2824189    0.1993736 -38.20 0.0003634403    1.381    0.276
       145 -10.0964     20.9236     44.6823   7.6776050556e+01   6.9697110572e+01    0.2423538    0.1950927 -24.50 0.0003394157    1.299    0.230
       146  -9.2701     24.3072     43.6958   7.4101393474e+01   6.9568463160e+01    0.1905319    0.1683126 -65.05 0.0005339666    1.125    0.111
       147  -9.5942     32.5079     43.5557   6.8660639503e+01   6.8561963383e+01    0.2567214    0.1751848  41.61 0.0009152782    1.538    0.350
       148  -9.6476     29.4023     42.3069   7.0145564685e+01   6.9273055875e+01    0.2970483    0.1346755 -58.38  0.001013256    2.143    0.533
       149 -10.2397    119.1636     41.7868   3.3766140386e+01   5.0102174119e+01    0.3096865    0.2141187 -39.63  0.001480402    1.415    0.293
       150  -9.1875    143.3384     41.8231   2.9245445751e+01   4.3987526275e+01    0.1974802    0.1347778 -24.92 0.0007367376    1.647    0.393
       151  -9.4011     71.4942     42.0708   4.7974358635e+01   6.1662682824e+01      0.23005    0.1462902 -38.64  0.001032701    1.622    0.383
       152  -8.9248    133.9875     39.9779   3.0204196756e+01   4.6611087028e+01    0.1753958    0.1581565 -72.60 0.0003397042    1.007    0.007
       153  -9.2015    190.1289     39.1775   2.2476556748e+01   3.3300504157e+01    0.1878398    0.1257683 -54.63 0.0003873454    1.280    0.219
       154  -9.9254    112.9711     38.6702   3.3930805927e+01   5.2163793955e+01     0.211366    0.1843522  81.42 0.0005233123    1.103    0.093
       155  -9.4323     96.1605     37.8793   3.7828440543e+01   5.6537104248e+01    0.1931064    0.1747366  24.47  0.000379808    1.288    0.224
       156  -8.9887     84.6695     38.6802   4.1659178963e+01   5.9220175343e+01    0.1511967     0.117111  21.04 0.0007048384    1.691    0.409
       157  -8.8802    151.7240     40.3006   2.7447628389e+01   4.2128879544e+01    0.1491653   0.09611088 -61.53 0.0002844161    1.538    0.350
       158  -9.5006     13.1005     36.9155   7.9750173215e+01   7.2334752148e+01    0.2526105    0.1528808 -72.94  0.001226362    1.725    0.420
       159  -9.6763     81.9764     35.5240   4.1102504670e+01   6.0400378807e+01    0.2180761       0.1993 -41.39 0.0004302719    1.125    0.111
       160 -10.0722     83.6927     31.3582   3.8580771901e+01   6.0657566023e+01    0.5055643    0.2094322  48.33  0.001874984    2.447    0.591
       161 -10.5989     40.4729     35.9171   6.0221042667e+01   6.9034354713e+01    0.3478398    0.2435168  38.26 0.0009566369    1.441    0.306
       162  -8.9212     26.3368     36.7097   6.9821764955e+01   7.0967219095e+01    0.1378851    0.1058235  64.10 0.0004064315    1.638    0.390
       163  -9.5867     58.3937     34.8243   5.0117034434e+01   6.5850485177e+01    0.2864728    0.1806713  32.31  0.001277638    1.867    0.464
       164 -10.9742     50.1297     32.9991   5.3273913437e+01   6.7863234747e+01    0.5348455    0.3813368  37.32  0.002700919    1.428    0.300
       165  -9.3043    174.0911     34.4974   2.2828982325e+01   3.7545068727e+01    0.1882295    0.1294703  78.97 0.0007326222    1.497    0.332
       166 -10.6047     92.5760     33.7543   3.7027163298e+01   5.8086957794e+01    0.2530257    0.2378765  79.51 0.0002580509    1.020    0.020
       167 -10.4599    154.1869     31.8461   2.4377308796e+01   4.2676537934e+01    0.2417454    0.2357576  -9.99 0.0003603184    1.251    0.201
       168  -9.8269    153.4403     27.5629   2.3081048851e+01   4.3410786256e+01    0.2083564    0.1743978 -37.17 8.959562e-05    1.208    0.173
       169  -9.0758    139.4137     33.4959   2.7028912456e+01   4.6156902335e+01    0.1420626    0.1313783 -68.27  0.000173282    1.063    0.059
       170 -10.6906     17.5584     31.2896   7.3970551060e+01   7.3239779597e+01    0.2352924    0.2181303 -28.78 0.0004536672    1.016    0.016
       171 -11.0346      3.9847     31.3678   8.5374640094e+01   7.4334942015e+01    0.3137342    0.2204849  23.14 0.0009160396    1.511    0.338
       172  -9.3622    180.7448     29.9544   2.0839325047e+01   3.6583367139e+01    0.1867847    0.1474719 -47.52 0.0003578103    1.091    0.083
       173  -9.7908    175.2293     28.4964   2.0958596459e+01   3.8039596102e+01    0.2483501    0.1665352 -37.26 0.0008230757    1.341    0.254
       174  -9.0651     59.4452     29.4826   4.6828555124e+01   6.6588216387e+01    0.1400584    0.1371831  31.92 0.0008077978    1.018    0.017
       175  -8.9172    103.9876     27.9825   3.1569804806e+01   5.6035070428e+01    0.1743132    0.1609827 -89.09 0.0004086687    1.009    0.009
       176  -9.1187     89.5234     28.0794   3.5287195321e+01   5.9706806235e+01    0.2206366    0.1435695 -33.88 0.0009426582    1.586    0.370
       177 -10.5653     86.0888     21.8066   3.3221618623e+01   6.1446928933e+01     0.519227    0.2458985 -57.55  0.001858534    3.045    0.672
       178  -9.8392    120.2616     25.7692   2.7361302869e+01   5.2110770119e+01    0.2825787    0.1885251  33.31  0.001285878    2.033    0.508
       179 -10.7850    160.6756     27.2297   2.2119468216e+01   4.1672125473e+01    0.2641177    0.2069234 -52.63 0.0004779767    1.112    0.101
       180 -10.2585     49.6621     25.1630   4.9163968737e+01   6.9388630648e+01    0.4147244    0.3502108  55.17  0.002325756    1.216    0.178
       181 -10.2967    105.6372    248.8234   8.0706674181e+01   1.0211713262e+01    0.1345789    0.1080897  88.68 0.0009451612    1.754    0.430
       182 -11.1953     28.1986     21.3171   6.0308522521e+01   7.3975596382e+01    0.5506701    0.3136902  17.34   0.00234625    2.464    0.594
       183  -9.0337    202.7058     25.7196   1.7844529436e+01   3.2251988294e+01    0.1084514   0.09836665  23.03 0.0003199007    1.533    0.348
       184 -10.1846    110.8195     24.4433   2.8604349898e+01   5.4738418294e+01    0.3284599    0.2173259 -87.81   0.00153601    1.642    0.391
       185  -8.7263    239.2681     24.3338   1.5224884388e+01   2.5246369174e+01    0.1012765   0.08500738  -9.75 0.0003566809    1.588    0.370
       186  -9.7379    195.8649     23.1854   1.7692124711e+01   3.4015281826e+01    0.2549143    0.1744142 -20.10   0.00142514    1.670    0.401
       187  -9.8517    170.2273     23.9587   2.0109322965e+01   3.9768853558e+01    0.1882935    0.1573595 -52.28 0.0003620209    1.064    0.060
       188 -10.4272    130.8823     23.6642   2.4805056741e+01   4.9622064873e+01    0.4699727    0.2502818  66.66 0.0009026942    1.797    0.444
       189 -12.4027     96.5507     22.0150   3.0636047488e+01   5.8750460581e+01    0.3984129    0.2913128 -89.47 0.0006113806    1.448    0.309
       190  -9.9558    245.9025     23.0980   1.4615137136e+01   2.4203411755e+01    0.1765248    0.1255087 -46.25 0.0005169177    1.013    0.013
       191 -10.9076    139.0037     21.9762   2.3033034498e+01   4.7737981488e+01     0.351539    0.1860518  71.27 0.0005260063    1.824    0.452
       192  -9.7892     72.8153     22.2335   3.7564768191e+01   6.4665643602e+01    0.2063241    0.1875992  88.64 0.0004764918    1.127    0.113
       193 -14.7919     20.4281    214.4936   9.7544991958e+01   2.5571569914e+01     1.762985     1.023048 -46.34  0.002795149    2.472    0.595
       194  -9.4712     66.5105     20.5823   3.8941168849e+01   6.6402154054e+01    0.2290005    0.1684333  85.08  5.03355e-05    1.662    0.398
       195  -8.9735    180.3599    243.6792   6.5752162360e+01   2.8030221866e+00   0.09750126   0.07670917  40.62 0.0007043418    1.770    0.435
       196  -9.1813    159.0436     20.5128   2.0172131822e+01   4.2877783232e+01     0.192896    0.1271698  81.22 0.0003053659    1.486    0.327
       197 -10.1303     48.6041     19.2121   4.6097714572e+01   7.0595608524e+01    0.2703759      0.22987 -86.79  0.001052347    1.461    0.315
       198 -11.0342     76.5329    242.3979   8.6325928282e+01   1.4469490103e+01    0.3046382    0.2360592 -41.22  0.002088487    1.651    0.394
       199 -11.2846     81.8420    238.3372   8.4851043834e+01   1.4588969927e+01    0.3604088    0.2594271  14.75  0.001390857    1.383    0.277
       200 -11.5899     12.3478     17.3442   7.1423511607e+01   7.6872102502e+01    0.5936527    0.2888785   3.93  0.002331571    3.281    0.695
       201  -8.9175    208.3167     19.2847   1.5828239152e+01   3.1810787130e+01    0.1069615   0.09574308  29.92 0.0004129733    1.585    0.369
       202  -9.3239    109.5934     19.1915   2.6617369417e+01   5.5711345661e+01    0.1930835    0.1415793 -10.31 0.0009527201    1.694    0.410
       203  -8.9775    147.6292     18.2700   2.0677708500e+01   4.5977645231e+01    0.1514176    0.0888756 -65.14 0.0006996511    1.671    0.402
       204  -9.5436     70.7542     18.3680   3.6156182397e+01   6.5699364240e+01    0.1978104    0.1226859  52.35 0.0008913067    1.526    0.345
       205 -10.0806     85.1487     15.7616   3.0426801450e+01   6.2451414074e+01    0.3802947    0.1795112  67.88  0.001562715    2.067    0.516
       206 -10.4897    183.2421     15.0057   1.6398088658e+01   3.7752132395e+01    0.2168021    0.1691782 -83.78 0.0005029141    1.221    0.181
       207 -10.6399     79.8552    232.4909   8.4807407214e+01   1.5847665058e+01    0.2763589    0.1839623 -73.05  0.001703597    1.869    0.465
       208 -10.0826    189.4373    241.5585   6.3905091874e+01   2.1358324805e+00    0.1824011    0.1350666   7.42 0.0001874764    1.036    0.035
       209 -13.8929      9.0659    238.2760   1.0088188554e+02   2.1828712964e+01    0.6661676    0.3859459 -80.89  0.004229664    1.956    0.489
       210  -9.8206    154.1319    238.2571   6.9893687893e+01   6.3576753147e+00    0.1795454    0.1496009  73.23  0.001230216    2.110    0.526
       211 -13.4807     94.0488    227.8879   8.1224027212e+01   1.5034463193e+01    0.7515689    0.6434097   5.50  0.005169893    1.232    0.188
       212  -9.9505    110.4998    228.0923   7.7627534776e+01   1.3041029384e+01    0.1556688    0.1213894 -56.68  0.000798822    1.559    0.359
       213 -14.6372     30.8885    221.6938   9.5372770885e+01   2.3110613043e+01      2.05727     1.295995 -30.73   0.01106903    2.552    0.608
       214  -9.3830    238.6598    220.6913   5.3199759382e+01  -2.3264161424e-01    0.1071218   0.05916212  -5.33 0.0007043793    1.688    0.407
       215 -12.1630     82.0097    218.0649   8.3033899951e+01   1.8286865305e+01    0.3234131    0.3034846  70.81  0.001875011    1.189    0.159
       216 -11.2599     78.7826    213.6514   8.3378470864e+01   1.9534949720e+01    0.3225527    0.2090731  61.64  0.001116519    1.705    0.414
       217 -11.6055     90.3104    214.8774   8.0778409841e+01   1.7895694491e+01    0.2662012    0.2035556  -9.25 0.0009026502    1.603    0.376
       218  -9.3371    165.7767    212.9068   6.4304108638e+01   8.7284792180e+00     0.142825   0.09017412 -37.58  0.000859339    1.625    0.384
       219 -12.4647     93.5621    208.0090   7.9277878679e+01   1.8825223660e+01    0.4484378    0.3110748  85.65  0.002465082    1.945    0.486
       220 -10.8170    110.9429    209.1474   7.5360383742e+01   1.6374784374e+01    0.1938894    0.1851174 -52.20 0.0005374131    1.217    0.178
       221  -9.2051    128.0284     13.9884   2.1559349579e+01   5.1481774043e+01    0.1731575    0.1441582  89.19 0.0003709217    1.104    0.094
       222 -10.2451    192.1356     11.4958   1.4825870246e+01   3.6127504461e+01    0.1767198     0.115535  86.23 0.0006586857    1.531    0.347
       223  -9.3679     78.7728     11.5914   2.9920703193e+01   6.4553331333e+01    0.1925696    0.1294554  79.54  0.000936838    1.549    0.354
       224 -10.7345     73.3857    209.3897   8.4278256680e+01   2.1038465331e+01    0.3982734   0.09596988  35.72  0.001478057    2.925    0.658
       225 -10.7586    124.0558    206.2958   7.2041425559e+01   1.5184308389e+01     0.195362    0.1627738 -24.31  0.001240073    1.287    0.223
       226 -14.8863      6.5388    223.6904   1.0109108987e+02   2.4879315315e+01    0.9800153     0.649839  83.26  0.005253745    1.503    0.335
       227 -12.6685     96.8013    202.7174   7.7899688713e+01   1.9458262508e+01    0.4074682    0.3275588  58.70  0.002153365    1.325    0.245
       228 -11.9855     89.7971    200.7213   7.9366915338e+01   2.0772231946e+01    0.3324816    0.2437289  20.33  0.001892268    1.340    0.254
       229 -11.4782    106.8114    197.9151   7.4913043408e+01   1.9086126244e+01    0.2733252    0.1814291 -70.21 0.0009199156    1.894    0.472
       230 -14.8331      5.7518    202.8325   1.0073331365e+02   2.9337826730e+01     2.321172     1.597354 -15.63    0.0132363    2.160    0.537
       231 -11.2423     96.0341    186.9476   7.6124859232e+01   2.2825706925e+01    0.2073072    0.1856974  36.60 0.0004286045    1.009    0.009
       232 -13.7318     87.2910    187.6576   7.8444990813e+01   2.3868346965e+01    0.7473812    0.6378027  60.90  0.004456246    1.183    0.154
       233 -12.6740     55.2108    169.0249   8.5072702278e+01   3.2386371064e+01    0.7966226    0.3722075  31.91  0.002518824    1.922    0.480
       234 -14.3927     69.7612    179.5527   8.2131426023e+01   2.8020934475e+01     1.706434    0.9876415  84.02   0.00761654    2.257    0.557
       235  -9.5952    122.6309    190.1258   7.0115720942e+01   1.8427566053e+01    0.1725635    0.1617943 -12.13 0.0004415443    1.099    0.090
       236 -12.1989     54.2481    180.1391   8.6481505613e+01   2.9804130278e+01    0.5875821     0.502723  69.00  0.003490601    1.104    0.094
       237 -12.1728     44.0767    167.8539   8.8231649313e+01   3.3983691547e+01    0.5836591    0.2936913 -45.51  0.001329013    2.578    0.612
       238 -13.9799      1.9375    248.2625   1.0259127360e+02   2.0579472583e+01    0.4940516    0.3745115 -70.59  0.003681346    1.726    0.421
       239 -15.6453     26.6285    244.0883   9.7265889733e+01   1.9207082571e+01      2.67977     1.429224  15.19   0.01507213    2.078    0.519
       240 -13.5263     17.4074    227.3204   9.8719063015e+01   2.3225685360e+01    0.6651224    0.3625882  78.38  0.002737612    1.837    0.456
       241 -10.4132     41.9704    158.4362   8.7956428229e+01   3.6620048959e+01    0.5087841    0.2498395  88.51  0.001621701    2.328    0.570
       242 -11.0834     74.9007    159.3044   7.8078671618e+01   3.2194746252e+01    0.2443485    0.1926385 -89.36 0.0005116575    1.345    0.256
       243 -12.1551     54.4003    157.3922   8.3996138896e+01   3.5418947187e+01    0.5590112    0.3551488  58.42  0.001120121    1.561    0.359
