#   1 NUMBER                 Running object number                                     
#   2 MAG_AUTO               Kron-like elliptical aperture magnitude                    [mag]
#   3 X_IMAGE                Object position along x                                    [pixel]
#   4 Y_IMAGE                Object position along y                                    [pixel]
#   5 X_WORLD                Barycenter position along world x axis                     [deg]
#   6 Y_WORLD                Barycenter position along world y axis                     [deg]
#   7 A_WORLD                Profile RMS along major axis (world units)                 [deg]
#   8 B_WORLD                Profile RMS along minor axis (world units)                 [deg]
#   9 THETA_WORLD            Position angle (CCW/world-x)                               [deg]
#  10 FWHM_WORLD             FWHM assuming a gaussian core                              [deg]
#  11 ELONGATION             A_IMAGE/B_IMAGE                                           
#  12 ELLIPTICITY            1 - B_IMAGE/A_IMAGE                                       
         1 -13.9053    217.7402      7.2429   3.8067741513e+01   2.9539960554e+01      2.42989     1.538265  34.50   0.01118313    2.323    0.570
         2 -13.1770    177.0518     52.3559   5.5731823898e+01   3.4070476947e+01     2.037889     1.274644  30.86  0.005384091    2.119    0.528
         3 -13.3438    191.7508     39.1228   4.9495898958e+01   3.2193144392e+01    0.9781947    0.9362772 -43.64  0.003880635    1.095    0.087
         4 -12.9731    197.0354     32.9629   4.7035741040e+01   3.1660023907e+01     0.844002    0.7209255  69.38    0.0015246    1.133    0.117
         5 -10.6568    189.5252     14.5886   4.2898259398e+01   3.5694313218e+01     0.285838    0.2211551 -69.46 0.0009124777    1.282    0.220
         6  -8.6727     98.5073    214.4683   1.1090350715e+02   1.7016504017e+01    0.1277315    0.1093867  59.30 -4.383216e-05    1.030    0.029
         7 -11.9221    249.1255    247.2656   8.6701147000e+01  -1.1627762088e+01    0.5894699     0.240371 -36.43  0.003114489    2.891    0.654
         8 -10.2100    184.2121    212.3907   9.2884958336e+01   2.9676485095e+00    0.2028359    0.1602261  34.88  0.000776014    1.121    0.108
         9 -10.4806    176.2671    210.9949   9.4250069520e+01   4.5771112608e+00    0.4679071    0.1459322  32.35  0.001425383    4.346    0.770
        10  -9.0903     56.6743    211.0901   1.1906579350e+02   2.3551730592e+01    0.2043814    0.0944465 -64.61 0.0009336547    2.144    0.534
        11 -10.1501     43.9521    210.0471   1.2148710876e+02   2.5309763315e+01    0.1782183    0.1158424  67.74 0.0003285976    1.289    0.224
        12  99.0000     42.8092    206.0985   1.2139533844e+02   2.6254678072e+01    0.2855736     0.200195 -45.24  0.001372009    2.110    0.526
        13  -9.1783     30.5982    210.5482   1.2409409695e+02   2.6706058297e+01    0.1520179   0.09800968  45.30 0.0002022257    1.467    0.318
        14 -11.1575     33.4823    207.0990   1.2329743607e+02   2.7096991347e+01    0.3420525    0.1564463  70.14  0.001233616    2.178    0.541
        15 -10.9885    193.3693    195.6386   8.8052704378e+01   4.1032257521e+00    0.8744318    0.4769647 -62.28  0.002956779    4.830    0.793
        16  -9.0082    223.8546    206.3988   8.4146391854e+01  -2.8080022290e+00    0.1799563     0.105336  26.74 0.0004208802    1.589    0.371
        17 -10.6384     67.0186    204.2668   1.1631210511e+02   2.3618465493e+01    0.3390642    0.2010963 -47.48  0.001097381    2.292    0.564
        18  -7.5081     71.3775    200.4935   1.1500108339e+02   2.3822180029e+01    0.3511021     0.188788 -89.46  0.001686451    2.217    0.549
        19 -10.3737     96.5505    201.8079   1.0976125026e+02   1.9869654666e+01     0.529218    0.3619207 -36.22  0.002740644    2.154    0.536
        20  -8.5019     87.5217    202.9526   1.1184244660e+02   2.1000471792e+01    0.2363264    0.1619322 -10.64  0.001036298    3.407    0.706
        21 -12.4160     57.3291    197.7246   1.1768247248e+02   2.6261992278e+01    0.7655334    0.2575036 -55.15  0.003162013    3.315    0.698
        22 -11.2491    140.3937    201.1866   1.0016288732e+02   1.2679603800e+01    0.3332105    0.2020149 -65.78  0.001561415    2.192    0.544
        23  -9.9765    204.7907    199.3784   8.6480300274e+01   1.4673073828e+00    0.1963353    0.1121751  29.76 0.0008209961    1.671    0.401
        24  -8.5415     44.1955    198.1894   1.2045315574e+02   2.7754216792e+01   0.09051281   0.08097485 -80.35            0    1.275    0.216
        25 -10.2201     35.8086    197.7301   1.2212169367e+02   2.8798098784e+01    0.1752368    0.1158944  59.26 0.0005202107    1.300    0.231
        26 -10.5257    150.6104    196.1642   9.7128062177e+01   1.1812693163e+01    0.2778029    0.2374406 -48.95  0.001601981    1.295    0.228
        27  -9.7164     82.0749    194.8416   1.1204321784e+02   2.3516217597e+01    0.2250086    0.1822629  78.91 0.0004367957    1.127    0.113
        28  -9.6090    205.4935    193.5067   8.5231810740e+01   2.2845905221e+00    0.1381639    0.1186629  11.63 0.0008105803    1.015    0.014
        29 -10.5990     99.2205    180.9197   1.0627135393e+02   2.3930814119e+01    0.3001398    0.2699562   2.93 0.0008849347    1.431    0.301
        30 -10.4094     95.6033    188.9477   1.0826028815e+02   2.2744161461e+01    0.4193536    0.3001839  82.22  0.001973259    1.523    0.343
        31  -9.9977     98.5036    185.9912   1.0718239683e+02   2.2929177061e+01    0.3018422    0.1886683  69.00  0.001089301    1.890    0.471
        32  -9.4394    211.6714    190.3144   8.3407560788e+01   1.7043621331e+00    0.1241191    0.1116417  80.50 0.0007044288    1.674    0.402
        33  -9.4450    156.6726    189.9384   9.4725220180e+01   1.1892341991e+01    0.1858782    0.1820501 -41.03 0.0004238658    1.120    0.107
        34 -10.5786    151.0210    188.0763   9.5633779832e+01   1.3304288880e+01    0.2574535    0.2404328  20.22  0.001508751    1.081    0.075
        35 -10.0494     50.2624    224.6200   1.2141606875e+02   2.1657586000e+01    0.1944355    0.1142604  82.84 0.0007653356    1.596    0.373
        36  -9.8417    141.4819    187.4866   9.7651063722e+01   1.5182445257e+01    0.1414271    0.1307367  41.63 0.0004892505    1.017    0.017
        37  -9.6179    238.4827    185.4946   7.7448921016e+01  -2.1498063051e+00    0.1330594    0.1114002  -0.56 0.0005841401    1.020    0.020
        38 -10.6685    139.8156    172.3974   9.5302217436e+01   1.8619311634e+01    0.4697177    0.2888929  60.72  0.001484375    2.045    0.511
        39 -11.0667    144.9875    180.4882   9.5616156069e+01   1.5954465641e+01    0.3417903    0.3126218  -7.24   0.00101594    1.213    0.176
        40 -10.7829    142.7987    176.9892   9.5471544635e+01   1.7089077460e+01    0.3241651    0.2492224 -36.90  0.001053829    1.444    0.308
        41 -10.8114    150.7795    179.5033   9.4124855276e+01   1.5059877336e+01    0.4185999    0.2942774 -76.68  0.001912178    2.092    0.522
        42 -10.5184    130.9276    180.6658   9.8862601754e+01   1.8520581342e+01    0.2034261    0.1769103  48.46 0.0006179085    1.075    0.070
        43 -10.3029    188.9317    176.9007   8.5311564136e+01   8.2045719101e+00    0.7424743    0.3901247 -56.61  0.002302919    3.054    0.673
        44  -9.4580     59.0913    176.8348   1.1505144822e+02   3.0659657230e+01    0.1855149    0.1616773  83.23 0.0004372001    1.048    0.046
        45  99.0000     49.4866    218.8599   1.2111631470e+02   2.2878682495e+01    0.3316714    0.1730781  82.12 0.0008211894    1.961    0.490
        46  -9.5227     63.3820    172.4247   1.1351768842e+02   3.1118836800e+01    0.4283594    0.2361617  60.01   0.00207254    1.916    0.478
        47  -9.7762     72.0000    249.1526   1.1935870895e+02   1.4389818631e+01    0.2052701    0.1030298 -71.80  0.001031057    2.187    0.543
        48  -9.8827    240.5694    169.2534   7.3753549091e+01  -3.3880250718e-02    0.1866421    0.1159279 -21.47 0.0005001907    1.551    0.355
        49  -9.1906    230.3134    166.6420   7.5042177199e+01   2.1924436721e+00    0.1308094    0.1110352 -65.59 0.0007043607    1.744    0.427
        50  -8.8906     65.0000    223.9854   1.1857266093e+02   1.9917314264e+01    0.1694664    0.0625352 -69.20 0.0007799235    2.789    0.641
        51  -9.1041    161.3155    161.6539   8.8179985032e+01   1.6642453579e+01    0.1518084    0.1209962  85.84  0.000490449    1.719    0.418
        52 -11.5365     95.4344    151.8495   1.0240039071e+02   3.1251675089e+01    0.6280255    0.4651707 -24.87  0.001917813    1.877    0.467
        53  -9.6373    187.8427    152.5595   8.0328681004e+01   1.2997452547e+01    0.2764502     0.204792 -79.62  0.001192814    2.243    0.554
        54 -10.7771    133.8328    145.7495   9.1331118872e+01   2.5645509859e+01     1.251092    0.3138644 -54.21  0.002944776    5.743    0.826
        55  -8.7251    139.0564    150.9871   9.1171967801e+01   2.3427636707e+01    0.1824143    0.1775958 -55.12 0.0005098223    1.043    0.041
        56  -9.5075    113.2715    150.9552   9.7632847744e+01   2.8374545727e+01    0.2831033    0.2030431  67.73 0.0009987943    1.659    0.397
        57  -9.4713    174.7856    148.9568   8.2350248859e+01   1.6448242907e+01    0.2791864    0.2177757 -61.85 0.0008033448    1.554    0.357
        58  -9.5969    143.5805    145.8618   8.8943186903e+01   2.3646019681e+01    0.3665718    0.1462283 -55.77  0.001139191    3.275    0.695
        59  -9.6629    108.8730    147.1186   9.8003953336e+01   3.0066158649e+01    0.2270769    0.1917293  79.88 0.0004637684    1.276    0.216
        60 -10.0202     36.9663    224.3224   1.2384707329e+02   2.3276450891e+01    0.1263688     0.112297  22.04 0.0003753269    1.701    0.412
        61 -10.8688    107.6123    138.1524   9.6489340897e+01   3.2414164811e+01    0.4883803    0.4086544 -49.85  0.002532692    1.180    0.152
        62 -11.6321     95.2758    137.6453   9.9718177327e+01   3.4680964537e+01    0.2832101    0.2742169 -38.77 0.0004456544    1.115    0.103
        63 -10.6047    105.8626    130.8630   9.5381277088e+01   3.4464209750e+01     0.400533    0.3545358 -50.25  0.001075417    1.103    0.094
        64  -8.3127    101.7156    132.7296   9.6928676022e+01   3.4757737238e+01    0.2026613    0.1366235 -63.72 0.0003011899    1.533    0.348
        65  -9.6717    135.8083    129.2549   8.7030395318e+01   2.8973995256e+01    0.5309266    0.1200044 -46.42  0.001354909    4.373    0.771
        66 -10.1740    114.6085    129.0399   9.2580762957e+01   3.3270642715e+01    0.3229794    0.2884919 -24.43 0.0007100109    1.224    0.183
        67  -9.1460    160.4478    127.6998   8.0567011759e+01   2.3983547508e+01    0.3165153    0.1515716 -47.17  0.001149331    2.144    0.534
        68 -10.4394    102.1610    124.8507   9.5053683198e+01   3.6562988946e+01    0.3144952    0.2521878 -24.29 0.0006874258    1.476    0.322
        69 -10.2306    120.4781    122.7010   8.9478160866e+01   3.3606383723e+01    0.4908293    0.2925129 -20.34  0.001670803    3.126    0.680
        70  -9.3356    135.0000    120.7427   8.5127546434e+01   3.1061595769e+01    0.4354297   0.08890428 -45.98  0.001039771    4.830    0.793
        71  -9.4633    109.9582    118.2327   9.1287317234e+01   3.6693818130e+01    0.2486466    0.2091039 -51.06 0.0002936424    1.146    0.128
        72 -10.0963    231.1540    113.6854   6.2834289641e+01   1.0975473016e+01    0.2820628    0.2690489  59.47 0.0007959095    1.188    0.158
        73  -9.3775    167.5139    112.3393   7.4956500211e+01   2.5584287416e+01    0.3462262    0.2517714 -74.36  0.001440275    1.971    0.493
        74  -9.2885    134.8747    111.9121   8.2861028225e+01   3.3057244287e+01    0.4295378    0.1014889 -46.59  0.001086067    4.284    0.767
        75 -11.0005    118.4311    110.4718   8.6932656992e+01   3.6829324956e+01    0.6955447    0.4373365  66.94  0.002657925    2.450    0.592
        76  -9.4904    205.3769    110.2657   6.6538810058e+01   1.7217651652e+01    0.3062872    0.2115735  45.30 0.0009085002    1.515    0.340
        77  -9.4936    134.4966    105.4645   8.1210756437e+01   3.4555293121e+01    0.4591975    0.1507264 -47.66   0.00136145    3.171    0.685
        78  -9.4768     55.8243    223.4567   1.2027852826e+02   2.1196242954e+01     0.132111    0.0931817  57.03 0.0002086782    1.158    0.136
        79 -10.4324     72.0719    245.0481   1.1902073654e+02   1.5094389675e+01     0.318447     0.153233  63.44  0.001182067    2.039    0.510
        80 -10.6134     59.1109    230.4062   1.2021871888e+02   1.9450711129e+01    0.1834666    0.1370468 -89.30 0.0002538998    1.255    0.203
        81  -8.5334     84.2181    245.6794   1.1687430791e+02   1.3333604974e+01     0.110971   0.07108401  70.06            0    1.492    0.330
        82 -19.5480     18.1427    144.9594   1.2132059522e+02   4.2396136511e+01     19.18593     4.542669 -75.72   0.06564967    3.962    0.748
        83  -8.7164     61.5544    220.1200   1.1890076376e+02   2.1119830535e+01    0.1474108    0.1017086 -61.26 0.0009187279    1.658    0.397
        84  -9.9023    167.9949    232.6516   9.9293628399e+01   2.5133481424e+00    0.2455205    0.1830211  40.21 0.0007647527    1.143    0.125
        85  -9.3908     55.6862    216.8447   1.1975860679e+02   2.2515272987e+01     0.243228    0.1184904  71.74  0.001211664    2.241    0.554
