#   1 NUMBER                 Running object number                                     
#   2 MAG_AUTO               Kron-like elliptical aperture magnitude                    [mag]
#   3 X_IMAGE                Object position along x                                    [pixel]
#   4 Y_IMAGE                Object position along y                                    [pixel]
#   5 X_WORLD                Barycenter position along world x axis                     [deg]
#   6 Y_WORLD                Barycenter position along world y axis                     [deg]
#   7 A_WORLD                Profile RMS along major axis (world units)                 [deg]
#   8 B_WORLD                Profile RMS along minor axis (world units)                 [deg]
#   9 THETA_WORLD            Position angle (CCW/world-x)                               [deg]
#  10 FWHM_WORLD             FWHM assuming a gaussian core                              [deg]
#  11 ELONGATION             A_IMAGE/B_IMAGE                                           
#  12 ELLIPTICITY            1 - B_IMAGE/A_IMAGE                                       
         1 -13.4850    240.1565    148.8470   8.0435026516e+01   3.6512518149e+00     6.523801     1.179436 -40.37    0.0169224    5.440    0.816
         2 -11.7892    243.7373     43.9041   5.8753156083e+01   2.0787326863e+01     1.661758    0.7952572 -66.94   0.00810365    2.215    0.548
         3 -13.7408    227.0255     46.2640   6.0928752872e+01   2.3910247707e+01     6.306206    0.8346215 -47.59  0.006122702    6.170    0.838
         4 -13.1655    144.1507     40.9728   7.1617036936e+01   4.3441415111e+01     3.002281     1.486788  67.57   0.01325849    2.115    0.527
         5 -12.1683    249.2151     25.5631   5.4870419462e+01   2.2133786355e+01    0.6782214    0.2729564 -44.40 0.0007382379    2.147    0.534
         6 -14.0419    235.2313     15.6156   5.4188713446e+01   2.6151471782e+01     4.161448    0.5985873  61.71   0.01424923    5.376    0.814
         7 -10.4875    211.8099     14.7035   5.6066877396e+01   3.1176841947e+01    0.2533927    0.1785074 -56.64 0.0005009192    1.325    0.245
         8 -11.2644    129.0478     20.8615   6.8712389083e+01   4.9144990471e+01    0.6395624    0.3283714  41.62  0.003157887    1.999    0.500
         9 -10.3590    186.4929     17.9167   5.9414186971e+01   3.6416328557e+01    0.4696659    0.1706452 -41.31   0.00214556    2.701    0.630
        10  -8.9019    144.7852      1.8445   6.0827141856e+01   4.7362571876e+01     0.238539    0.1419447  60.73 0.0007426026    1.363    0.266
        11  -9.8099    142.3844     13.2296   6.4245949297e+01   4.6902209599e+01    0.4984996    0.1714262 -25.82  0.002098075    3.582    0.721
        12  -9.1699    144.3427      6.1120   6.2024302806e+01   4.7102740177e+01    0.3113864    0.2222473   4.71  0.001880336    1.982    0.495
        13 -11.9103    119.5857     10.1963   6.7313340106e+01   5.2213782796e+01    0.7518148    0.5231563  68.55  0.003029689    1.331    0.248
        14  -9.0032    151.8890     13.1478   6.2775232676e+01   4.4763029140e+01    0.1840933    0.1682842 -61.31 0.0004773051    1.221    0.181
        15  -9.5898      7.2571      7.7579   1.0245327238e+02   7.0941277383e+01    0.2795393   0.07187042  31.48  0.001312069    3.755    0.734
        16  -8.5800    183.2958      4.6276   5.6784636809e+01   3.8494133343e+01     0.289392    0.1734968 -53.66   0.00144243    1.696    0.410
        17  -8.9970    235.4725      2.7275   5.1820210990e+01   2.7555960569e+01    0.2986963    0.1532587  68.76  0.001709827    1.789    0.441
        18  -8.0608    171.7678      2.3728   5.7538471448e+01   4.1277270756e+01     0.200034    0.1243012 -50.96 0.0007006676    1.704    0.413
        19  -8.0839    133.2510      1.7583   6.2512893501e+01   4.9924700498e+01    0.1695741     0.114749  48.33 0.0007378426    1.353    0.261
        20  -8.4435    210.3260      1.3002   5.3520562449e+01   3.2922655578e+01    0.1580116   0.08501492  83.78 0.0009060683    1.566    0.361
        21 -11.0317    246.6861     36.5627   5.7097872853e+01   2.1200993729e+01    0.4940729     0.301648 -72.85  0.001762726    1.444    0.307
        22 -11.9031    232.4972    250.0865   1.0098461215e+02  -1.2581760097e+01    0.2612554    0.1650596  26.03 0.0003930742    1.458    0.314
        23  -7.6519    155.2185    142.1879   9.5712966257e+01   2.2154810557e+01    0.2055645    0.1802017  87.03 0.0003989247    1.255    0.203
        24 -10.7888    189.2108    138.7056   8.7489178793e+01   1.5641484872e+01    0.4713581    0.3535978  42.87  0.001725313    1.435    0.303
        25  -7.3337    124.6981    140.6909   1.0291064519e+02   2.8865155992e+01    0.1558819    0.1252548 -12.84 0.0002613357    1.603    0.376
        26  -8.3915    160.1758    137.6036   9.3492589876e+01   2.2120249796e+01    0.2100588    0.1492464  33.56 0.0003142069    1.609    0.378
        27 -10.0284    182.0043    134.3491   8.7965249290e+01   1.8102783281e+01    0.2905875    0.2238964 -18.43  0.001348275    1.652    0.395
        28  -7.3438    133.7082    146.3647   1.0190876256e+02   2.5694621334e+01    0.1636263    0.1239273 -88.02 0.0007027474    1.707    0.414
        29 -10.0523    158.6121    129.3527   9.1887280164e+01   2.4286684918e+01    0.4446734     0.320282 -20.05  0.001910791    1.884    0.469
        30  -8.3486    136.4070    128.3592   9.6977588441e+01   2.9312023820e+01    0.3128878    0.1470157 -42.39  0.001131164    2.169    0.539
        31  -9.3335    203.5133    126.9881   8.2072030668e+01   1.5028520281e+01    0.2379997    0.1374778 -43.13  0.001039206    1.612    0.380
        32  -8.8192    229.3237    124.6625   7.7136060073e+01   1.0234292600e+01    0.2166912    0.1533751 -71.28 0.0006387966    1.662    0.398
        33  -9.8559    232.3285    121.8442   7.6065496158e+01   1.0178972368e+01    0.2773304    0.2455351 -48.63  0.001645111    1.062    0.058
        34 -11.2082    184.9883    121.2763   8.4301951437e+01   2.0183134364e+01    0.6858442    0.4614735 -50.16  0.003169101    1.426    0.299
        35  -9.0247    195.4915    119.5169   8.1857933006e+01   1.8241858610e+01    0.2104819      0.14321  41.51 1.091833e-05    1.680    0.405
        36  -9.4354    216.1552    116.7864   7.7579101163e+01   1.4384728622e+01    0.2934633    0.2160844  58.02  0.001193269    1.473    0.321
        37 -10.0687    167.6124    113.3948   8.5992240184e+01   2.5683207215e+01     0.433254    0.3421495  85.63  0.001039861    1.486    0.327
        38  -8.4129    210.2989    113.3415   7.7799980587e+01   1.6272036461e+01    0.2154136    0.1615145 -66.30 0.0009458305    1.376    0.273
        39 -10.8010    206.5641    110.0988   7.7707742485e+01   1.7690537701e+01    0.5253122    0.3180746  53.41  0.002440052    1.757    0.431
        40  -8.1220    135.0000    113.0029   9.3476111215e+01   3.3014699352e+01    0.2603836   0.08699352 -45.15 0.0008044157    2.956    0.662
        41 -11.3399    187.6965    101.8551   7.9160972224e+01   2.3433887028e+01     1.283003    0.3915674 -40.87  0.004096748    3.217    0.689
        42 -11.0682    185.1856     88.7132   7.6452382393e+01   2.6450303829e+01     1.275355    0.4516818 -48.83  0.004366142    2.948    0.661
        43 -10.0165    144.4518    226.6429   1.1483331827e+02   5.3911677239e+00     0.251494    0.2447473 -39.78 0.0003886788    1.108    0.097
        44  -7.7329    123.9943    101.6860   9.3316532070e+01   3.7761218155e+01    0.2456191    0.1185609  27.32 0.0007038572    4.189    0.761
        45  -9.1504    224.8373     96.9279   7.1879939475e+01   1.6252647063e+01    0.3819942    0.2099631 -88.12  0.001396187    3.504    0.715
        46  -9.7301    195.3481     95.4918   7.6274064869e+01   2.2906309546e+01    0.3766392    0.3485392 -45.02  0.001617713    1.153    0.133
        47  -9.4194    169.6007     95.9276   8.1218799131e+01   2.8696259044e+01    0.3831256    0.3007631  10.37 0.0009744523    1.862    0.463
        48  -8.7420    134.3948     95.7826   8.9075976778e+01   3.6711812578e+01    0.3901176    0.2104106  53.67  0.001585427    1.937    0.484
        49 -11.9089      5.4887    198.9926   1.4195002164e+02   3.1581127702e+01    0.5404506    0.5349737  74.08  0.004092469    1.414    0.293
        50 -10.4121    159.8428     91.5932   8.2132242241e+01   3.1764343615e+01     0.575991    0.3611502  36.80  0.002489768    1.938    0.484
        51  -9.3063    250.4762     86.4522   6.6300692152e+01   1.2927529748e+01    0.3090266    0.1132736 -40.46  0.001279356    2.489    0.598
        52 -10.0740    225.3244     88.7042   7.0041418366e+01   1.7594584474e+01    0.3328425    0.2327611 -47.93 0.0002544249    1.289    0.224
        53 -10.6090    221.8027     80.4594   6.8759462096e+01   1.9744005412e+01    0.9225125    0.3757704 -61.59  0.002902504    4.075    0.755
        54 -11.8568    215.1772     55.1665   6.4174635841e+01   2.5180605578e+01    0.7830644    0.6409128  83.02  0.003418052    1.130    0.115
        55  -9.2887    193.1470     54.9449   6.7083935296e+01   3.0156715460e+01    0.9087614     0.470656 -86.31  0.003477585    3.148    0.682
        56  -9.2718    188.1800     45.0094   6.5462558898e+01   3.2706242630e+01    0.4518987    0.1611355 -47.80  0.001784655    2.868    0.651
        57 -10.2797    199.4171     65.6179   6.8644974670e+01   2.7101421813e+01    0.3460844    0.2709148  42.79  0.001905674    1.592    0.372
        58 -10.7496    214.8039     73.4859   6.8211967189e+01   2.2410239294e+01    0.5921378    0.3915746 -68.30  0.002470918    1.540    0.351
        59 -11.6033    209.5470     65.3411   6.7139666912e+01   2.4872369813e+01    0.8553897    0.5099269 -83.03  0.002914138    2.073    0.518
        60 -10.9721      4.3978     83.6955   1.2716969719e+02   5.8316627662e+01    0.4492439    0.4092292 -85.11  0.003284335    1.353    0.261
        61 -11.6706      4.6852    192.5865   1.4158970476e+02   3.3131465945e+01    0.5640194    0.3935978  52.03  0.003059464    1.458    0.314
        62 -10.9637    158.2812     81.5764   7.9841832851e+01   3.3955923564e+01    0.3919751    0.3113081 -39.52 0.0005852312    1.310    0.237
        63  -8.2542    112.1105     77.3029   8.9615097485e+01   4.4970387126e+01    0.1929748     0.176437  46.87 0.0003423357    1.091    0.084
        64  -9.0358    227.0926    144.0150   8.1606613946e+01   6.9541116149e+00    0.2090222    0.1834919 -43.91            0    1.017    0.017
        65  -9.5805    142.9952     88.4158   8.5022238321e+01   3.6213004135e+01    0.2991398     0.271398 -77.62 0.0006198199    1.153    0.133
        66  -9.0402    151.7642     71.0022   7.8370562313e+01   3.7279586729e+01    0.3529709    0.1693924 -48.01  0.001429191    2.253    0.556
        67  -8.4706    169.0169     69.5084   7.4605177121e+01   3.3505640122e+01    0.2097947    0.1848665 -54.61 0.0004914231    1.145    0.126
        68  -8.5471    192.1545    143.8830   8.8064102530e+01   1.3934170372e+01    0.2302579     0.200939 -76.92  0.000440563    1.245    0.197
        69 -11.0430    176.5298     80.8905   7.6102165510e+01   2.9836435918e+01    0.6574164    0.5588421  49.60  0.002949394    1.251    0.200
        70 -10.0022    244.7194     60.6871   6.1891108629e+01   1.8151917091e+01    0.2697192    0.2464949 -88.55  0.001199768    1.266    0.210
        71 -10.3651    183.5417     76.1984   7.3693454758e+01   2.9016286778e+01    0.3843535    0.3413272  61.74 0.0006856532    1.155    0.134
        72 -12.2085    174.9426     64.9693   7.2396969325e+01   3.2847957460e+01     1.057758    0.6652148 -69.90  0.002219939    1.978    0.494
        73  -8.6325    191.0357    191.6676   9.8422150040e+01   4.1553561879e+00    0.4169683    0.2312372 -63.54  0.001548077    3.005    0.667
        74 -10.4370    125.6491     55.4480   7.9701578121e+01   4.5635639219e+01    0.2541167    0.2369358  61.70 0.0002324124    1.065    0.061
        75  -7.6178    201.4818     53.9785   6.5694834781e+01   2.8403116131e+01    0.1984275    0.1211483 -45.65  0.001020768    1.587    0.370
        76  -8.0633    212.8030    142.7737   8.3862656551e+01   9.9606681488e+00    0.1976039     0.166826 -72.20  0.001052103    1.296    0.228
        77  -9.5484    114.6078     50.8541   8.0961222717e+01   4.8691185007e+01    0.2494095    0.1874294  57.60 0.0007004631    1.318    0.241
        78  -9.6243    196.9421     44.7194   6.4202789797e+01   3.0744526911e+01    0.2725768    0.1970116 -63.97 0.0004623322    1.315    0.240
        79  -9.1902    194.2701     40.2774   6.3541260439e+01   3.1950644712e+01     0.276659    0.1903348 -88.66  0.001141571    1.407    0.289
        80  -7.9651    213.6776     42.6053   6.1667803710e+01   2.7297654544e+01    0.2270204    0.1068176  62.82  0.001025039    2.003    0.501
        81 -10.2719    193.6699     69.1761   7.0345446559e+01   2.7843403983e+01    0.3371259    0.2739317  45.35 0.0007450964    1.449    0.310
        82  -9.1199    224.7850    109.7857   7.4662435534e+01   1.3927081265e+01    0.2068643    0.1527101 -68.07  0.001080117    1.393    0.282
        83  -8.0361    202.3930     35.2158   6.1397302870e+01   3.0779766650e+01    0.1703562    0.1035953 -53.32 0.0004990636    1.571    0.364
        84  -8.5355    195.1621     34.4845   6.2113635412e+01   3.2499982102e+01    0.2378202    0.1435159 -55.71  0.001276154    1.630    0.387
        85  -8.6613    215.6339    100.9635   7.4163845395e+01   1.7459259956e+01    0.2365194    0.1541386 -57.51  0.001152561    1.481    0.325
        86  -9.2769    149.0605     99.3256   8.6529473141e+01   3.2733443065e+01    0.3314855      0.30006 -25.11 0.0008395198    1.210    0.174
        87 -12.5375     20.5034    180.0319   1.3689215443e+02   3.4627041460e+01     1.738519    0.8871771 -85.18  0.008464679    1.880    0.468
        88  -9.2145    250.0110    177.9208   8.4624422688e+01  -3.3012853860e+00    0.2951149    0.1966793 -54.48  0.001571108    1.697    0.411
        89  -7.7634    189.5212     14.5510   5.8315681078e+01   3.6099311062e+01    0.1234138    0.1000581  85.90 0.0002608482    1.021    0.021
        90  -8.8636    221.9783    177.9804   8.9558865803e+01   1.3050604594e+00    0.2174521    0.1750506 -78.18  0.001140294    1.741    0.425
        91  -9.3930    238.7482    173.3541   8.5626785309e+01  -6.7383442549e-01    0.2579103     0.235227  33.20 0.0009239421    1.245    0.197
        92 -12.4631     37.7192    173.9231   1.3205316350e+02   3.4305948505e+01    0.8116775    0.7036961 -62.61  0.001451447    1.174    0.148
        93 -10.1979    239.7266    168.5106   8.4490634993e+01   5.7853519151e-02    0.3079713     0.230981  13.59  0.001317689    1.669    0.401
        94  -8.6436     94.4646    166.9960   1.1639212439e+02   2.8025612754e+01    0.2057869    0.1947117  63.73 9.727485e-05    1.079    0.073
        95  -8.1329     93.6383    151.7102   1.1362151653e+02   3.1976299653e+01    0.2116459    0.1691045 -45.71  0.001013538    1.253    0.202
        96  -8.4351    160.8466    164.8738   9.9483586614e+01   1.5818222264e+01    0.2217759     0.203144 -14.76  0.000302634    1.189    0.159
        97 -10.1096    207.6282    161.4828   8.8855841228e+01   7.1914579400e+00    0.2789024    0.2397168 -47.55 0.0007186569    1.103    0.093
        98 -12.3954     48.3794    166.5552   1.2834822006e+02   3.4882421960e+01    0.9972984    0.8527448 -67.11  0.002690251    1.080    0.074
        99  -7.8035    109.6398    234.2968   1.2352936330e+02   9.7139477061e+00    0.1453447   0.09458034  65.52 0.0007033311    1.708    0.414
       100 -10.3983     68.1342    144.5780   1.1927252859e+02   3.7767015915e+01    0.6587379     0.437632  69.46  0.002615743    1.988    0.497
       101  -8.9931    250.0548    239.2603   9.5974799612e+01  -1.3295809070e+01    0.1966001    0.1511939 -29.04 0.0002124209    1.257    0.205
