#   1 NUMBER                 Running object number                                     
#   2 MAG_AUTO               Kron-like elliptical aperture magnitude                    [mag]
#   3 X_IMAGE                Object position along x                                    [pixel]
#   4 Y_IMAGE                Object position along y                                    [pixel]
#   5 X_WORLD                Barycenter position along world x axis                     [deg]
#   6 Y_WORLD                Barycenter position along world y axis                     [deg]
#   7 A_WORLD                Profile RMS along major axis (world units)                 [deg]
#   8 B_WORLD                Profile RMS along minor axis (world units)                 [deg]
#   9 THETA_WORLD            Position angle (CCW/world-x)                               [deg]
#  10 FWHM_WORLD             FWHM assuming a gaussian core                              [deg]
#  11 ELONGATION             A_IMAGE/B_IMAGE                                           
#  12 ELLIPTICITY            1 - B_IMAGE/A_IMAGE                                       
         1 -16.5725    227.8109    101.1961   5.2097674604e+01   1.4749017947e+01      8.68993     3.471726 -45.95   0.03020899    2.252    0.556
         2 -15.0122    226.4830     48.3730   4.0292764377e+01   2.3368351282e+01     2.063572     1.709889 -17.10  0.008294743    1.609    0.378
         3 -16.1780    246.8432     42.4889   3.7041072014e+01   1.9938915440e+01     4.101709     2.232683 -70.98   0.02038862    1.926    0.481
         4 -16.3713    246.0257     70.5740   4.3015232935e+01   1.6074000207e+01     7.484413     1.309243  52.70   0.02135675    7.033    0.858
         5 -10.6139    202.8432      9.8401   3.3828505972e+01   3.3399401397e+01    0.3809046    0.2057123  63.75  0.002046012    1.767    0.434
         6  -9.5288    233.2383      4.0504   3.0240382622e+01   2.7379440304e+01    0.1992423    0.1310692 -48.39  0.001075945    1.342    0.255
         7  -9.1847    250.0081      4.0171   2.9185256622e+01   2.3985650697e+01    0.1773838    0.1292352 -69.28 0.0005449137    1.029    0.028
         8  -9.4725    237.8796      4.0362   2.9935006699e+01   2.6421621928e+01    0.1893096    0.1284294  54.30   0.00056707    1.945    0.486
         9  -8.9896    182.4586      2.5308   3.3954002088e+01   3.8841139010e+01    0.1256619    0.1041081 -88.28  8.73735e-05    1.006    0.006
        10  -8.9136     41.2570    193.7364   1.1364017033e+02   2.8756446515e+01    0.1631038    0.1419693 -59.95 0.0005634371    1.319    0.242
        11  -9.0285    179.4905    193.4691   8.1183718909e+01   6.5955523464e+00    0.1397305    0.1309173   8.96 1.774256e-05    1.040    0.039
        12 -10.9975    207.7453    183.8587   7.3567565050e+01   3.4633315366e+00    0.2555763    0.1897616 -52.95  0.001347198    1.614    0.381
        13 -10.2258    219.8270    222.5096   7.8478042441e+01  -4.8351018504e+00    0.2179814    0.1789411  -9.34 0.0003079851    1.074    0.069
        14 -11.6056    202.5839    173.2380   7.2425472286e+01   6.3181505591e+00    0.4198749    0.2836917 -70.41  0.001781195    2.729    0.634
        15  -9.4941    177.3111    169.3324   7.6832128431e+01   1.1787061441e+01    0.1531338    0.1139463  -5.60 0.0007043466    1.675    0.403
        16 -12.0058    199.3627    163.3316   7.0985784426e+01   8.7933343351e+00    0.6053334    0.3809989 -71.43  0.002233263    3.439    0.709
        17  -9.7788    211.1279    163.0235   6.8645136098e+01   6.6856252841e+00     0.210001    0.1887927 -21.14 0.0003811758    1.003    0.003
        18 -12.8086    191.1385    152.9543   7.0385670482e+01   1.2413427048e+01    0.7100371    0.4017876 -45.64  0.003086694    1.719    0.418
        19 -12.9335     17.1214    150.2893   1.1518516299e+02   4.1808137487e+01    0.8368063    0.6734623 -82.24  0.003847683    1.024    0.024
        20 -10.8733    133.9789    146.5637   8.2063386381e+01   2.5443375728e+01     1.261231    0.3048953 -54.50  0.002722078    6.410    0.844
        21  -8.3708    187.9877    222.7893   8.4684370100e+01  -8.0789093550e-02    0.1651565   0.09543633  34.05 0.0002087214    1.582    0.368
        22 -11.7103     67.8942    144.1769   9.9878526372e+01   3.7667329019e+01    0.7555985     0.393302  53.21   0.00306395    2.294    0.564
        23 -11.6525     45.2122    141.0317   1.0600233414e+02   4.1378453521e+01     0.387606    0.3435862  -3.69 0.0009101856    1.384    0.277
        24 -13.9627     56.6378    137.0730   1.0193727025e+02   4.1003799140e+01      2.05927      1.38585   2.30  0.006110718    2.183    0.542
        25 -11.8280    185.3447    140.1089   6.8667417239e+01   1.6183301932e+01    0.3879054     0.312108 -44.21 0.0002287317    1.189    0.159
        26 -12.2531    189.9733    138.4671   6.7342709510e+01   1.5558904429e+01    0.5188183    0.3652843 -55.22   0.00243367    1.533    0.348
        27  -9.8528    158.0411    143.4936   7.5470133195e+01   2.1177699001e+01    0.2408486    0.1542579  43.11  0.001034611    1.595    0.373
        28 -14.5239    234.4464     64.3138   4.2955721000e+01   1.9363323426e+01     1.137092    0.7118919 -38.82  0.006126941    1.465    0.318
        29  -8.5690    128.5914    138.4789   8.1604444145e+01   2.8431977538e+01    0.1561183    0.1506904 -61.14  8.91501e-05    1.021    0.020
        30  -9.7911    236.3361    218.0916   7.4710390006e+01  -6.4898321872e+00    0.2108051    0.1595112  25.88 0.0004593612    1.323    0.244
        31 -12.9361    184.7414    121.8853   6.4461282409e+01   2.0007301926e+01    0.8349636    0.5311585 -51.62  0.003694559    1.602    0.376
        32 -11.7904    190.0054    131.4407   6.5695525019e+01   1.6963272035e+01    0.3865787    0.3116779 -86.37  0.001892443    1.605    0.377
        33 -10.1277    136.0000    129.9991   7.7651455466e+01   2.8873360255e+01    0.4482925   0.08894659 -47.05  0.001052364    4.944    0.798
        34 -11.1299    161.0000    128.2155   7.1130512304e+01   2.3881930216e+01    0.3977827    0.3280857 -72.58  0.001739903    1.402    0.287
        35 -11.3588    207.9072    126.8006   6.1221375106e+01   1.4155902161e+01    0.4029195     0.261722  40.51  0.001441339    1.735    0.424
        36 -10.6233    191.7960    144.0130   6.8246872356e+01   1.4072753805e+01    0.2709652    0.2534543 -23.76 0.0004361336    1.027    0.026
        37 -12.3096    199.6386    129.5841   6.3390205544e+01   1.5319159287e+01    0.6926268    0.4365169 -72.15  0.002074961    2.780    0.640
        38 -10.1794    135.3271    120.3451   7.5404168192e+01   3.1216345563e+01    0.4027083    0.1428689 -50.17  0.001162865    2.971    0.663
        39  -8.6920    189.1876    218.2071   8.3659910235e+01   4.9986146161e-01    0.1637349    0.1505233  41.91 0.0003560519    1.290    0.225
        40 -13.0534    204.5379    111.5010   5.8228923190e+01   1.7742244500e+01    0.7623352    0.5688748 -45.15  0.003892436    1.229    0.187
        41 -12.6491    114.1422    105.9031   7.7323953373e+01   3.8962772815e+01    0.7663954    0.6841462  29.49  0.003930486    1.171    0.146
        42 -12.9464    124.3005    103.3182   7.3781042803e+01   3.7387667327e+01      1.07351    0.7207504  50.23  0.004743096    1.544    0.352
        43 -11.6368    134.0190    101.8222   7.0793111251e+01   3.5572799393e+01     0.661612    0.4464989 -54.03  0.001768578    1.568    0.362
        44 -10.6676    132.5398     97.5042   6.9964099298e+01   3.6814531310e+01    0.3799534    0.2383534  40.05 0.0009288547    1.680    0.405
        45 -10.2229    127.9894    113.9923   7.5677690091e+01   3.4225502723e+01    0.2421855    0.2335431 -66.14  0.000453982    1.041    0.039
        46 -10.8585    167.0239    115.9836   6.6714645037e+01   2.5137102089e+01    0.2479607    0.2376456 -56.12  0.001314972    1.017    0.017
        47 -14.5980    245.3283     64.0306   4.1699123480e+01   1.7193848832e+01      1.02575    0.5042042 -63.24  0.003440488    2.370    0.578
        48  -8.4660     76.6742    108.7084   8.9571184029e+01   4.5222076695e+01    0.1511419    0.1131697 -20.00 0.0003386406    1.617    0.382
        49  -9.8770    174.9845    105.2827   6.2282420671e+01   2.5496700440e+01    0.3210947    0.2092477 -52.25 0.0008793512    1.566    0.361
        50  -9.5629    146.8126    106.2035   6.8801645625e+01   3.1761155492e+01    0.2299515    0.2161684 -86.90 0.0007105051    1.108    0.097
        51 -11.1639    156.2724    102.6719   6.5632720957e+01   3.0326439097e+01    0.4154285    0.3425855  15.76   0.00199181    1.497    0.332
        52 -11.2960    134.6462    111.7480   7.3332628176e+01   3.3283086870e+01     0.684332    0.2503518 -42.88  0.002201963    2.726    0.633
        53 -10.2557     94.1212     90.0187   7.8815643375e+01   4.6458453141e+01    0.2274643    0.2107864  27.17 0.0002868717    1.100    0.091
        54 -10.1321    135.1311     75.1809   6.2749856470e+01   4.0601679707e+01    0.2301636    0.2080618  21.12 0.0006135014    1.199    0.166
        55  -9.5498    151.0083     71.4898   5.8017644808e+01   3.7481246021e+01    0.2767797     0.194603 -53.77 0.0005576155    1.515    0.340
        56 -10.4427    126.3512     70.5011   6.3491310246e+01   4.3486347007e+01    0.2839777     0.265171 -63.79  0.000560795    1.132    0.117
        57 -11.3158    169.2933     68.5115   5.3521610291e+01   3.3564736864e+01    0.3836644    0.2411555 -49.21  0.001325175    1.603    0.376
        58 -10.0644    158.3109     68.5168   5.5638929129e+01   3.6223877477e+01    0.2469136    0.2284947 -37.75 0.0003209687    1.124    0.111
        59 -11.3710    186.1299     62.6452   4.9051940622e+01   3.0462598446e+01    0.3534114    0.2540042 -38.08   0.00063897    1.391    0.281
        60  -9.2475    110.5636     63.0027   6.5283726219e+01   4.8362805980e+01    0.2185768     0.142379 -37.52 0.0006757998    1.566    0.362
        61 -13.4597    159.6107     49.6202   4.9914076158e+01   3.8858661764e+01    0.9422147    0.6429754 -74.66  0.004474576    1.782    0.439
        62 -13.1261    183.6209     46.8861   4.5280443229e+01   3.3403766464e+01    0.8844678    0.5189053  56.58   0.00427201    1.686    0.407
        63 -12.4171    155.2038     39.4927   4.7715512468e+01   4.1335900143e+01    0.5229432    0.2982602  56.50  0.001721994    1.623    0.384
        64 -10.0613    175.2870     38.0220   4.4113534152e+01   3.6617254409e+01    0.1949384    0.1693845 -59.11 0.0006023078    1.127    0.113
        65 -10.5927    203.5934     36.5637   4.0084895077e+01   3.0085444968e+01    0.3451686    0.2204989 -86.45  0.001502714    1.604    0.377
        66 -11.3712    124.4380     33.6283   5.1830309204e+01   4.9536429792e+01    0.3207335    0.2626602 -17.81  0.001020343    1.361    0.265
        67 -11.2550    184.0075     32.0573   4.1333304847e+01   3.5271109100e+01     0.365863    0.2570534 -19.29 0.0007598897    1.817    0.450
        68 -14.4259    249.4467     57.3210   3.9868847492e+01   1.7357983387e+01    0.5229244    0.4308485 -55.02  0.002486989    1.070    0.065
        69 -11.0788    143.9781     32.8615   4.7692033479e+01   4.4924599457e+01    0.3154296    0.1969616  -1.40  0.001395884    2.516    0.603
        70 -10.5934    179.7407     24.3644   3.9858227559e+01   3.7216163177e+01    0.3970645    0.2957258  80.45  0.002288578    1.212    0.175
        71  -9.3574    195.0931     25.1995   3.8271676350e+01   3.3475187723e+01    0.1830477    0.1635865  71.15 0.0004676838    1.197    0.164
        72  -9.8968    230.8669    216.4119   7.5385345281e+01  -5.4855500268e+00    0.1939882    0.1579471 -30.42 0.0007756926    1.304    0.233
        73  -9.8951    156.9477    207.9389   8.8670519323e+01   7.7348836327e+00    0.2117894    0.1969741 -32.33 0.0003898223    1.141    0.123
        74  -8.7222    108.8031    204.5727   9.9071358583e+01   1.6622510512e+01    0.1910091    0.1208163  47.98 0.0003543645    1.488    0.328
        75 -11.4840    191.5173    192.4128   7.8477460577e+01   4.6920720475e+00    0.8674304     0.450473 -63.87  0.002485364    6.124    0.837
