#   1 NUMBER                 Running object number                                     
#   2 MAG_AUTO               Kron-like elliptical aperture magnitude                    [mag]
#   3 X_IMAGE                Object position along x                                    [pixel]
#   4 Y_IMAGE                Object position along y                                    [pixel]
#   5 X_WORLD                Barycenter position along world x axis                     [deg]
#   6 Y_WORLD                Barycenter position along world y axis                     [deg]
#   7 A_WORLD                Profile RMS along major axis (world units)                 [deg]
#   8 B_WORLD                Profile RMS along minor axis (world units)                 [deg]
#   9 THETA_WORLD            Position angle (CCW/world-x)                               [deg]
#  10 FWHM_WORLD             FWHM assuming a gaussian core                              [deg]
#  11 ELONGATION             A_IMAGE/B_IMAGE                                           
#  12 ELLIPTICITY            1 - B_IMAGE/A_IMAGE                                       
         1 -15.2893      5.8797    119.6619   1.3572202788e+02   4.8913734347e+01     7.591651    0.9511162 -79.07   0.01822732    9.084    0.890
         2 -13.4033    202.6652     31.6374   5.9461150102e+01   3.0265878268e+01     1.433493    0.9665415  52.12  0.006314502    1.480    0.324
         3 -13.5757    220.6960     12.4276   5.2146649827e+01   2.7846449588e+01    0.9552526    0.8441062  39.17  0.002175601    1.255    0.203
         4 -11.3293     81.1070    248.5948   1.2921964087e+02   1.6368228437e+01    0.2831607    0.1253357  57.81  0.001625463    2.207    0.547
         5 -12.8681    246.7628    249.4366   1.0025641128e+02  -6.2236041115e+00    0.7602941    0.4472769  12.99  0.005365002    1.316    0.240
         6 -12.9502    239.2748    246.4120   1.0103076855e+02  -4.9921740593e+00    0.6238487    0.3310505  17.54  0.004007735    1.551    0.355
         7 -13.2792     40.4225    210.9320   1.3418842259e+02   2.7188766733e+01     0.869015    0.7545825 -84.10  0.006004979    1.307    0.235
         8 -15.0820     11.9861    242.2121   1.4060396512e+02   2.4654350660e+01     2.433726     1.711351  48.00   0.02107754    1.224    0.183
         9 -14.0194     29.0277    222.6429   1.3693308864e+02   2.6277336164e+01    0.6107579    0.4454874  59.31  0.002485419    1.025    0.024
        10 -11.4530     88.9896    249.2949   1.2788012137e+02   1.5295467105e+01    0.2619305    0.1442705  33.32  0.001690897    1.623    0.384
        11 -10.9775     62.0898    245.4128   1.3233824625e+02   1.9083585149e+01    0.1585228    0.1388059 -62.20 0.0007214309    1.584    0.369
        12 -11.1540     55.3386    240.5701   1.3322753845e+02   2.0593028039e+01    0.1828332    0.1319579  66.39 0.0007293455    1.173    0.147
        13 -12.1661     99.7217    247.9838   1.2586542485e+02   1.4125602265e+01    0.2857306    0.2536623  40.74  0.002359068    1.241    0.194
        14 -13.0273     24.2370    228.5114   1.3804429944e+02   2.5746017712e+01    0.2202075    0.2139402 -89.62 0.0007476172    1.505    0.335
        15 -14.1977    172.4968    248.5645   1.1280313980e+02   4.0032495293e+00     1.750945    0.3145377  38.07  0.006302463    4.128    0.758
        16 -12.7665    117.3912    231.6023   1.2107793349e+02   1.4173000906e+01    0.7887842    0.1147057  39.18  0.002616563    4.629    0.784
        17 -12.0805     92.9410    227.9873   1.2539882019e+02   1.8060486393e+01    0.4434855    0.1169142  41.04  0.001965535    2.722    0.633
        18 -11.2774     59.1174    213.6054   1.3075578860e+02   2.4674984791e+01    0.3253979    0.1843126  61.47  0.002038146    1.586    0.369
        19  -8.6144    152.6669    213.2532   1.1196755200e+02   1.1691977964e+01    0.1202354   0.08292852  52.84 0.0003372369    1.561    0.359
        20 -11.8208     53.3734    195.9791   1.3056605356e+02   2.8563195099e+01    0.2255598    0.2067609  65.18  0.000546538    1.185    0.156
        21 -11.9625     60.6116    187.7226   1.2833034240e+02   2.9330498394e+01    0.2235463    0.2046564  68.25 0.0004949265    1.137    0.121
        22 -12.0891      6.9533    186.6602   1.3942112839e+02   3.4760570749e+01    0.3662542    0.1823566  83.79  0.001756532    1.727    0.421
        23 -11.2975     27.8075    186.2045   1.3517925467e+02   3.3068679330e+01    0.3081459    0.1241302  66.15  0.001538348    2.559    0.609
        24 -12.1269    125.7159    249.5765   1.2133229590e+02   1.0445102372e+01    0.4317031     0.141636  39.25  0.002155002    2.199    0.545
        25 -11.8368     79.8666    166.4973   1.2162126646e+02   3.1217359112e+01    0.5542834    0.4300039 -53.63  0.003207528    1.417    0.295
        26 -10.3146     88.3461    166.4388   1.1957408939e+02   3.0053926805e+01    0.3870718    0.2086658  48.94 0.0008684778    1.771    0.435
        27 -10.3434     94.0338    151.1661   1.1590264223e+02   3.2450717298e+01     0.281509    0.2757058 -27.92 0.0008169463    1.136    0.119
        28  -9.3871     97.5146    147.0575   1.1433114080e+02   3.2803055249e+01    0.2180258    0.1827864  24.43 0.0003845402    1.280    0.219
        29 -11.9729     82.3117    149.9206   1.1871661827e+02   3.4429538810e+01     0.268905    0.2307236 -47.00 0.0007289563    1.282    0.220
        30 -11.9467     67.3299    143.3119   1.2167126205e+02   3.7887690199e+01    0.6552197    0.3462481  54.54  0.003097307    2.069    0.517
        31  -9.7951    107.2337    136.6040   1.0988489954e+02   3.3493888517e+01    0.4219355    0.2651999 -17.09  0.001104778    2.917    0.657
        32 -10.4307     94.0105    133.7272   1.1290112251e+02   3.6278470988e+01     0.229345    0.1926138 -49.76 0.0003558425    1.219    0.180
        33  -8.9368    105.1144    123.4296   1.0778130232e+02   3.6743862415e+01    0.1951909    0.1383661  37.06 0.0002952846    1.400    0.286
        34  -9.6287    160.5007     78.4896   8.1235885645e+01   3.4177744201e+01    0.1561391    0.1486548  12.23 -3.338108e-06    1.010    0.010
        35 -10.8000     72.2113    175.1794   1.2446546786e+02   3.0425890706e+01    0.2118108    0.1892751  62.24 0.0002841956    1.043    0.041
        36 -13.2291      9.9309    207.1746   1.3970889723e+02   3.0714465015e+01    0.7155805    0.5400188  39.74  0.003528435    1.384    0.278
        37 -13.0698     58.0505    173.0956   1.2750964401e+02   3.2574635081e+01    0.4567135    0.2555457 -47.82   0.00171279    2.260    0.558
