#   1 NUMBER                 Running object number                                     
#   2 MAG_AUTO               Kron-like elliptical aperture magnitude                    [mag]
#   3 X_IMAGE                Object position along x                                    [pixel]
#   4 Y_IMAGE                Object position along y                                    [pixel]
#   5 X_WORLD                Barycenter position along world x axis                     [deg]
#   6 Y_WORLD                Barycenter position along world y axis                     [deg]
#   7 A_WORLD                Profile RMS along major axis (world units)                 [deg]
#   8 B_WORLD                Profile RMS along minor axis (world units)                 [deg]
#   9 THETA_WORLD            Position angle (CCW/world-x)                               [deg]
#  10 FWHM_WORLD             FWHM assuming a gaussian core                              [deg]
#  11 ELONGATION             A_IMAGE/B_IMAGE                                           
#  12 ELLIPTICITY            1 - B_IMAGE/A_IMAGE                                       
         1  -7.7655     83.4266     11.2166   6.6235034736e+01   6.1569675790e+01    0.1740666    0.1135722 -32.96 0.0006072194    1.634    0.388
         2  -8.6436     55.6591     10.1187   7.5465396940e+01   6.6609400255e+01    0.1832307    0.1635512  19.96 0.0007401155    1.303    0.232
         3  -7.5921    178.4458      9.4997   4.6223282571e+01   3.9026707153e+01    0.1381141    0.1276638  72.46  0.000127945    1.023    0.023
         4  -8.5212     90.5833      8.7913   6.3003107341e+01   6.0383992068e+01    0.2407181      0.12256 -17.40  0.000946946    2.012    0.503
         5  -8.3004    136.6747      7.9675   5.2112352737e+01   4.9854562098e+01    0.1881492    0.1728991  -4.70 0.0004535337    1.151    0.132
         6  -7.5559    101.5090      8.4325   5.9899833251e+01   5.8090609030e+01    0.1319058      0.11919  26.02 0.0001962358    1.068    0.064
         7  -8.5913     33.1941      5.0017   8.2595756175e+01   7.0402203060e+01    0.2705263    0.1630959 -49.41  0.001443064    2.696    0.629
         8  -8.4343     79.2403      4.3399   6.4294083571e+01   6.3106605983e+01    0.2441465    0.1507136 -29.00  0.001229308    1.675    0.403
         9  -8.0586     44.4560      3.2543   7.6550549990e+01   6.9130224051e+01    0.1564494   0.09945427 -32.93  0.000551938    1.594    0.373
        10  -7.7433    115.3483      2.6700   5.4253756420e+01   5.5471987639e+01    0.1336444    0.1015702 -63.45 0.0007049115    1.763    0.433
        11  -8.4823     62.2187      1.5990   6.8627860934e+01   6.6507963080e+01    0.1646317    0.1434291  36.58 0.0004569136    1.345    0.256
        12  -8.8726    147.2117    246.2945   1.0844237046e+02   4.8463644495e+00    0.2677019    0.1789811  81.27  0.001344771    2.347    0.574
        13  -8.6892    249.0122    249.4064   9.1289604618e+01  -1.1072748883e+01    0.3209845    0.1330814 -22.60  0.001714767    2.785    0.641
        14  -9.3876    248.5508    242.4477   9.0269441698e+01  -1.0311436884e+01    0.2962031     0.196333 -27.37  0.001645728    1.703    0.413
        15  -8.3202    191.7804    249.7972   1.0102867233e+02  -2.6592897929e+00    0.1545193    0.1189631  48.83  0.001059274    1.369    0.269
        16  -8.5657     93.9397    249.4843   1.1808980102e+02   1.2394110390e+01    0.2045732     0.129295  77.46   0.00109247    1.654    0.396
        17  -7.4463     86.2667    250.6546   1.1948740957e+02   1.3277676261e+01    0.1127854   0.06553371  67.99 0.0002972072    1.609    0.379
        18  -8.8338    146.6129    240.3757   1.0783255837e+02   5.8100164579e+00    0.3115544    0.2029045  78.84  0.001153433    2.445    0.591
        19  -9.0914    120.1551    245.4418   1.1314872249e+02   9.1796336389e+00     0.281603    0.1783407  86.23  0.001653737    2.163    0.538
        20  -8.4149     20.9440    248.0000   1.2979520222e+02   2.1682905015e+01    0.1495579   0.04555168  39.28 0.0007989405    2.918    0.657
        21  -8.1338    192.3682    245.2340   1.0029038656e+02  -2.1878650161e+00    0.1661551    0.1192926  31.29 0.0009433321    1.104    0.094
        22  -9.2594    194.6500    239.3700   9.9044899632e+01  -1.8092328682e+00    0.4140652    0.2366671 -32.62   0.00172844    2.133    0.531
        23  -8.4204    139.3829    244.5632   1.0963416454e+02   6.3346343889e+00     0.191051    0.1056135 -73.75 0.0008044942    3.238    0.691
        24  -8.4872     67.4909    245.0625   1.2219674310e+02   1.6709099229e+01    0.1503099   0.09598876 -78.42   0.00103869    1.609    0.379
        25  -8.3144     50.4752    244.9856   1.2499395696e+02   1.8854190639e+01    0.1538839   0.06664243  77.04 0.0008100414    2.586    0.613
        26  -9.1688      9.5181    243.9666   1.3133800652e+02   2.3526862131e+01    0.2155057   0.07322885 -89.33  0.001197985    2.741    0.635
        27  -8.8680    202.0350    242.8652   9.8252978977e+01  -3.4148261793e+00    0.2857748     0.159864 -36.30  0.001383905    2.168    0.539
        28  -8.8724    169.2099    243.2301   1.0412708437e+02   1.7670590908e+00    0.2125223    0.1930059  70.33 0.0008290875    1.349    0.259
        29 -10.0085    160.2563    240.4971   1.0537895199e+02   3.5936845876e+00    0.3659667    0.2481101 -89.34   0.00153625    2.755    0.637
        30  -9.3586    183.3328    239.7863   1.0112511087e+02  -4.4391081591e-02    0.3712703    0.3165404 -87.31  0.002191342    1.775    0.437
        31  -7.8514    153.4382    242.2027   1.0682714155e+02   4.4466540235e+00    0.1403998    0.1129401 -80.44 0.0006933429    1.664    0.399
        32  -8.4549     88.2293    241.9124   1.1840733145e+02   1.4433837802e+01    0.1762414     0.124731 -85.28 0.0006275119    1.471    0.320
        33  -8.8736    240.6281    240.0098   9.1193385538e+01  -8.9283937087e+00    0.2255587    0.1014914 -29.48  0.001239935    2.430    0.589
        34  -7.8498     41.4536    239.9738   1.2614661300e+02   2.0780571841e+01    0.1526828   0.06444945  76.35  0.000655302    2.509    0.601
        35  -8.9240    135.5447    238.9778   1.0967074956e+02   7.7888547525e+00    0.2335022    0.1332504  55.39  0.001148184    1.641    0.391
        36  -8.1955    129.0833    238.8499   1.1082783528e+02   8.8292096834e+00    0.1981251     0.108233  60.15 0.0009447855    1.963    0.491
        37  -9.1523    230.7793    236.9480   9.2367882820e+01  -7.1408532353e+00    0.2429498    0.2072383 -60.69  0.001246398    2.171    0.539
        38  -7.8898    209.2663    238.6496   9.6356359016e+01  -4.0352115396e+00    0.1020602   0.09048934  61.11 0.0002819754    1.619    0.382
        39  -8.8782     26.7791    237.7480   1.2838021560e+02   2.2810069628e+01     0.376933   0.05839582  53.93  0.001487672    4.550    0.780
        40  -9.9282    214.9248    233.3962   9.4549713574e+01  -4.2845137256e+00    0.4617529    0.3500599 -87.63  0.002376003    3.557    0.719
        41  -8.8181    203.1823    234.8864   9.6857212455e+01  -2.6042908159e+00    0.2378957    0.1836048 -61.57  0.001215422    2.171    0.539
        42  -9.7783    175.7513    233.4410   1.0159627170e+02   2.0624821382e+00    0.4078069    0.2202267 -56.68  0.002061058    2.895    0.655
        43  -8.5039    170.4317    235.9543   1.0292119443e+02   2.5826260628e+00    0.1511622    0.1214842 -47.12 0.0005524278    1.562    0.360
        44  -9.5250    109.1770    234.5698   1.1397117282e+02   1.2601474102e+01    0.4554875    0.2232971  60.05  0.001879791    2.137    0.532
        45  -8.0794     57.9878    237.0000   1.2320519763e+02   1.9301842644e+01    0.1736185   0.05141184  39.85 0.0008026485    2.944    0.660
        46  -9.0601    247.8315    234.7162   8.9134841064e+01  -9.4009658523e+00    0.2159776    0.1515906   8.25 0.0008036614    1.182    0.154
        47  -8.3783     99.8458    234.5683   1.1566086996e+02   1.3997537940e+01    0.2172769    0.1345144  84.06 0.0008499181    1.906    0.475
        48  -9.4376     78.6188    234.3852   1.1943156435e+02   1.7051435916e+01    0.2785161    0.1687452  77.70  0.001007864    1.646    0.392
        49  -8.2207    122.9086    233.9993   1.1139916762e+02   1.0576465988e+01    0.1921689    0.1220204  66.87 0.0007640425    1.716    0.417
        50  -9.3780     68.2817    232.3800   1.2107956374e+02   1.8792354353e+01    0.4129161     0.176427  69.56  0.001944849    2.933    0.659
        51  -8.4607    194.4526    233.0295   9.8138257145e+01  -9.5304584811e-01    0.1878305    0.1489289  47.04 0.0007642619    1.313    0.239
        52  -8.4261    144.8223    233.2297   1.0726497768e+02   7.1874420097e+00    0.2563331    0.1270333  59.78  0.001167724    2.668    0.625
        53  -8.3879    140.1617    230.1460   1.0773810847e+02   8.4341220557e+00     0.236524    0.1395181  55.50 0.0007637579    1.630    0.387
        54  -8.6157    132.8114    233.0900   1.0946815572e+02   9.1524213241e+00    0.1937634     0.138973  63.10  0.001211192    1.381    0.276
        55  -9.1742    186.4821    230.6113   9.9220746719e+01   6.8278619202e-01    0.3057597    0.2317394 -77.28  0.001250088    2.357    0.576
        56  -9.3470     77.3540    242.8777   1.2036193068e+02   1.5770244265e+01    0.2187748    0.1259516  70.17 0.0009798364    1.628    0.386
        57  -8.5009     92.0309    231.7225   1.1679272032e+02   1.5627891565e+01     0.202008    0.1307198  84.76 0.0007497643    1.657    0.396
        58  -9.3894      2.0987    231.2745   1.3194047131e+02   2.6429504039e+01    0.2463998   0.09590439  66.57   0.00135072    1.982    0.496
        59  -9.2146    236.1509    230.8309   9.0459378797e+01  -7.2543111582e+00    0.2067606    0.1706047   2.70 0.0007650502    1.168    0.144
        60  -9.4325    246.6465    228.5674   8.8308347206e+01  -8.5593195700e+00    0.3928006    0.1964792 -22.35  0.001745692    2.109    0.526
        61  -9.9723    149.8173    226.3331   1.0542536061e+02   7.4461885469e+00    0.5573238    0.3414323 -86.37  0.002481553    3.557    0.719
        62  -8.1179    229.9384    228.9968   9.1222798944e+01  -6.0957799462e+00    0.1571845    0.1448636  54.17 0.0006935324    1.646    0.393
        63  -8.7341    162.1701    227.8290   1.0331212942e+02   5.1457167870e+00    0.2773192    0.1885534  59.68  0.001125678    1.653    0.395
        64  -9.1129    127.8128    227.1259   1.0967491047e+02   1.0932312095e+01    0.2970931     0.193553  70.92  0.001217168    1.829    0.453
        65  -8.4623    119.8851    227.5796   1.1121695344e+02   1.2121161934e+01    0.2212724    0.1497992 -89.09 0.0009906248    1.860    0.462
        66  -8.3403     49.3828    227.0906   1.2396670416e+02   2.2130441929e+01    0.2700661    0.1223022  69.29  0.001463586    2.179    0.541
        67 -10.7149      8.4731    224.8526   1.3065941236e+02   2.6970869959e+01    0.3908997   0.09951734 -72.66  0.001968861    3.274    0.695
        68  -8.6012    199.9977    226.3217   9.6098165266e+01  -9.6940796655e-01    0.1758544    0.1364888  32.45  0.000537548    1.068    0.064
        69  -8.9342     94.3992    224.4554   1.1563342692e+02   1.6566041833e+01    0.3631675    0.1721045  66.55  0.001676542    2.709    0.631
        70  -8.8287    180.5268    224.3937   9.9380648047e+01   2.5596827193e+00    0.2593974    0.1890088  62.56  0.001043847    1.766    0.434
        71  -9.0481    104.7253    223.7454   1.1362626695e+02   1.5143977055e+01    0.3212752    0.1997977 -88.52  0.001533911    1.986    0.497
        72  -8.6459    172.9811    223.3549   1.0063533837e+02   3.9936538793e+00    0.2034639    0.1751933 -81.32 0.0006408268    1.583    0.368
        73  -8.1566    113.9508    224.0078   1.1191670723e+02   1.3669933726e+01    0.1944786     0.125551  68.48 0.0007354101    1.644    0.392
        74  -8.2647     59.7701    224.1733   1.2192243790e+02   2.1377581923e+01    0.1995643   0.08265831  66.61 0.0008161518    2.733    0.634
        75  -7.8059     38.0391    224.7312   1.2575668850e+02   2.3892999923e+01    0.1319549   0.07722662  48.44 0.0005576778    1.474    0.322
        76  -9.0412    239.1686    221.7454   8.8413156681e+01  -6.6570091328e+00    0.2248369    0.2018295 -65.35 0.0009800049    2.028    0.507
        77  -9.1161    225.3599    221.9106   9.0837651219e+01  -4.5199525797e+00    0.2069598    0.1876856  -7.72 0.0007521426    1.300    0.230
        78  -9.3334    192.4970    221.5000   9.6707241342e+01   9.4814948152e-01    0.2919579    0.2393149 -88.80  0.001055154    2.012    0.503
        79  -9.4038    160.3868    221.4494   1.0273668167e+02   6.4337397646e+00    0.5008067    0.2407245  59.40  0.002011672    3.308    0.698
        80  -8.0834    140.1922    222.8519   1.0678362619e+02   9.6156282375e+00    0.1903661    0.1459315  63.96 0.0008282194    1.325    0.245
        81  -8.5343     27.3324    221.0164   1.2734752003e+02   2.5761269769e+01    0.2582471    0.0973609 -69.03  0.001437286    2.470    0.595
        82  -8.6084     82.7427    220.6385   1.1742054734e+02   1.8944031600e+01    0.3007033    0.1371841  64.59  0.001348061    2.539    0.606
        83  -8.2762     73.3729    221.0737   1.1919583910e+02   2.0162344417e+01    0.2381044    0.1110874  65.94  0.001098233    2.334    0.571
        84  -8.6434    210.1658    219.6167   9.3163983029e+01  -1.7546583221e+00    0.1865535    0.1639982 -29.00 0.0006318736    1.368    0.269
        85  -8.3745    202.5207    220.0484   9.4627409948e+01  -5.3841407560e-01    0.1648778     0.122101 -33.61 0.0006639038    1.548    0.354
        86  -9.2374    120.1438    219.1773   1.1015623484e+02   1.3532625830e+01    0.3664425    0.2074946  70.09  0.001768221    2.408    0.585
        87  -7.7955    223.4616    227.4774   9.2098826705e+01  -4.9057301977e+00    0.1210841   0.09637476  21.07 0.0001191169    1.035    0.034
        88  -8.7167    249.3056    218.5100   8.6131327078e+01  -7.8135412620e+00    0.2335013    0.1607303  55.65  0.001311342    2.491    0.599
        89  -8.2297    221.4565    219.4906   9.1117376310e+01  -3.5880155844e+00    0.1256931   0.09892839  17.83 0.0001617622    1.041    0.039
        90  -7.8819    151.3026    218.3454   1.0403007165e+02   8.4846113382e+00    0.1229477   0.09572484   8.91 0.0007039546    1.686    0.407
        91  -8.8979    143.0104    216.5437   1.0538057408e+02   1.0198215775e+01    0.2954318    0.2009076 -85.38  0.001464635    2.210    0.548
        92  -9.3137    132.7452    215.9163   1.0729300853e+02   1.2036060898e+01    0.4212632    0.2565173  83.19  0.001948106    2.821    0.646
        93  -8.4201     61.9668    217.4794   1.2097368006e+02   2.2345861255e+01    0.2231475    0.1289784  80.47  0.001061428    1.683    0.406
        94  -9.2520     51.6007    217.4510   1.2285601007e+02   2.3652693784e+01    0.2753589    0.1529019  74.53  0.001056433    1.650    0.394
        95  -8.7989    169.3341    216.4585   1.0028130204e+02   5.6780103188e+00    0.2616859    0.2087713  87.71  0.000927932    1.800    0.444
        96  -8.4618    111.4712    216.9639   1.1155988750e+02   1.5311309623e+01    0.1689112   0.09903118  86.53 0.0008094403    2.506    0.601
        97  -8.0356     18.4187    216.2606   1.2858313766e+02   2.7575787325e+01    0.1510869   0.07652548  85.35 0.0009508868    1.636    0.389
        98  -8.4847    232.3348    214.8467   8.8396460143e+01  -4.7478034300e+00    0.1964897    0.1822205 -33.51  0.000968048    1.510    0.338
        99  -8.4156    195.7858    214.9240   9.5026580919e+01   1.3259319076e+00    0.2268704     0.146261  30.72 0.0005986746    1.375    0.273
       100  -8.3350    185.8289    214.7384   9.6866938415e+01   3.0742899331e+00    0.2039939     0.165979 -87.88 0.0007979898    1.931    0.482
       101  -8.3778    154.2945    215.1734   1.0299067717e+02   8.4929549690e+00    0.2297315     0.145736  61.95  0.000776245    1.893    0.472
       102  -9.2233     93.0025    214.1540   1.1480484932e+02   1.8663760787e+01     0.340606    0.1674234  60.58  0.001244888    2.110    0.526
       103  -9.5394    214.0085    212.2209   9.1207306262e+01  -1.3979327840e+00    0.3330242    0.2943853  71.07  0.001411226    1.707    0.414
       104  -9.4052     73.7967    212.4490   1.1830757554e+02   2.1733018018e+01    0.6451378    0.2070439  58.29  0.002335348    4.177    0.761
       105  -8.0292    224.9288    212.9305   8.9366249249e+01  -3.3055547629e+00    0.1674247    0.1566909  81.26  0.000755857    1.699    0.411
       106  -8.6348    161.6601    212.5985   1.0117088595e+02   7.6348503093e+00    0.2296599       0.1927 -87.73 0.0009438151    1.539    0.350
       107  -8.0726    106.3253    212.9473   1.1207938500e+02   1.6856152417e+01    0.1700129    0.1407064  77.50 0.0005804417    1.139    0.122
       108  -8.9963    204.2880    211.0201   9.2785040148e+01   4.2316837935e-01    0.2524534    0.2149829 -68.11 0.0008245259    1.803    0.445
       109  -9.3907    175.6726    210.2876   9.8086815174e+01   5.5395189964e+00    0.4149694    0.2656624  69.01  0.001505188    2.698    0.629
       110  -9.0791    148.0588    210.8072   1.0356727280e+02   1.0309063354e+01     0.302431    0.2187589  80.45  0.001102539    1.889    0.471
       111  -8.8325    206.0889    226.5425   9.5032099919e+01  -1.9994940329e+00    0.1922617    0.1724298 -52.06 0.0006813636    1.578    0.366
       112  -8.1963    192.3214    210.8715   9.5000129290e+01   2.5201072573e+00    0.1778544    0.1603091 -67.95  0.001131581    1.518    0.341
       113  -9.2216    116.2454    210.5000   1.0982406881e+02   1.5728476131e+01    0.2898626    0.1856447  75.40 0.0009764032    1.915    0.478
       114  -9.1858    236.4313    208.7546   8.6595052274e+01  -4.6327936050e+00    0.3171746     0.286085 -28.82   0.00137314    1.448    0.309
       115  -8.5324     85.4930    209.3513   1.1573952506e+02   2.0681322730e+01    0.2988721    0.1634172  79.18  0.001477532    2.300    0.565
       116  -8.2546     46.5383    209.7601   1.2317677587e+02   2.5740701842e+01    0.2905041     0.124879  61.00  0.001509014    2.163    0.538
       117  -9.5782    246.4513    207.4006   8.4622178884e+01  -6.0495422034e+00    0.2613188     0.195813 -18.82 0.0005620756    1.298    0.230
       118  -7.9264    156.4055    208.1452   1.0151601038e+02   9.3011234141e+00    0.1655057    0.1252275 -68.20 0.0007769946    1.698    0.411
       119  -8.4387    139.1488    208.0722   1.0493461608e+02   1.2329541093e+01    0.2436869    0.1485671  63.44 0.0009037764    1.966    0.491
       120  -8.1333    126.6011    208.3556   1.0747999213e+02   1.4413727980e+01    0.1975453    0.1360003  70.04 0.0007795513    1.634    0.388
       121  -9.3055     99.3517    206.0909   1.1263449241e+02   1.9237491178e+01    0.3374574    0.2093242  83.18  0.001318801    1.947    0.486
       122  -8.4857     56.4503    205.4553   1.2096084782e+02   2.5377676307e+01    0.2799213    0.1273891  68.50  0.001174655    2.439    0.590
       123  -8.0583     11.6952    206.6782   1.2920279146e+02   3.0058973799e+01   0.09406851   0.07296821 -64.93 0.0003367778    1.637    0.389
       124  -9.4667    194.9806    203.6007   9.3246524340e+01   3.1462570747e+00    0.4072878     0.297711 -27.20  0.001651904    1.504    0.335
       125  -9.3343    192.4002    197.2368   9.2611130378e+01   4.5998402098e+00    0.3144718    0.2567889 -64.72 0.0008557349    1.721    0.419
       126  -9.0823    183.7471    204.0781   9.5489504559e+01   5.0829554256e+00    0.3147867    0.2215896  67.85 0.0009960569    2.129    0.530
       127  -8.6668    131.4346    204.3914   1.0595267167e+02   1.4321227045e+01    0.2870952    0.1759433  73.22 0.0009821857    2.360    0.576
       128  -8.2434    109.0927    205.1396   1.1056464468e+02   1.7888726635e+01    0.2040455    0.1339092  71.33 0.0007287004    1.667    0.400
       129  -7.8609     24.8368    204.9987   1.2678403573e+02   2.9082496459e+01    0.1923292   0.08850285  74.01 0.0008201521    2.002    0.501
       130  -9.5376    250.1067    201.9563   8.2994811238e+01  -5.9450920224e+00    0.3885512    0.1643775 -29.46  0.001662025    2.339    0.572
       131  -9.6617    246.1650    194.1755   8.2191327111e+01  -4.3203747336e+00    0.3562542     0.298923 -82.14  0.001850402    2.473    0.596
       132  -9.6069    163.9467    203.1954   9.9233449852e+01   8.7956196382e+00    0.4349192    0.2439827  56.96  0.001145309    2.120    0.528
       133  -7.6877     66.6729    203.3419   1.1879313098e+02   2.4478551711e+01    0.1313407   0.07415682  69.41 0.0007051249    1.738    0.425
       134  -8.3808     32.2425    210.2840   1.2580884420e+02   2.7265959583e+01     0.171296   0.07252092  89.83 0.0006218895    2.357    0.576
       135  -9.1844    242.9545    200.7362   8.3987651887e+01  -4.6542135712e+00    0.2837742    0.1735408 -35.40 0.0009957278    1.782    0.439
       136  -8.2793    210.9861    202.0319   8.9954588802e+01   5.5245653238e-01     0.179911    0.1611605  76.87 0.0005578023    1.650    0.394
       137  -8.8150    140.4207    201.1161   1.0364476535e+02   1.3361410738e+01    0.2918522    0.2043552  85.92   0.00111674    2.011    0.503
       138  -8.6827     80.0436    201.4034   1.1595202221e+02   2.3026502961e+01    0.2709225    0.1500302  70.96  0.001302903    2.001    0.500
       139  -8.1722     48.6141    202.2747   1.2217828399e+02   2.6972638850e+01    0.1960206    0.1044055  70.75  0.001094559    1.777    0.437
       140  -7.9679    222.4292    201.5211   8.7763108795e+01  -1.3515218435e+00    0.1285201      0.10841  14.57 9.269862e-05    1.028    0.027
       141  -9.4615    236.1792    198.2505   8.4699668398e+01  -3.2201644727e+00    0.3741142    0.3045152  62.39  0.001845008    1.944    0.486
       142  -8.3625    230.9910    194.4826   8.4903764709e+01  -1.8347257351e+00     0.187141    0.1768763 -13.39 0.0005334857    1.316    0.240
       143  -9.4532    149.7989    198.8349   1.0137837394e+02   1.2106520130e+01    0.4147868    0.2756116  76.89  0.001496132    2.331    0.571
       144  -9.0677    123.9188    199.3483   1.0676127710e+02   1.6548124337e+01     0.294838     0.201876  81.65   0.00117755    1.851    0.460
       145  -9.4529    112.8417    198.4814   1.0892080584e+02   1.8566677832e+01    0.4248184    0.2560745  75.52   0.00174289    2.235    0.553
       146  -9.2717     88.7451    198.3311   1.1384557270e+02   2.2375344039e+01    0.4309759    0.2423206 -83.20  0.002071733    2.118    0.528
       147  -8.2487    177.0190    199.0133   9.5936242069e+01   7.1228183208e+00    0.1953349    0.1607997  78.41 0.0005009597    1.643    0.391
       148  -8.3464    202.6360    198.1268   9.0810802118e+01   2.6101461233e+00    0.2187932    0.1697889  47.24 0.0008002614    1.354    0.262
       149  -9.3427     61.6679    197.2036   1.1917643179e+02   2.6374042187e+01    0.3938926    0.1934298  67.36  0.001605532    2.194    0.544
       150  -9.0353    216.4099    224.2174   9.2806365903e+01  -3.3759817124e+00    0.3012541    0.2110433 -34.05  0.001555087    1.653    0.395
       151  -8.8164    215.9227    195.5053   8.7835816905e+01   6.3487312551e-01    0.2876029    0.1828847 -50.71 0.0009944412    2.244    0.554
       152  -8.2837    132.9946    196.0107   1.0439268017e+02   1.5616697612e+01    0.2103626    0.1502462  74.44 0.0005534051    1.682    0.405
       153  -9.5029    223.2245    192.8762   8.5997358016e+01  -2.6695287924e-01    0.3530637    0.2761375 -67.22  0.001551998    2.293    0.564
       154  -7.5203    209.3191    195.6807   8.9098919857e+01   1.7819751774e+00     0.121097    0.1068178  76.98  0.000630145    1.663    0.399
       155  -8.7656    185.2818    194.8938   9.3578888241e+01   6.2830741394e+00     0.234359    0.2106206  58.30 0.0006931499    1.273    0.215
       156  -9.0206    161.1820    194.5325   9.8348001448e+01   1.0802369954e+01     0.275947    0.2095844  74.81 0.0008988899    1.733    0.423
       157  -9.0602     43.9552    193.6203   1.2233856876e+02   2.9279973341e+01    0.4020049    0.1716108  70.03   0.00181999    2.754    0.637
       158  -8.9924     77.0057    193.8157   1.1572182711e+02   2.4997156645e+01    0.2510296     0.170206  80.67 0.0006575549    1.432    0.302
       159  -7.7994    205.2019    191.9057   8.9169636177e+01   3.0991050730e+00     0.163104    0.1044338 -36.83 0.0004731331    1.679    0.404
       160  -8.2641    199.1173    191.8909   9.0331818858e+01   4.2152252193e+00    0.1911878    0.1795537  65.13 0.0006077588    1.338    0.253
       161  -7.9919    178.9977    191.9250   9.4290900253e+01   7.9448052804e+00    0.1982242    0.1634842  75.56 0.0005095743    1.608    0.378
       162  -8.4583    172.3083    191.8383   9.5620371613e+01   9.2092881221e+00    0.2385584    0.2032614  85.33  0.001003475    1.522    0.343
       163  -9.2109    139.6247    190.9729   1.0221791198e+02   1.5396368520e+01    0.3597148    0.2358763  75.37  0.001175839    2.202    0.546
       164  -7.9880     22.6561    192.3213   1.2633020256e+02   3.1839673914e+01    0.1231055   0.06240747  67.76 0.0003859278    1.728    0.421
       165 -10.5902     92.1798    188.7997   1.1194753022e+02   2.3804638307e+01    0.9129341    0.2835301  51.22  0.003279417    3.454    0.710
       166  -9.0172    216.4925    188.0643   8.6310296556e+01   1.6366873264e+00    0.3069478    0.2042549 -34.93 0.0009965524    1.580    0.367
       167  -8.7551    148.3653    189.0670   1.0007038987e+02   1.4164284664e+01    0.2590522    0.1661584 -58.97 0.0008959713    1.835    0.455
       168  -9.0098    129.3596    188.8421   1.0404481089e+02   1.7641181893e+01    0.3129891    0.2152941  83.79  0.001032262    1.949    0.487
       169  -8.4154    237.1577    188.3646   8.2628166077e+01  -2.0363146109e+00    0.2242966    0.1539927 -16.57 0.0005596522    1.408    0.290
       170  -7.3809    210.2885    189.6229   8.7772524834e+01   2.5240783044e+00    0.1238234    0.1088628 -81.97 0.0004463875    1.729    0.422
       171  -9.2760    155.9388    187.4823   9.8215104482e+01   1.3054114073e+01    0.3265989    0.2303037 -68.13 0.0009443333    1.867    0.464
       172  -9.8424    120.9165    186.8777   1.0554042230e+02   1.9507238742e+01    0.5199655    0.2866793 -75.31  0.002197107    2.724    0.633
       173  -8.8795     34.0171    187.5380   1.2377825600e+02   3.1650445921e+01     0.364328    0.1499331  87.13  0.001489055    2.792    0.642
       174  -9.2220    249.0098    186.2480   8.0161708140e+01  -3.7342894546e+00    0.3154416    0.1982285 -12.59 0.0008853164    1.581    0.368
       175  -8.7169    191.5546    187.4271   9.0966257312e+01   6.3429860766e+00    0.2685564    0.2151224 -86.23  0.001275762    1.982    0.495
       176  -9.2595     54.7341    186.8899   1.1955224863e+02   2.9394889833e+01    0.4173498    0.1992816  73.61  0.001684269    2.531    0.605
       177  -8.0494    230.7046    187.5842   8.3621206980e+01  -8.1433834257e-01    0.1676114    0.1191967  45.98 0.0005205808    1.551    0.355
       178  -8.7500    164.7947    186.8568   9.6265896740e+01   1.1503385366e+01    0.2345936    0.1913402 -79.03 0.0006911152    1.599    0.375
       179  -9.3905    109.4527    185.8711   1.0785209003e+02   2.1654436986e+01    0.4461503    0.2845822 -84.65  0.001544491    1.981    0.495
       180  -9.1426    224.0025    184.0728   8.4142486853e+01   8.8209799545e-01    0.3862577    0.1852756 -32.54  0.001521403    2.125    0.529
       181  -8.6906    210.0690    184.0900   8.6741254956e+01   3.4204267124e+00    0.2427411    0.1822902 -32.10 0.0006510774    1.386    0.279
       182  -8.6227    202.8219    184.7604   8.8258270920e+01   4.6629158583e+00    0.2417152    0.1865985 -49.67 0.0006728923    1.598    0.374
       183  -8.5088    182.8825    185.0864   9.2250699362e+01   8.3790278139e+00    0.1998742    0.1871024  77.88 0.0005560976    1.288    0.224
       184  -9.1636     66.9066    184.7032   1.1679106832e+02   2.8293846185e+01     0.375618    0.1826201  57.44  0.001015316    2.042    0.510
       185  -9.0075    174.1788    183.4321   9.3707346820e+01   1.0331587608e+01    0.2859344    0.2190429 -59.91 0.0007613081    1.621    0.383
       186  -9.0887    241.0145    181.2570   8.0542822655e+01  -1.7020092565e+00    0.3632491    0.2098409 -48.49   0.00170192    2.554    0.608
       187  -8.0675    196.8440    183.5787   8.9190555058e+01   5.9795865907e+00    0.1875238    0.1242672  50.88 0.0004526238    1.616    0.381
       188  -8.9722     44.3389    182.2115   1.2123091136e+02   3.1628528708e+01    0.3511842    0.1820417  81.68  0.001235375    2.002    0.501
       189  -7.9348      1.7901    183.6360   1.2968274828e+02   3.5519327175e+01    0.1479042   0.07592818  50.68  0.000947042    1.746    0.427
       190  -9.2172    147.3884    180.2394   9.8749419607e+01   1.6034099707e+01    0.3571225    0.2609497 -84.57  0.001180138    1.894    0.472
       191  -8.6434    144.2845    180.2748   9.9422821248e+01   1.6609542751e+01    0.2124456    0.1995837  58.38  0.001266739    1.030    0.029
       192  -8.0230     90.6488    181.7049   1.1133428802e+02   2.5530520017e+01    0.1950125    0.1650255  29.40 0.0005661893    1.450    0.310
       193  -8.6576     26.7817    181.1431   1.2469547380e+02   3.3746507021e+01    0.2796683    0.1231758  58.47  0.001478576    2.123    0.529
       194  -8.7779     24.3226    176.9817   1.2485631330e+02   3.4873760815e+01    0.3313579    0.1335808  83.36  0.001485427    2.854    0.650
       195  -8.7886    234.9425    181.2851   8.1615507830e+01  -6.5133676925e-01    0.2494823    0.1636647  21.83  0.001329055    1.503    0.335
       196  -8.6690    137.6105    179.3757   1.0070952190e+02   1.8027801800e+01    0.2995158    0.2084022  82.84  0.001041516    2.017    0.504
       197  -9.5898    191.3801    178.4541   8.9267936427e+01   7.8843428307e+00    0.3005795    0.2727325  57.56  0.000530848    1.262    0.208
       198  -8.1121    169.1817    178.7090   9.3851307648e+01   1.2149277920e+01    0.2189559    0.1667773  58.29 0.0006921332    1.434    0.303
       199  -8.8005    129.2876    177.6979   1.0224113640e+02   1.9889036629e+01    0.3225054    0.2177899  89.59  0.001117743    2.098    0.523
       200  -9.2945     35.6700    176.2687   1.2247011806e+02   3.3865369459e+01    0.5720038     0.210785  86.09  0.002000377    4.583    0.782
       201  -9.6403    248.2066    176.3782   7.8317018869e+01  -2.2484230580e+00    0.4122063    0.2687958 -45.65  0.001995024    1.998    0.499
       202  -8.5930    250.5279    172.9348   7.7218217164e+01  -2.1620730945e+00    0.1860469    0.1442509 -15.46 0.0004391749    1.143    0.125
       203  -8.6925    231.1160    177.0364   8.1438268782e+01   6.4950865188e-01    0.2585092    0.1810036 -37.12  0.000757414    1.521    0.343
       204  -8.6848    205.0096    177.5522   8.6410866225e+01   5.4160458792e+00    0.2544429    0.1904733 -50.88 0.0008743515    1.662    0.398
       205  -8.3156     97.0825    177.9144   1.0939222942e+02   2.5336746508e+01    0.1996516    0.1676384 -16.53  0.001125633    1.771    0.435
       206  -8.9472     89.2570    176.9382   1.1098461447e+02   2.6766081944e+01    0.3105655    0.1922953  78.42  0.001072267    1.929    0.482
       207 -10.9184     75.8633    170.6404   1.1311339270e+02   3.0119132036e+01     1.259918    0.4324784 -74.00   0.00389777    4.858    0.794
       208  -8.3310    217.6070    177.1397   8.3933638785e+01   3.1069760191e+00     0.197861     0.163811 -44.84 0.0006603319    1.449    0.310
       209  -9.1778    183.1329    176.0750   9.0461972048e+01   9.9035041199e+00     0.252784    0.2289101 -67.71 0.0004982722    1.346    0.257
       210  -9.5777    104.3559    174.7575   1.0730173641e+02   2.4835132689e+01    0.5182909    0.3030002  75.82  0.001736466    2.483    0.597
       211  -9.1875     59.0135    176.0135   1.1749425534e+02   3.1196388697e+01    0.4136364    0.1808228  62.01  0.001553532    2.733    0.634
       212  -9.5729     55.9974    171.4829   1.1763631167e+02   3.2569689254e+01    0.4664499    0.2252423  81.66  0.002000198    2.806    0.644
       213  -8.6120     13.0056    176.8099   1.2710203480e+02   3.5968303760e+01     0.253934    0.1099854  68.12  0.001303383    2.230    0.552
       214  -9.2428    158.7814    175.1353   9.5371581981e+01   1.4840685363e+01    0.3819751    0.2666581  78.82  0.001306128    2.217    0.549
       215  -8.5088    224.3116    174.5948   8.2172608062e+01   2.2578341376e+00    0.2278432    0.1576171 -41.66 0.0006431432    1.619    0.382
       216  -7.6134    241.3184    174.2948   7.9074005421e+01  -7.6194367586e-01    0.1373291   0.09161849   8.19 0.0003236278    1.608    0.378
       217  -9.5586    175.7402    172.0262   9.1183408332e+01   1.2091744919e+01    0.3866715    0.2427295 -41.86  0.001201599    1.690    0.408
       218  -8.6410    143.0427    172.8047   9.8351919247e+01   1.8328060288e+01    0.2416942    0.1819438 -74.66 0.0005704173    1.626    0.385
       219  -8.8430    134.8055    171.9198   1.0001341102e+02   2.0060016995e+01    0.2542513    0.1950549 -84.19 0.0007860832    1.576    0.366
       220  -9.6217    121.4149    170.4001   1.0274934347e+02   2.2827317755e+01    0.4436915    0.2802994 -76.09  0.001258184    2.065    0.516
       221  -9.1442     45.0097    170.9389   1.1997092409e+02   3.3996150112e+01    0.3626835    0.1876915  87.31  0.001168126    2.032    0.508
       222  -8.3530    205.5725    170.2224   8.4803343792e+01   6.5178553043e+00    0.2469007    0.1327821 -41.85  0.000720695    1.978    0.495
       223  -8.2626    237.2106    169.7022   7.8839342690e+01   6.4209627807e-01    0.2223998    0.1666902 -34.75 0.0005980469    1.385    0.278
       224  -8.9707    230.4620    170.0636   8.0115525513e+01   1.8174118685e+00    0.2030093    0.1738218  16.22 0.0006749211    1.069    0.064
       225  -8.4528    198.6079    170.1081   8.6143957539e+01   7.9016655592e+00    0.2300276     0.193003  52.27 0.0007858695    1.315    0.240
       226  -9.2017    167.3641    168.8231   9.2311004749e+01   1.4358321197e+01    0.3806418    0.2608142  73.60  0.001080499    2.257    0.557
       227  -8.6719    149.6987    169.6148   9.6292118051e+01   1.7688286006e+01    0.2748755    0.2145838 -76.72 0.0009582575    1.588    0.370
       228  -8.3433    244.4300    169.3175   7.7504365531e+01  -5.8892110702e-01    0.1978279    0.1676189  62.52 0.0006505146    1.712    0.416
       229  -8.3153    218.8467    168.4258   8.1900488847e+01   4.2503616394e+00    0.2218951    0.1819903 -37.74 0.0005626639    1.323    0.244
       230  -8.6166     88.7673    168.8693   1.0993821876e+02   2.8606937175e+01    0.2587267    0.1707436 -87.07  0.001008111    1.675    0.403
       231  -8.1597    211.4035    168.2569   8.3270257328e+01   5.7097517087e+00     0.190526    0.1294319 -44.61  0.000943695    1.655    0.396
       232  -8.8160    111.8133    167.3966   1.0442353911e+02   2.5163104205e+01    0.3544422    0.2295496  79.75  0.001196679    2.089    0.521
       233  -8.8772    191.9273    166.6958   8.6769771586e+01   9.8233009144e+00    0.2659276    0.2045492 -45.69 0.0006451818    1.428    0.300
       234  -8.9230    184.9950    166.1602   8.8071298905e+01   1.1313038374e+01    0.3583715    0.1929017 -45.77  0.001327666    2.018    0.504
       235 -10.1349     95.2473    163.2661   1.0758081252e+02   2.8837322287e+01    0.8813728    0.4508255  76.09  0.002875271    4.342    0.770
       236  -8.9753     20.5010    166.0341   1.2474581835e+02   3.7597467202e+01    0.3276888    0.1414284  64.82  0.001218863    2.431    0.589
       237  -8.6284    140.6415    166.3066   9.7673571237e+01   2.0111800450e+01    0.2357109    0.1694758  58.57 0.0008094611    1.458    0.314
       238  -9.7573    135.6845    164.0394   9.8362873663e+01   2.1532168441e+01    0.4490367       0.2685  60.82  0.001101257    2.025    0.506
       239  -8.4577    233.8634    165.0740   7.8454868238e+01   1.9515565020e+00    0.1980756    0.1769052 -37.26 0.0005811088    1.310    0.236
       240  -8.7947    159.4921    164.2188   9.3086845902e+01   1.6827054977e+01    0.3119829     0.230899 -77.54 0.0008251195    1.892    0.471
       241  -9.3355     33.7650    163.4943   1.2166221477e+02   3.6863613681e+01    0.5366546    0.1975344  58.33  0.002271503    3.177    0.685
       242  -8.1590    240.0138    164.0563   7.7157548755e+01   9.7771801733e-01    0.1921002    0.1670835 -62.35 0.0006671753    1.670    0.401
       243  -9.0574    212.5614    163.1884   8.1973385477e+01   6.3215667943e+00     0.299329    0.2276371 -54.49  0.001061078    1.699    0.411
       244  -9.3600    246.0287    162.8918   7.5875834074e+01   6.6477445377e-02    0.2269195    0.1766209 -24.57 0.0005132337    1.195    0.163
       245  -8.2821    204.9182    163.0896   8.3426173113e+01   7.8517854676e+00    0.2033173    0.1939053 -78.54 0.0004505498    1.316    0.240
       246  -9.2506      3.3726    162.4109   1.2803015055e+02   3.9836102628e+01    0.3462185     0.143197  59.08  0.001790469    2.318    0.569
       247  -9.0174    177.4482    160.6770   8.8493547342e+01   1.3864167803e+01    0.3087287    0.2411818 -65.79 0.0008786102    1.639    0.390
       248  -9.0334    151.6292    161.1565   9.4205874192e+01   1.9014573780e+01    0.3125237    0.2384523 -82.02 0.0009795267    1.738    0.425
       249  -7.8090    222.2834    161.6781   7.9824506614e+01   4.6738612422e+00    0.1289831    0.1127064 -66.81 0.0002128967    1.593    0.372
       250  -8.8226     60.5970    160.1957   1.1522267597e+02   3.4522934478e+01    0.2969712    0.1783603  78.78  0.001031463    1.838    0.456
       251  -9.9327    250.1859    157.9429   7.4116578105e+01   5.2088202373e-02    0.3756909    0.1722757 -32.61  0.000858517    2.004    0.501
       252  -8.7407    227.4766    159.3177   7.8363344423e+01   4.0521973164e+00    0.3050816     0.208291 -49.74  0.001014789    1.847    0.459
       253  -9.0046    196.7432    158.5613   8.4065801470e+01   1.0292848106e+01    0.3175873    0.2245107 -61.73  0.001174744    2.014    0.503
       254  -9.6386    105.8897    158.1622   1.0421837017e+02   2.8217618700e+01     0.466544    0.2958711  77.67  0.001282282    2.173    0.540
       255  -8.5568    237.0114    158.9420   7.6583018249e+01   2.3071583535e+00    0.1959151    0.1703033 -65.05 0.0005703291    1.652    0.395
       256  -9.2119    167.5961    157.4273   8.9914255077e+01   1.6517141408e+01    0.3486858    0.2725497 -80.61 0.0009905664    1.757    0.431
       257  -8.4013    128.1463    159.1751   9.9170289148e+01   2.3994210851e+01    0.2033663    0.1664066  85.57 0.0004857267    1.363    0.266
       258  -8.2873    188.2558    157.8144   8.5626874505e+01   1.2172019597e+01    0.2481589    0.1801822 -41.75 0.0005881057    1.431    0.301
       259  -8.2171     79.2137    158.5832   1.1062750538e+02   3.2349136324e+01    0.1759075     0.131836  27.15 0.0009547253    1.673    0.402
       260  -8.4408    217.9364    156.4456   7.9492434747e+01   6.3799062230e+00    0.2608471    0.1854574 -48.49 0.0007357033    1.661    0.398
       261  -8.9930    157.4500    155.9242   9.1829329180e+01   1.8901275705e+01     0.314959    0.2316535 -62.11 0.0008721954    1.596    0.373
       262  -8.1411    140.2596    157.3291   9.6010169234e+01   2.2059933321e+01    0.1410458    0.1158295 -11.92            0    1.564    0.361
       263  -9.5813    119.6366    155.3734   1.0044504324e+02   2.6403311133e+01    0.4475241    0.2887435 -78.45  0.001591208    2.086    0.521
       264  -9.5407     81.8308    154.9835   1.0944809001e+02   3.2787339033e+01    0.5125341    0.2829339  69.97  0.001413638    2.503    0.600
       265  -9.4756     49.8692    155.6629   1.1714512581e+02   3.6865327965e+01    0.4179041    0.1931812  64.11  0.001456448    2.748    0.636
       266  -9.1899    233.3148    147.6187   7.4732392676e+01   4.7902544376e+00    0.3151529     0.198079 -32.81  0.001093572    1.497    0.332
       267  -8.9793    237.4204    150.4917   7.4657254378e+01   3.5424728361e+00    0.2218818    0.1338224  44.27 4.831191e-05    1.727    0.421
       268  -9.8489    242.5507    155.0284   7.4772946332e+01   1.8766092926e+00    0.2266095    0.2000926  63.72  0.000392936    1.541    0.351
       269  -8.0781    204.8426    155.1851   8.1720563989e+01   9.2318050043e+00    0.2115703     0.197105 -60.29 0.0006584732    1.293    0.226
       270  -8.5577    144.4359    154.8001   9.4538238167e+01   2.1765744512e+01    0.2807266      0.21991  71.96 0.0008368833    1.497    0.332
       271  -9.7458    132.7805    153.0964   9.6895987146e+01   2.4422958311e+01    0.4718235    0.3369599  78.32   0.00128972    1.862    0.463
       272  -9.4334    133.5117    148.5213   9.5786878013e+01   2.5273199174e+01    0.3995731    0.2507396 -44.20  0.001807419    1.658    0.397
       273  -9.5800     68.2461    153.9506   1.1255934943e+02   3.4950059085e+01    0.4150393    0.2298395  69.42  0.001446941    2.270    0.559
       274  -8.1134    232.8849    154.1458   7.6261640444e+01   3.8351069893e+00     0.200363    0.1868448 -40.87 0.0005901268    1.279    0.218
       275  -8.6018    151.8589    152.6484   9.2394823292e+01   2.0715225895e+01     0.292205    0.1970154 -65.22  0.001115009    1.878    0.468
       276 -10.9346     54.9415    143.2699   1.1427151146e+02   3.9130971783e+01     1.062511    0.5316621 -77.72  0.003264385    2.061    0.515
       277  -8.1105    182.4639    151.4625   8.5434794419e+01   1.4565763782e+01    0.2536237    0.1380255 -51.86 0.0007913965    2.214    0.548
       278  -8.8022     98.3312    150.9552   1.0476484293e+02   3.1119398787e+01    0.2968559    0.2018748 -82.83  0.001015201    1.709    0.415
       279  -9.5392     29.3337    150.5963   1.2133772160e+02   4.0202438739e+01    0.4646376    0.2069156  74.98  0.001915092    2.938    0.660
       280  -8.6310     19.7921    152.4181   1.2369199990e+02   4.0669496103e+01    0.1949981    0.1062721  68.33  0.001053321    1.814    0.449
       281  -9.6805    248.8955    149.4412   7.2478588320e+01   1.5526437532e+00    0.3585147    0.1984598 -31.38 0.0007577848    1.644    0.392
       282  -8.9198    247.0493    143.8448   7.1540473524e+01   2.7483267557e+00    0.2993747    0.1945001 -17.47 0.0007180956    1.532    0.347
       283  -8.1665    250.4724    140.9770   7.0336033291e+01   2.5450337243e+00    0.2009717    0.1630563 -20.53 0.0005376482    1.085    0.078
       284  -9.9503    243.0757    150.2851   7.3640787025e+01   2.5045859424e+00    0.3275002    0.1762034 -39.05  0.001019285    1.833    0.455
       285  -9.6533    240.2171    145.4148   7.3041059579e+01   3.8033091162e+00    0.2760919    0.2492229 -60.33  0.001608343    1.443    0.307
       286  -9.7761    242.6660    143.3287   7.2156264912e+01   3.6603350081e+00    0.3729121    0.2240741 -19.06   0.00175534    1.737    0.424
       287  -8.6740    189.4001    150.4986   8.3775896615e+01   1.3284274107e+01    0.2802009    0.2355223 -63.08 0.0006574126    1.451    0.311
       288  -8.4032    162.7899    150.7089   8.9522169430e+01   1.8851935853e+01      0.26934    0.1960818 -75.34 0.0007777638    1.959    0.490
       289  -8.2690    213.1225    149.8156   7.8922915969e+01   8.4671050084e+00    0.2031741     0.195282 -44.80 0.0004476763    1.205    0.170
       290 -10.2711     89.4219    146.5429   1.0618133895e+02   3.3574097816e+01    0.6783718    0.3678617 -89.76  0.002421877    3.452    0.710
       291  -9.9327     39.4143    147.5653   1.1862666446e+02   3.9882173808e+01    0.4906459    0.2375175  70.93  0.001612953    2.657    0.624
       292  -8.3075    198.8713    149.0725   8.1532605558e+01   1.1552428596e+01    0.2191535    0.1985755 -75.11 0.0005984269    1.378    0.274
       293 -10.5102    107.0865    144.2175   1.0134648353e+02   3.1167104529e+01    0.8690276    0.5908046 -83.32  0.002432059    1.861    0.463
       294 -10.2264    149.1061    145.2001   9.1416107188e+01   2.2838727405e+01    0.5935829    0.4078312  88.75  0.001885904    2.408    0.585
       295  -9.2210     78.2332    147.3263   1.0909793304e+02   3.5085972948e+01    0.3422734    0.2061405  79.29   0.00122548    2.209    0.547
       296  -8.1471    223.4543    146.9541   7.6349532382e+01   6.8531980657e+00    0.2086874    0.1332375 -34.66 0.0004822497    1.505    0.336
       297  -9.9932    139.1088    144.8137   9.3673619938e+01   2.4964379108e+01    0.5717423    0.3020239 -63.52  0.001262213    2.694    0.629
       298  -9.2138    139.9911    137.0153   9.1734858736e+01   2.6475991746e+01    0.3525399    0.2374002   7.66 0.0007161495    2.639    0.621
       299  -9.0964     13.1263    145.7613   1.2458305634e+02   4.2721420081e+01    0.4091849    0.1655806  74.02  0.001322698    3.162    0.684
       300  -7.8521    175.4201    146.1993   8.5750938906e+01   1.7075747504e+01    0.2045232    0.1423387 -53.47 0.0006194275    1.622    0.384
       301  -9.8731    125.1640    142.8959   9.6618348147e+01   2.8135108568e+01     0.581421    0.3728403 -85.54  0.001478886    2.578    0.612
       302  -8.3157    124.6879    136.6510   9.5393495639e+01   2.9623800762e+01    0.2342641    0.1835943  -9.60  0.001097414    1.778    0.437
       303  -7.8560    194.3539    144.2218   8.1332376963e+01   1.3394531900e+01    0.2063942    0.1350721 -47.25 0.0005044094    1.652    0.395
       304  -8.6931    165.5453    143.9921   8.7411772250e+01   1.9626441809e+01    0.2567276    0.2278936 -81.84  0.000608075    1.314    0.239
       305 -11.0004     68.5693    139.3726   1.1022942289e+02   3.8305667922e+01    0.9819435    0.4931399 -73.08  0.003733755    2.115    0.527
       306  -9.2908      2.6779    142.0032   1.2663018940e+02   4.4345985361e+01    0.3162783     0.155435  77.73  0.001128342    1.954    0.488
       307  -8.3824    182.0584    142.0294   8.3373584229e+01   1.6456722238e+01    0.2304654    0.1879652 -81.03 0.0004993108    1.651    0.394
       308  -9.7197     23.3728    138.0630   1.2139082614e+02   4.3610763113e+01    0.5402737    0.2516279  74.37  0.002055851    2.702    0.630
       309  -8.5387    172.4451    138.4941   8.4616503994e+01   1.9240577307e+01    0.3152661    0.2269034 -83.60 0.0009148401    2.248    0.555
       310  -8.3285     88.9884    138.0059   1.0473801793e+02   3.5632202691e+01    0.3302555     0.214462 -23.60  0.001385001    2.717    0.632
       311  -8.1199    241.2736    138.3368   7.1256994957e+01   4.7144077260e+00    0.1436375    0.1014339   0.44 0.0003238426    1.605    0.377
       312  -8.2712    207.6185    138.0896   7.7271421292e+01   1.1666731499e+01     0.232097     0.175629 -50.85 0.0006444568    1.499    0.333
       313  -8.7456    197.7117    137.5550   7.9093496094e+01   1.3899643362e+01    0.2813739    0.2296184 -55.25 0.0008448445    1.410    0.291
       314  -8.7581    150.7304    136.3743   8.9040014725e+01   2.4365916993e+01     0.475775    0.2999116  11.73  0.001678932    3.095    0.677
       315  -7.8955    192.2688    136.9657   8.0055382631e+01   1.5195818533e+01    0.1942922    0.1300596 -38.15 0.0008773571    1.481    0.325
       316  -8.4837    162.6690    136.5668   8.6337838739e+01   2.1759440554e+01    0.2518196    0.1878981 -66.16 0.0007441338    1.665    0.399
       317  -9.4255     39.2237    136.0612   1.1721652783e+02   4.2570797372e+01    0.3459996    0.1985984  78.84  0.001085016    1.984    0.496
       318  -8.5515    247.0052    130.3281   6.8471159262e+01   4.8572737308e+00    0.2562869    0.1748759 -42.52 0.0004572336    1.489    0.329
       319  -8.9184    248.6342    135.3034   6.9349936111e+01   3.7661535260e+00    0.3207218    0.2041437 -36.96 0.0008605781    1.470    0.320
       320  -8.7991    250.7776    130.2878   6.7858550696e+01   4.1318654933e+00    0.4698532    0.1247108 -30.54  0.001423326    3.940    0.746
       321  -7.9538    187.8023    135.7604   8.0688577148e+01   1.6403686914e+01    0.2012865    0.1811158 -76.65 0.0003971964    1.329    0.247
       322 -10.3978     83.4564    132.7249   1.0517971363e+02   3.7733425773e+01    0.5882875    0.3211569 -71.88  0.001246747    2.104    0.525
       323  -8.8450     84.2282    123.4884   1.0314094764e+02   3.9796356423e+01    0.4825642    0.3251398   5.85  0.002110246    2.564    0.610
       324  -9.2991    112.8258    133.2220   9.7636036079e+01   3.2652245658e+01    0.4062855    0.2856223 -76.00  0.001305418    1.717    0.417
       325  -8.0289    237.4905    133.9595   7.0886764056e+01   6.1615758733e+00    0.2145035    0.1286627 -35.07 0.0007807597    1.542    0.351
       326  -8.4458    179.3212    133.8889   8.2029412143e+01   1.8638625531e+01    0.2504338    0.2123336  62.56 0.0004977721    1.312    0.238
       327  -8.0836    206.7773    146.5305   7.9395744330e+01   1.0349593122e+01    0.1916869    0.1424859  58.89 0.0006087205    1.609    0.379
       328  -7.5022    231.3040    133.7061   7.1890641825e+01   7.4539694157e+00    0.1359042    0.1132912 -64.60 0.0002180136    1.577    0.366
       329  -9.1777    142.9830    131.7368   8.9793035756e+01   2.6998577975e+01    0.3753123    0.2747972 -82.69 0.0008494639    1.917    0.478
       330 -10.0772    132.3886    131.5074   9.2325056436e+01   2.9240313624e+01    0.5161825    0.3737157  87.11  0.001332301    1.958    0.489
       331 -10.4189     98.1855    130.2278   1.0079865536e+02   3.5943953142e+01    0.6809765    0.3324546 -57.90  0.001556377    1.998    0.500
       332  -8.8405     99.0092    120.7777   9.8526831649e+01   3.8008471000e+01    0.6731957     0.374658  14.68  0.002110126    4.534    0.779
       333  -9.5114    152.8918    129.1742   8.6822794598e+01   2.5426285981e+01      0.44952    0.2995075 -68.50 0.0009116847    2.109    0.526
       334 -10.0708     72.9370    129.2793   1.0732844965e+02   4.0090770367e+01    0.4033179    0.2735763 -88.21  0.001187789    1.697    0.411
       335 -10.1530     12.7529    128.4732   1.2295706996e+02   4.6667239141e+01    0.6134111    0.2632193 -87.65   0.00281686    2.349    0.574
       336  -8.1159    220.7477    129.9947   7.2886874026e+01   1.0278963881e+01    0.1925416    0.1198959 -33.42 0.0005659569    1.521    0.342
       337  -8.0373    204.5150    130.5023   7.6057129306e+01   1.3700808445e+01    0.1500815    0.1426573 -11.62 3.373743e-05    1.025    0.024
       338  -8.0996    192.7072    130.0571   7.8298544671e+01   1.6396778649e+01    0.2167336    0.1839349 -32.96 0.0004407815    1.156    0.135
       339  -9.0337    168.2498    129.5387   8.3393823533e+01   2.1966672218e+01    0.3049016    0.2427852 -81.04 0.0007819707    1.662    0.398
       340  -8.8514     25.8585    130.0159   1.1983121580e+02   4.5250530084e+01    0.2744779    0.1367681  12.95  0.001283689    3.441    0.709
       341  -8.1407    211.4334    129.1880   7.4414248234e+01   1.2423575328e+01    0.2153887    0.1336611 -46.30 0.0008426646    1.716    0.417
       342 -10.7651     44.8466    123.3993   1.1390590141e+02   4.4960804974e+01     1.095993    0.5267698  80.38  0.003910206    4.062    0.754
       343 -10.0212    118.1732    124.8494   9.4376551437e+01   3.3554556757e+01    0.6746693    0.5067044 -64.83  0.002010596    1.410    0.291
       344 -10.3682     59.9344    124.9820   1.1006705869e+02   4.2837343099e+01    0.7067295    0.3930628  82.49  0.002596109    2.811    0.644
       345  -8.0740    228.4523    125.5181   7.0445194880e+01   9.4067161813e+00    0.1459205    0.1335521 -21.44 0.0006541801    1.039    0.038
       346  -8.8645    179.1609    124.8512   7.9841661033e+01   2.0447728183e+01    0.2772451     0.242639 -62.66 0.0006589724    1.280    0.219
       347  -9.1000    133.9981    124.9192   9.0366308807e+01   3.0367591147e+01    0.4199837     0.196241  33.15  0.001429864    2.852    0.649
       348 -10.2147     28.5183    122.4649   1.1816023182e+02   4.6774765040e+01    0.6682211    0.3178234  77.04  0.002799698    3.154    0.683
       349  -9.8974     26.6772    113.8266   1.1744421885e+02   4.8953452065e+01     0.446603     0.214999  19.02  0.002195121    2.922    0.658
       350  -7.5653    243.7251    124.3368   6.7604374766e+01   6.4548382920e+00    0.1391242    0.1053687 -55.03 0.0004555158    1.607    0.378
       351  -8.0129    188.5328    124.0236   7.7660671056e+01   1.8479306150e+01    0.2323365    0.1486239 -39.75 0.0005477297    1.537    0.349
       352  -9.1321    158.6389    121.7365   8.3635666529e+01   2.5717487563e+01    0.3734416    0.2839171 -85.52  0.001099008    1.847    0.459
       353  -7.8258    202.8012    122.0034   7.4296664162e+01   1.5626128917e+01    0.2068759    0.1164207 -36.10 0.0004014183    1.718    0.418
       354  -8.2182    194.9425    121.9900   7.5844275316e+01   1.7406780237e+01    0.2423508    0.1886047 -71.10 0.0006373873    1.716    0.417
       355  -8.7564    171.9045    121.6712   8.0617530203e+01   2.2729476993e+01     0.291702    0.2219708 -47.05 0.0004517841    1.338    0.252
       356  -9.9785    131.4073    118.9221   8.9543801043e+01   3.2230729725e+01    0.6111485    0.4017966  83.35  0.002043125    2.734    0.634
       357  -9.8273     71.0188    119.5920   1.0600171395e+02   4.2658764513e+01    0.4587895    0.2584926 -68.19  0.001524472    1.774    0.436
       358 -10.2666    141.6670    117.8651   8.6708947760e+01   3.0283909959e+01    0.7500355     0.361024 -47.42  0.002047539    2.074    0.518
       359  -9.4910      2.9661    117.3399   1.2425751636e+02   4.9870862423e+01    0.4604656    0.2066381  76.41  0.002074902    2.709    0.631
       360  -9.9711    109.3589    114.4791   9.4234546466e+01   3.7598884917e+01    0.5510326    0.3634773 -78.61  0.001597381    2.233    0.552
       361  -9.3287    109.7468    107.6945   9.2425389176e+01   3.9070469604e+01    0.4358602    0.2929259  -0.10  0.001693675    2.715    0.632
       362  -7.8592    219.4639    116.5339   6.9831670659e+01   1.2875664298e+01    0.1488863    0.1390444 -30.76 4.647488e-05    1.060    0.057
       363  -8.3131    193.0856    115.4433   7.4549827738e+01   1.9058088645e+01    0.2499704    0.2057811 -55.63 0.0006996407    1.337    0.252
       364  -7.6145    185.7700    116.0624   7.6204822639e+01   2.0636347754e+01    0.2037959    0.1266788 -39.03 0.0004811824    1.573    0.364
       365  -8.9900     59.5755    115.1271   1.0836107419e+02   4.5224260368e+01     0.331598    0.2119522 -10.72  0.001466283    2.874    0.652
       366  -8.5492    250.1247    115.2729   6.4462352710e+01   6.6033377652e+00    0.2180251    0.1669481  25.88  0.001165453    1.455    0.313
       367  -7.5717    153.2715    115.6372   8.3326525193e+01   2.8195823318e+01    0.1598236    0.1238243 -74.74 0.0005848017    1.656    0.396
       368 -10.3168     92.7365    111.1973   9.8048546518e+01   4.1311262026e+01    0.9516239    0.4243555 -54.77  0.002290659    2.122    0.529
       369 -10.0220     78.8714    112.6139   1.0232083224e+02   4.3179841581e+01    0.5276395    0.3404723  88.51  0.001564415    2.312    0.568
       370  -7.8679    167.4879    114.4820   7.9742266059e+01   2.5188877291e+01    0.1557358    0.1534525 -44.25  6.96275e-05    1.033    0.032
       371 -10.3932    133.7467    109.2996   8.6466049348e+01   3.3847600090e+01    0.7369862    0.3264895 -50.90  0.002065613    2.401    0.584
       372 -10.1910    122.0369    112.4697   9.0337106017e+01   3.5586218361e+01    0.5841202    0.3249139 -41.58   0.00162552    1.805    0.446
       373  -9.6523    119.0751    107.4774   8.9830269417e+01   3.7296387055e+01    0.4944485    0.2762368 -49.78  0.002042619    1.744    0.427
       374 -10.5411    109.1916     99.0468   9.0287222444e+01   4.1117586289e+01    0.8137743    0.4894429  68.89  0.002045758    2.973    0.664
       375  -9.0883    108.1615     92.5280   8.8759905612e+01   4.2752616965e+01    0.4828968    0.2898159  26.29  0.001966094    2.223    0.550
       376  -9.9611     14.1320    111.3515   1.2057553064e+02   5.0502162893e+01    0.3656614    0.1965684  74.14  0.001477448    2.240    0.554
       377  -8.5376    174.8036    112.0873   7.7494857457e+01   2.3964998403e+01     0.245711    0.2104111 -67.81 0.0007876974    1.341    0.254
       378  -9.4227    157.5260    111.9442   8.1352555369e+01   2.7998827280e+01    0.4766174    0.2537875  44.82  0.001182165    1.908    0.476
       379 -10.2277     66.3028    109.6950   1.0532765762e+02   4.5646223464e+01    0.6082236    0.3107836 -64.34  0.001954063    1.879    0.468
       380  -7.5344    149.7239    110.3159   8.2769544632e+01   3.0111063857e+01     0.155767    0.1247924 -77.63 0.0002885345    1.567    0.362
       381  -8.9901     43.2195    109.5286   1.1203772721e+02   4.8412027548e+01       0.2799    0.1373756  23.71  0.001308137    2.670    0.625
       382  -9.9129    248.7253    107.9830   6.2942198130e+01   8.0327064408e+00    0.3875106    0.2778615   6.69  0.001921304    1.745    0.427
       383 -10.4175    249.0046    102.9335   6.1689617121e+01   8.7684640585e+00    0.4267657     0.343225 -13.27  0.002347021    1.252    0.201
       384  -9.1582    212.9472    107.6555   6.8756172161e+01   1.5886502960e+01    0.2726763    0.2035779 -14.81 0.0006840468    1.469    0.319
       385  -8.1401    189.2025    108.1608   7.3429575355e+01   2.1332900195e+01    0.2207774    0.1811532 -59.92 0.0006197187    1.373    0.272
       386  -9.5689    139.8475    104.6085   8.3652465285e+01   3.3525666056e+01    0.4846164    0.3093102 -55.17  0.001121821    1.733    0.423
       387  -8.8629     78.3337    105.3491   1.0082885866e+02   4.4966304976e+01    0.2961756     0.216014 -27.16  0.001108044    1.676    0.403
       388 -10.5930     45.7419    102.5942   1.0999825517e+02   4.9781318925e+01    0.7629688    0.4223365  74.86  0.003135912    3.180    0.686
       389 -10.6961     22.8074    102.5904   1.1685210451e+02   5.1886355388e+01    0.6772735    0.3460858  77.64  0.002872496    2.952    0.661
       390  -8.5458    166.7818    104.2454   7.7151796391e+01   2.7403571889e+01    0.2764257    0.2047946 -51.85 0.0006626067    1.429    0.300
       391  -9.5348    150.5760    103.1770   8.0620236573e+01   3.1403083255e+01    0.4669343    0.2976228 -62.20  0.001103349    2.091    0.522
       392 -10.0363    128.4586    102.1945   8.5912572005e+01   3.6517074804e+01    0.3875121    0.2943429 -65.71 0.0007783229    1.539    0.350
       393  -9.9178      6.5525    102.3227   1.2152692683e+02   5.3071043886e+01    0.3927495    0.1996766 -83.46   0.00212263    1.786    0.440
       394  -7.6768    175.5411    102.4583   7.4740267077e+01   2.5669893256e+01    0.1573309     0.151914 -57.71 0.0001885743    1.071    0.066
       395  -8.2769    159.8132    101.0886   7.7862389754e+01   2.9678277768e+01    0.2467568    0.2082119 -66.58 0.0005637359    1.346    0.257
       396  -9.4964     82.0930     99.4012   9.8272203572e+01   4.5772097660e+01    0.5582448     0.247095 -56.84  0.001212905    2.197    0.545
       397 -10.2168     63.9386     96.6017   1.0313147149e+02   4.9029685780e+01    0.6669982    0.3491394 -72.38  0.001944982    2.568    0.611
       398  -8.8987     64.9594     88.0075   1.0070567375e+02   5.0870767868e+01       0.4572    0.2636986  -2.03  0.001699693    3.784    0.736
       399  -9.3859     95.0074     96.9283   9.3794602773e+01   4.4198746479e+01    0.4263668    0.2254198 -54.68  0.000649109    1.868    0.465
       400  -7.4286    183.7169     96.7230   7.1446619858e+01   2.4788276465e+01     0.153518    0.1223028  12.29 0.0002169523    1.508    0.337
       401  -8.7335    151.1949     95.6495   7.8347928760e+01   3.2795693242e+01    0.3468899    0.1906793  26.67    0.0011453    3.006    0.667
       402  -8.1242    164.8493     94.1631   7.4759945636e+01   2.9845313652e+01    0.2413477    0.2096688 -63.03 0.0004062438    1.261    0.207
       403 -10.6562    124.0612     90.8196   8.3845512478e+01   3.9882564381e+01    0.7420118     0.543568 -21.86  0.001521172    1.591    0.371
       404  -9.6555    247.1479     92.8382   5.9513559848e+01   1.0738417909e+01    0.2948934    0.1832217  25.49  0.001286949    2.328    0.570
       405  -8.7004     46.4459     92.6422   1.0773428244e+02   5.2029586026e+01     0.359864    0.1725332  19.54  0.001584413    2.961    0.662
       406  -9.7988      5.1883     92.0253   1.2052652770e+02   5.5492130882e+01    0.3437183    0.1985707  64.17  0.001454731    2.181    0.542
       407  -9.7457     34.7558     89.8751   1.1089224413e+02   5.3825729855e+01    0.4797545    0.2429079 -79.11  0.001841631    2.502    0.600
       408  -9.1864     23.0348     90.3605   1.1472607269e+02   5.4693671189e+01     0.272127    0.2272957   0.99  0.001328765    1.529    0.346
       409  -8.1299    176.2436     93.1785   7.2004642528e+01   2.7269378978e+01    0.2254188    0.1822831 -63.19 0.0007369926    1.414    0.293
       410  -7.9132    151.1252     89.1685   7.6477181262e+01   3.4104101920e+01     0.218456    0.1829563 -62.01  0.000386179    1.329    0.247
       411 -10.1437     86.4378     85.9853   9.3362536824e+01   4.8103920312e+01     0.650631     0.386617 -59.38  0.001694482    1.840    0.456
       412  -7.7060    164.4246     87.4371   7.2907120154e+01   3.1238599648e+01    0.1568244    0.1515425 -55.63 0.0001085068    1.059    0.056
       413  -9.9501     48.5816     84.2338   1.0512113434e+02   5.3728606870e+01    0.5508735    0.3487613 -84.43  0.002324694    2.259    0.557
       414  -8.3899    157.9062     84.2403   7.3428588546e+01   3.3431255235e+01    0.2732934    0.2042281 -47.58  0.000599454    1.369    0.270
       415  -9.4178    105.9647     71.8579   8.3085592987e+01   4.7513480404e+01    0.5204713    0.2084756 -43.48  0.001257324    2.383    0.580
       416  -9.7650    104.8705     83.3026   8.7004378450e+01   4.5373453764e+01    0.4603679     0.333895 -73.98 0.0009814474    1.960    0.490
       417  -8.9771    105.1739     77.1744   8.5023875722e+01   4.6593472901e+01     0.396239    0.2438471  18.57  0.001532249    2.479    0.597
       418  -9.1240    140.8845     82.9246   7.7096987652e+01   3.7736013522e+01    0.3469391    0.2138813 -51.80  0.000753369    1.803    0.445
       419  -9.5792    138.9877     91.8412   8.0245567571e+01   3.6383484688e+01    0.4939752    0.3005716 -48.66  0.001351014    1.690    0.408
       420  -9.6815      9.7897     81.2150   1.1738151419e+02   5.7667095732e+01    0.3196232     0.194565  81.52  0.001195136    2.048    0.512
       421  -7.8744    157.7890     91.6014   7.5626642793e+01   3.2039948533e+01    0.2093719    0.1538485  63.29 0.0003069002    1.537    0.349
       422  -9.8048     24.5282     80.5072   1.1234836999e+02   5.6824404204e+01    0.4578182    0.2573563 -84.50  0.001589984    2.270    0.559
       423  -8.3294    150.2714     80.6382   7.4114762035e+01   3.5958818456e+01    0.2977587     0.180316 -47.70 0.0008653391    1.735    0.424
       424  -8.6337    119.4635     80.6063   8.2013638210e+01   4.2974365937e+01    0.2885242    0.2318762 -89.20 0.0007671725    1.695    0.410
       425  -9.0048     74.5062     80.3598   9.5543852165e+01   5.1228186034e+01    0.3213317    0.2146636 -67.46  0.001103116    1.830    0.454
       426  -8.4693    166.8190     79.5284   7.0038628552e+01   3.2118926602e+01    0.2779183    0.2133259 -35.77 0.0004569637    1.282    0.220
       427  -7.6849    174.7312     78.3753   6.8032222538e+01   3.0354332864e+01    0.1642175    0.1188114 -62.62 0.0004688157    1.679    0.404
       428 -10.0101     63.5455     74.1181   9.7393974826e+01   5.4151777421e+01     0.643683    0.2945873 -62.93  0.002272212    2.979    0.664
       429  -9.4127    128.0343     75.1175   7.7957918014e+01   4.2193710733e+01    0.4534883    0.2732258 -49.92  0.001306645    1.803    0.445
       430  -8.3780    140.4710     75.4744   7.4882887138e+01   3.9267449409e+01    0.2653977    0.2079563 -71.66 0.0006688553    1.642    0.391
       431  -9.9281     82.5768     71.3524   9.0196594052e+01   5.1884759341e+01    0.9186277    0.3627783 -44.81  0.002113638    2.290    0.563
       432  -8.1815    163.4607     73.4593   6.8922735026e+01   3.4045538367e+01    0.2734594    0.1373339 -45.20 0.0009257406    2.080    0.519
       433  -8.4755    151.2043     73.2243   7.1596512927e+01   3.7112457719e+01    0.2183562    0.1852067 -67.65  0.000729789    1.360    0.265
       434  -8.7304    115.5076     73.0622   8.0721286666e+01   4.5319503151e+01    0.3102497    0.2043457 -44.96 0.0007485893    1.499    0.333
       435  -8.7917    115.8130     68.5313   7.9145430134e+01   4.6132961814e+01    0.2769943     0.231827 -46.93 0.0004867851    1.228    0.185
       436  -8.6802     42.4399     72.2331   1.0421975947e+02   5.7069502018e+01    0.2937652    0.1194924 -65.39  0.001130165    2.964    0.663
       437  -7.8595    175.4940     72.5610   6.6145474954e+01   3.1180181893e+01    0.1533579    0.1523657 -38.48  0.000187772    1.009    0.009
       438  -9.3146     95.0548     71.0369   8.6124285759e+01   4.9769022267e+01    0.3786353    0.2166528 -54.71 0.0007845298    2.019    0.505
       439  -9.5703     97.5754     60.3799   8.1746177522e+01   5.1379507144e+01    0.4014697    0.2785029 -33.80  0.001508829    1.361    0.265
       440  -9.8010     51.4645     69.8309   1.0036439470e+02   5.6602450569e+01     0.445391    0.2325422 -67.06  0.001488124    2.534    0.605
       441  -9.1706     16.6602     70.2076   1.1292330901e+02   5.9689679008e+01    0.2516727    0.1727291 -88.29 0.0009229591    1.733    0.423
       442  -7.5727    157.2810     69.7034   6.9109941557e+01   3.6247417818e+01    0.1541493     0.122002 -69.02 0.0002048332    1.539    0.350
       443  -8.8988    147.0481     68.2073   7.0973036934e+01   3.9027231536e+01    0.3253352     0.211398 -40.25  0.000547956    1.527    0.345
       444  -8.5705    138.6593     66.2333   7.2351019662e+01   4.1395363083e+01    0.2841361    0.2171147 -58.23 0.0007397066    1.536    0.349
       445  -8.8969    121.5808     66.0152   7.6706284364e+01   4.5355204222e+01    0.3064328    0.2431903 -69.39 0.0007237726    1.646    0.392
       446  -8.7928     64.4530     63.7157   9.3907655519e+01   5.6231376331e+01    0.4719518     0.267969  -7.85  0.001786653    3.505    0.715
       447  -8.7775     37.4731     64.4519   1.0393151932e+02   5.9256973280e+01    0.2558937    0.1900331 -81.63 0.0009118323    1.756    0.430
       448  -9.0994    110.0597     63.7370   7.9169374884e+01   4.8250374243e+01    0.2927745    0.2294921 -55.16 0.0006082339    1.459    0.315
       449  -9.2329     28.9941     70.8029   1.0865198929e+02   5.8635109138e+01    0.3198936    0.1618186 -31.39  0.001546883    2.332    0.571
       450  -8.0298    157.9015     61.8260   6.6473990022e+01   3.7442012182e+01    0.2061633    0.1809642 -70.14  0.000320805    1.278    0.217
       451  -9.5937     73.3364     59.7398   8.9482452931e+01   5.5725249119e+01    0.3576061    0.2273906 -54.82  0.001087969    1.744    0.427
       452  -8.3335    212.1142     59.5294   5.6012250699e+01   2.4037314879e+01    0.3076138    0.2001179 -10.60  0.001323792    2.024    0.506
       453  -8.2915    147.1559     59.1552   6.7991969844e+01   4.0561968843e+01    0.2169032    0.1769849 -55.23 0.0006029289    1.359    0.264
       454  -7.9901     88.8715     59.5925   8.4225387996e+01   5.3148342972e+01    0.1831131    0.1369594  54.49 0.0004653008    1.653    0.395
       455  -9.9027     23.4782     56.4770   1.0707631160e+02   6.2168891365e+01    0.4086701    0.2559138 -87.48  0.001989567    2.670    0.625
       456  -9.6340      7.5845     57.3700   1.1346114750e+02   6.3022586547e+01    0.2891518     0.197166  89.65  0.001013015    1.865    0.464
       457  -8.3220    130.8501     58.0557   7.1555985351e+01   4.4666117110e+01    0.2298456    0.2032444 -62.95 0.0005401935    1.303    0.232
       458  -9.3317    119.2431     55.5527   7.3733097339e+01   4.7743451402e+01    0.5055704    0.2308566 -43.19  0.001392793    2.280    0.561
       459  -9.4982     54.2618     55.5697   9.4947973001e+01   5.9242499129e+01    0.3754809    0.2157758 -59.20  0.001104351    2.036    0.509
       460  -8.2440    139.7586     56.1994   6.8729271317e+01   4.2858842125e+01    0.2408091    0.1844584 -49.79 0.0005052401    1.427    0.299
       461  -8.8038     44.0140     55.4565   9.8798590244e+01   6.0471597310e+01     0.272542    0.1704276 -63.24  0.001220995    1.853    0.460
       462  -8.7555    105.8437     53.2749   7.6708641053e+01   5.1015961659e+01    0.3068161    0.1926935 -48.92 0.0005330419    1.812    0.448
       463  -9.4642     92.3606     50.7414   7.9908100799e+01   5.4131312017e+01    0.3767883    0.2337892 -48.49  0.001002309    1.801    0.445
       464  -8.2312    144.9727     49.4382   6.5219102003e+01   4.2661526986e+01    0.2464238     0.194631 -28.99 0.0006675345    1.275    0.215
       465  -7.7873    158.4921     49.5070   6.2351721122e+01   3.9249902211e+01    0.1513094    0.1462838  29.61 -8.245899e-05    1.024    0.024
       466  -8.1826    129.9863     49.0151   6.8612837392e+01   4.6357267053e+01    0.2305915    0.1832877 -68.37 0.0005857763    1.635    0.388
       467  -8.6548    120.8855     47.5897   7.0431672306e+01   4.8692457959e+01    0.2416029    0.1937299 -15.71 0.0005559592    1.262    0.207
       468  -8.4730    112.2202     46.9743   7.2558971352e+01   5.0719687358e+01    0.2174035    0.1909486 -50.46 0.0006003944    1.298    0.230
       469  -9.0754     82.0640     46.5744   8.1715883875e+01   5.6741119822e+01    0.2471558    0.2096941 -43.59 0.0005324307    1.278    0.218
       470  -8.3563     45.0493     44.8497   9.4813027497e+01   6.2455509041e+01    0.1786511    0.1595894 -47.63 0.0004240429    1.267    0.211
       471  -8.8975     16.7734     44.7296   1.0647480937e+02   6.5083799670e+01    0.2263667    0.1410432 -63.83 0.0006648566    1.581    0.367
       472  -8.8159    132.9766     43.5409   6.5930254972e+01   4.6485171061e+01    0.2781444    0.1987415 -47.34 0.0006778365    1.561    0.359
       473  -9.0189     58.0931     42.5268   8.8820137937e+01   6.1232368212e+01    0.3117832    0.1750154 -54.51  0.001152361    2.246    0.555
       474  -9.6161      5.1881     41.9549   1.1060977495e+02   6.6352985898e+01    0.3382168    0.1964535 -75.77  0.001623937    2.090    0.522
       475  -9.3374     69.5099     41.0035   8.3951902635e+01   5.9806270992e+01     0.508056    0.2337092 -44.28  0.001830263    2.146    0.534
       476  -9.3139    105.9142     41.0206   7.2093697091e+01   5.3016092761e+01    0.3709444    0.1805451 -38.50  0.001154727    2.055    0.513
       477  -8.5030     36.7898     40.9226   9.6785121902e+01   6.4107483899e+01     0.217092    0.1585566 -59.24 0.0007183533    1.591    0.371
       478  -7.8776    160.4936     39.5993   5.8693426706e+01   4.0164813930e+01    0.1473798    0.1411661  60.72 0.0001558913    1.027    0.026
       479  -8.5369     95.5232     38.0146   7.4007597770e+01   5.5621180309e+01    0.2280214     0.186119 -57.96 0.0006372939    1.620    0.383
       480  -8.2193     80.6447     36.8237   7.8345071591e+01   5.8624312461e+01    0.1916528    0.1168236 -41.43 0.0004345666    1.682    0.405
       481  -9.4779     26.1704     35.5207   9.9399131309e+01   6.6145633988e+01    0.2809561    0.1806982 -58.11 0.0008687727    1.670    0.401
       482  -8.5618     92.8688     43.2183   7.6885109177e+01   5.5315337926e+01    0.2835597    0.1746288  -8.04  0.001228092    2.169    0.539
       483  -8.2093    125.9667     35.7136   6.4755627854e+01   4.9280962965e+01    0.1991418    0.1812788  42.87 0.0003500864    1.082    0.076
       484  -8.5920    111.7970     34.7049   6.8000071885e+01   5.2672434400e+01    0.2718737    0.1831344 -39.80  0.000534312    1.582    0.368
       485  -8.4435    140.0502     41.2838   6.3492443465e+01   4.5092466242e+01    0.2056489    0.1932492  38.13 0.0004660836    1.030    0.029
       486  -8.0186     88.5183     34.5124   7.4793856212e+01   5.7526469123e+01    0.1380499    0.1237031  -4.20 4.912824e-05    1.043    0.041
       487  -8.8719     48.5206     33.5942   8.9093072730e+01   6.4088583310e+01     0.222773    0.1893327 -44.94 0.0007709597    1.362    0.266
       488  -8.6256    119.2007     32.9982   6.5404674122e+01   5.1233264021e+01    0.2512371    0.1587451 -36.50 0.0006927029    1.635    0.388
       489  -8.8727     60.7138     32.6034   8.3822202550e+01   6.2571476504e+01    0.2360256     0.155008 -34.03 0.0005184675    1.352    0.260
       490  -8.1223    139.4011     32.1436   6.0380742356e+01   4.6501141537e+01    0.2096598    0.1283406 -40.08  0.000939803    1.733    0.423
       491  -8.6415     71.9890     30.9103   7.8903130364e+01   6.1052617881e+01    0.2272718    0.1651667 -54.21 0.0008818392    1.951    0.488
       492  -8.9199     12.8779     30.4084   1.0360678922e+02   6.8147980925e+01    0.2995169    0.1537607 -62.11   0.00160457    2.139    0.533
       493  -8.3472    101.4746     29.5011   6.8795776164e+01   5.5632613354e+01    0.2217506    0.1855062 -63.95 0.0006302638    1.641    0.391
       494  -7.8057     41.6987     30.3049   9.0603566825e+01   6.5492519860e+01    0.1079254   0.09762964 -62.17            0    1.594    0.372
       495  -8.9282     81.4355     27.5967   7.4205972832e+01   5.9875837752e+01    0.2603086      0.21516 -52.25  0.000913411    1.615    0.381
       496  -9.0584      3.4154     27.6383   1.0712302220e+02   6.9251338358e+01    0.2366589    0.1699092 -71.29  0.001318371    1.711    0.416
       497  -8.8795     91.8563     26.3621   7.0341694348e+01   5.8039343744e+01     0.281969    0.1742505 -41.53 0.0005660787    1.830    0.454
       498  -8.6709    150.4274     26.1940   5.6065473741e+01   4.4465019310e+01    0.2065631    0.1293242 -39.13 0.0009487824    1.679    0.404
       499  -8.1686     34.9916     23.4888   9.0660479064e+01   6.7409671678e+01    0.1460596    0.1038252  53.36 0.0008105121    2.575    0.612
       500  -8.2086    104.4688     22.5347   6.5092314764e+01   5.5890891403e+01    0.1389194    0.1242959  16.27 3.559284e-05    1.011    0.011
       501  -8.9074     63.6463     21.1636   7.7665180386e+01   6.3867321270e+01    0.2575477    0.1910912 -45.97 0.0008183226    1.726    0.421
       502  -8.9697     48.3073     21.6582   8.4024037956e+01   6.6067187205e+01    0.2348699    0.1874809 -32.17 0.0006775671    1.264    0.209
       503  -7.9554    120.6737     20.8565   6.0334169240e+01   5.2411595785e+01     0.202409    0.1179961 -35.14 0.0007316255    1.807    0.446
       504  -8.0339     19.5419     21.5149   9.7055078687e+01   6.9250795522e+01    0.1167062    0.0903587 -31.13 3.882087e-05    1.069    0.065
       505  -8.3299    140.0000     20.0426   5.5890354903e+01   4.7804357049e+01     0.220009   0.08140667 -24.11 0.0007889188    2.850    0.649
       506  -8.9234     74.1252     19.5682   7.3134133661e+01   6.2305196741e+01    0.2478401    0.1847614 -45.02  0.000653703    1.709    0.415
       507  -8.3065     87.7080     17.6177   6.7816455255e+01   5.9984662456e+01    0.2065946    0.1504108 -41.40 0.0003871977    1.638    0.390
       508  -8.0361     38.6685     18.2374   8.6636780074e+01   6.7826043498e+01    0.1745949   0.09080157 -31.33 0.0006930137    1.631    0.387
       509  -7.7963    112.8436     16.8043   6.0583388157e+01   5.4683128274e+01    0.1739357    0.1605684 -51.85 0.0003208951    1.300    0.231
       510  -7.9671     29.9560     16.1454   8.9684480527e+01   6.9144084107e+01     0.158676    0.1160313 -45.46 0.0005235854    1.559    0.359
       511  -7.9927      7.4161     15.2657   1.0054410192e+02   7.1252017509e+01    0.1510238   0.09195273 -54.96 0.0009445692    1.681    0.405
       512  -7.9847     17.3310     14.2148   9.4995480316e+01   7.0670569517e+01    0.1558976     0.089968 -48.61 0.0004494931    1.696    0.410
       513  -8.9095    218.5835    247.2633   9.6040666498e+01  -6.4681046325e+00    0.3177374    0.1089864 -35.51  0.001520184    3.476    0.712
       514  -9.3657    175.6388    247.3858   1.0353419354e+02   1.8367257521e-01    0.2858551    0.2258636 -62.65  0.001093968    1.827    0.453
       515  -7.6322     47.5298     10.4766   7.8982781876e+01   6.7775872650e+01    0.1217991   0.09922834  -8.71 0.0001017984    1.087    0.080
       516  -8.6720    156.2525    248.3394   1.0708523576e+02   3.1278154408e+00    0.2160302    0.1621418  66.71 0.0008109145    1.567    0.362
       517  -8.8522    132.4482    248.0329   1.1125774404e+02   6.8996515396e+00      0.26879    0.1611341  66.73 0.0006683501    2.023    0.506
       518  -8.4612    113.1545    248.7367   1.1471158319e+02   9.7221218979e+00    0.1843794    0.1371675  84.03  0.001036122    1.471    0.320
       519  -9.3474    103.8405    246.7592   1.1613881517e+02   1.1405932272e+01    0.3789807    0.1945982 -83.74  0.001944508    3.025    0.669
       520  -8.9605    242.8905    246.8043   9.1888610790e+01  -9.9605849363e+00    0.3003511     0.148172 -26.23  0.001628678    2.212    0.548
       521  -8.9733    232.6568    247.0147   9.3623002290e+01  -8.5185170887e+00    0.2680198    0.1746424 -19.79  0.001229972    1.654    0.396
       522 -10.0189    223.9447    244.0650   9.4644278000e+01  -6.9143877854e+00    0.3933355    0.2180016 -42.23  0.002291309    2.519    0.603
       523  -9.4196    211.0305    246.3828   9.7205747316e+01  -5.2245608398e+00    0.3127511    0.1912836 -17.86  0.001225773    2.000    0.500
