#   1 NUMBER                 Running object number                                     
#   2 MAG_AUTO               Kron-like elliptical aperture magnitude                    [mag]
#   3 X_IMAGE                Object position along x                                    [pixel]
#   4 Y_IMAGE                Object position along y                                    [pixel]
#   5 X_WORLD                Barycenter position along world x axis                     [deg]
#   6 Y_WORLD                Barycenter position along world y axis                     [deg]
#   7 A_WORLD                Profile RMS along major axis (world units)                 [deg]
#   8 B_WORLD                Profile RMS along minor axis (world units)                 [deg]
#   9 THETA_WORLD            Position angle (CCW/world-x)                               [deg]
#  10 FWHM_WORLD             FWHM assuming a gaussian core                              [deg]
#  11 ELONGATION             A_IMAGE/B_IMAGE                                           
#  12 ELLIPTICITY            1 - B_IMAGE/A_IMAGE                                       
         1  -9.4307     23.3752     11.7325   6.9659436262e+01   7.0819626649e+01    0.2823439    0.1429545  17.13  0.001503565    2.008    0.502
         2  -9.8519     16.4403     18.3802   7.6649568594e+01   7.0758878995e+01    0.6638362    0.2424511  21.26  0.002051264    2.939    0.660
         3 -11.2794     19.1876     26.5375   7.8750754307e+01   6.9252853956e+01     0.900467    0.3616599 -29.82  0.004150959    2.614    0.617
         4 -11.1647      6.6109     35.7964   8.9358326335e+01   6.8842035807e+01    0.5055575    0.4547386 -34.91  0.003667573    1.354    0.262
         5 -12.2801    107.9655     29.1232   4.6510097471e+01   5.3266832904e+01    0.4325386    0.3527697   8.82  0.002614899    1.410    0.291
         6 -10.5171     74.8662     25.2085   5.4168799359e+01   6.0697280429e+01    0.4474933    0.3225526 -23.31  0.002669862    1.518    0.341
         7 -10.3138    133.3987     30.8203   4.1775552125e+01   4.7301950781e+01    0.4883264    0.2672654 -13.08  0.002184948    2.867    0.651
         8  -8.8707     31.3913     12.7163   6.6035028677e+01   6.9609391411e+01    0.3483918     0.193827  24.14  0.002010625    1.583    0.368
         9 -10.8637     36.1118     17.2632   6.5920035267e+01   6.8375466253e+01    0.5372049    0.3769579  -0.91  0.002373921    1.301    0.231
        10 -10.8258     50.5038     22.1860   6.1797520475e+01   6.5508396839e+01    0.3246507    0.2194383 -11.20 0.0008505972    1.519    0.342
        11 -12.4431    105.1565     21.0934   4.4442213807e+01   5.4746364266e+01    0.3276156    0.3210357  14.63 0.0005030864    1.160    0.138
        12  -9.8446     18.4277     11.8195   7.2403994745e+01   7.1422972501e+01    0.3539116    0.2365485 -51.24  0.002049676    2.694    0.629
        13 -10.0188      1.3692      8.5319   8.1076085479e+01   7.3621397524e+01    0.2022569    0.1108169 -35.98 0.0004995463    1.645    0.392
        14  -9.8738      2.3655     24.9850   8.7720190670e+01   7.1013842728e+01    0.4120961    0.1543462 -45.37  0.002099834    2.233    0.552
        15  -9.7982      7.3473      9.7903   7.7917159249e+01   7.2896928537e+01    0.3273773    0.2016067  11.46  0.001498878    1.362    0.266
        16 -10.0916     13.8748     11.1701   7.4683221110e+01   7.2030796293e+01    0.3353175     0.180155 -17.43  0.001174091    1.835    0.455
        17 -10.2501      5.7343     16.0213   8.1861249671e+01   7.2156985599e+01    0.2620981    0.2443805  -1.25  0.001337354    1.561    0.359
        18 -10.2377      9.3078     14.9947   7.9223963523e+01   7.1976711896e+01    0.3098664    0.1859784   1.65 0.0006556209    1.478    0.324
        19 -10.2208    131.4751     22.2401   3.9579508153e+01   4.8675004231e+01    0.3746908    0.2530473 -14.82  0.002087692    1.921    0.479
        20 -10.9898    151.5141     18.0320   3.5279388420e+01   4.4513122020e+01    0.4274486    0.3169396 -30.10 0.0003524768    1.577    0.366
        21  -9.6416     50.8486     12.2539   5.7225011240e+01   6.6563301970e+01    0.2907356     0.179896  35.32 0.0008492726    1.327    0.246
        22 -10.9753     51.2999      8.2129   5.5200677706e+01   6.6885183193e+01    0.7935108    0.5294355  47.80  0.003205232    1.432    0.302
        23 -10.2963     69.6187     11.6603   5.0354045026e+01   6.3131202492e+01    0.3248109    0.1848562  44.47  0.001093111    1.427    0.299
        24 -11.0008     68.5487     16.9696   5.2898235187e+01   6.2821698125e+01    0.5448091    0.3211564  54.34  0.002982883    1.653    0.395
        25 -11.4966     61.9198     17.3916   5.5344138829e+01   6.4034851833e+01    0.5558006    0.2809153  27.97  0.001662576    2.109    0.526
        26 -11.1925    164.9250     19.3658   3.3865659936e+01   4.1338562608e+01     0.473692    0.3100349  41.70  0.001834085    1.912    0.477
        27 -11.2088    218.2544     18.3194   2.8321304063e+01   3.0096454253e+01    0.5029977    0.2653973 -74.78  0.001667319    1.834    0.455
        28  -9.5329    185.2187     13.3424   3.0196358698e+01   3.7483595656e+01    0.3334859    0.1874754 -89.40  0.001865696    1.699    0.411
        29  -9.5649    185.2354      2.3304   2.7752662707e+01   3.8552945147e+01    0.2985572    0.2022288 -22.04  0.001899826    1.991    0.498
        30 -11.6790    178.0025      3.0276   2.8558162282e+01   4.0043744235e+01    0.4043547    0.2098281  69.26  0.001574202    1.635    0.388
        31 -11.1768    182.3689     18.3178   3.1615853758e+01   3.7582418143e+01    0.2502165     0.232279 -60.36 0.0003706175    1.236    0.191
        32 -11.0981    175.4886     12.7089   3.1042290376e+01   3.9667562888e+01     0.626255    0.3747869  71.58  0.003700028    1.440    0.306
        33  -9.9626    144.0513     16.6754   3.5974226488e+01   4.6351192643e+01    0.4157276    0.1826417 -29.15  0.001987949    2.597    0.615
        34 -10.2992    145.0300     12.7994   3.4770198961e+01   4.6498656835e+01    0.4483948    0.1728855  63.85  0.001151241    2.106    0.525
        35  -9.7717    243.6648     14.0592   2.5719621877e+01   2.5750762051e+01    0.2461802    0.1365975  54.57  0.001398586    2.542    0.607
        36 -10.0253    117.4688     15.2358   3.9968906232e+01   5.2552133015e+01    0.3213565    0.2632822 -49.54  0.001967953    1.409    0.290
        37 -11.0694    228.2618     15.2585   2.6977650617e+01   2.8487432819e+01    0.5242329    0.2200454  71.37  0.002911156    2.221    0.550
        38  -9.8948    210.5239     14.0801   2.8099597624e+01   3.2109155003e+01     0.237482    0.1949682 -38.86  0.001027962    1.445    0.308
        39 -10.0261    211.5033      9.0158   2.7012569738e+01   3.2445911301e+01    0.3081351    0.1375546 -45.09  0.001476686    1.964    0.491
        40 -10.9398    207.4000      3.2664   2.6178170120e+01   3.3853811360e+01    0.4389774    0.2351884 -64.57  0.002663338    1.653    0.395
        41 -11.1542    133.0844     12.6611   3.6498967717e+01   4.9236486364e+01    0.2228202    0.1966863  66.70 0.0002525422    1.065    0.061
        42  -9.5182     98.1275      5.9650   4.0747348954e+01   5.7656414089e+01    0.3473506    0.3059842 -13.55  0.002415738    1.343    0.256
        43  -9.8891    124.5491      3.9380   3.5255627863e+01   5.1920163591e+01    0.4886935    0.2882279  19.32  0.002547693    2.540    0.606
        44 -10.9091    115.6744      1.9723   3.6087700920e+01   5.4071420247e+01    0.3355842    0.1516716  53.45 0.0003268241    1.799    0.444
        45  -9.7417    120.1444      1.9013   3.5332722004e+01   5.3072342802e+01     0.266588    0.2099092 -71.88 0.0009542279    1.415    0.293
        46 -10.0371     96.9627     12.9561   4.3481054258e+01   5.7320595323e+01    0.2014034    0.1661666  48.27 0.0004428366    1.021    0.021
        47 -10.4406    101.0591     11.0774   4.1904530224e+01   5.6589237019e+01    0.3208389    0.2329794  68.73 0.0003614836    1.308    0.236
        48 -10.4205    107.5203      7.0243   3.9199927844e+01   5.5498754711e+01    0.3928987    0.1728398  58.35  0.001413158    1.787    0.440
        49  -9.9559    107.0553      2.2164   3.7688061558e+01   5.5977114341e+01    0.4267085    0.1997257  38.46  0.002092723    2.308    0.567
        50  -9.7438    218.3016     11.4704   2.6982863377e+01   3.0834457972e+01    0.2266512    0.1594331 -71.69 0.0004732604    1.131    0.116
        51 -10.3470    191.2147      6.4289   2.8123970365e+01   3.6893187907e+01    0.6205909    0.1891818 -33.87  0.002848492    3.220    0.689
        52 -10.8492    195.9658      3.5145   2.7108626021e+01   3.6177876875e+01     0.517203    0.2570419  64.65  0.002988846    1.865    0.464
        53  -8.6455     75.6165     12.1863   4.8749518846e+01   6.1885960268e+01    0.1498967    0.1094704   4.50 0.0003196116    1.499    0.333
        54  -8.8080     43.4863     10.8024   5.9569528558e+01   6.7960594180e+01    0.2832221    0.1132675  31.60  0.001028411    2.462    0.594
        55 -10.1640    230.3921      8.0997   2.5506609647e+01   2.8855924531e+01    0.3379945    0.1963149 -29.67  0.002109968    2.190    0.543
        56  -8.9319    165.8116      9.4927   3.1322691389e+01   4.2121587744e+01     0.204142    0.1622557 -42.53  0.001370045    1.388    0.280
        57  -9.3338    120.0252      9.9962   3.7857103376e+01   5.2442248548e+01    0.1862537    0.1557474  66.03            0    1.020    0.020
        58 -10.4314     91.4584      8.7667   4.3253646158e+01   5.8873996862e+01    0.4593335    0.1684862  47.54  0.002085348    2.201    0.546
        59  -9.1338     87.7778      6.4173   4.3262865857e+01   5.9854000165e+01    0.1738993    0.1460911  50.61 0.0006137971    1.050    0.047
        60  -9.6084    200.1584      8.7839   2.7864901067e+01   3.4785938902e+01    0.2999848    0.1539771  56.62  0.001383133    2.147    0.534
        61 -11.7291    156.0231      3.5195   3.0939061383e+01   4.4847081860e+01     0.338148    0.1860853  57.18 0.0001188137    1.669    0.401
        62 -12.0490    160.0977      1.6718   3.0026265737e+01   4.4096648712e+01     0.467369    0.3612037 -78.49  0.001538834    1.179    0.152
        63  -8.5868    128.9691      8.0087   3.5778985801e+01   5.0583682504e+01    0.1486881    0.1256222  69.44 0.0005808882    1.015    0.015
        64 -11.5325     79.4439      4.3394   4.4562524047e+01   6.1770030353e+01    0.2854741     0.209246  43.01 0.0004414978    1.108    0.098
        65 -10.6545     73.5312      5.5287   4.6656530436e+01   6.2885587691e+01    0.2721454    0.2187919 -13.18 0.0007423191    1.414    0.293
        66 -11.1337     74.7883      2.4024   4.5033284007e+01   6.2877583090e+01    0.4479177    0.1898428  62.30  0.002113159    2.307    0.567
        67 -10.6244     24.8825      7.1331   6.6559817510e+01   7.1166276572e+01    0.1983648    0.1632254  24.21 0.0003944847    1.337    0.252
        68  -9.7126     21.4917      5.4678   6.7504703978e+01   7.1809957909e+01    0.2385743    0.1285889  21.77  0.001005919    1.619    0.382
        69  -9.7165    170.8351      6.0955   2.9969385859e+01   4.1327023924e+01     0.357687    0.1681941  54.78   0.00113718    2.136    0.532
        70  -8.7506     64.5626      7.4401   5.0182508535e+01   6.4497637002e+01    0.1604393    0.1031271  55.77 7.694115e-05    1.505    0.336
        71 -11.5574     37.7235      4.6560   5.9105861680e+01   6.9520377079e+01    0.2819296    0.2152272  23.51  0.001199509    1.047    0.045
        72  -8.7894     43.3858      1.4546   5.5118018013e+01   6.8881274781e+01    0.2196193    0.1031908  52.17  0.001132634    2.193    0.544
        73 -10.1140    237.8981      3.6620   2.4244390722e+01   2.7920258474e+01    0.2895918    0.2496211  86.66  0.002009845    1.363    0.266
        74  -9.8177    233.7890      2.5988   2.4300589049e+01   2.8790479973e+01    0.2435478     0.124365 -83.17    0.0010226    1.731    0.422
        75 -11.0281    249.8317      1.6673   2.3234236343e+01   2.5979319741e+01     0.173635    0.1270541 -75.52 0.0004401195    1.080    0.074
        76 -10.6073    217.7732      2.9088   2.5377571698e+01   3.1822746086e+01    0.2903709    0.2110326 -89.56  0.002122975    1.150    0.130
        77 -10.1731     30.6937      2.6296   6.1333108626e+01   7.0813373279e+01    0.2233666    0.1682243 -32.42 0.0009000368    1.726    0.420
        78  -9.9082     13.4138      2.9004   7.0708865920e+01   7.3116360185e+01    0.2466812    0.2026984 -27.61   0.00183208    1.593    0.372
        79  -9.1824     17.9792      2.0397   6.7629348852e+01   7.2651647667e+01     0.224315    0.1311877   7.19 0.0008070834    1.607    0.378
        80  -9.0895    244.5353      3.4879   2.3831923186e+01   2.6731926941e+01    0.1894153   0.07799686 -86.91  0.001034521    2.431    0.589
        81 -10.6084     91.7895      2.4946   4.0882358687e+01   5.9299290753e+01    0.2721637    0.1917916 -85.14  0.001058574    1.903    0.475
        82 -10.3480    135.3005      1.6125   3.3009993802e+01   4.9672720441e+01    0.2643542    0.1375252  75.17   0.00104407    1.683    0.406
        83  -9.4557      5.1374      1.4422   7.5006337042e+01   7.4205994313e+01     0.218799   0.08767013  21.90 0.0007878819    2.299    0.565
        84  -8.2994    162.0155    114.7700   5.8787798326e+01   2.7029422290e+01    0.1862461    0.1262848  48.16            0    1.542    0.352
        85 -10.1719    201.2198    249.3966   7.7440975180e+01  -6.0471564252e+00      0.27044    0.2053228  13.94  0.000744929    1.161    0.139
        86 -10.4132    115.9445    248.6289   9.5618591359e+01   5.5716647510e+00    0.3059504    0.2527266  62.84  0.001658306    1.406    0.289
        87  -9.5142     46.6423    114.0991   9.3135510208e+01   4.8090626204e+01    0.2685528     0.213442   3.35 0.0006413518    1.363    0.266
        88  -8.1476     53.2900    112.6603   9.0413971304e+01   4.7649336653e+01    0.1444047    0.1150976  75.63 0.0003506102    1.644    0.392
        89  -8.7365     20.0305    104.2701   1.0103219322e+02   5.3082690544e+01    0.1839113    0.1670773 -35.59 0.0005815692    1.085    0.078
        90  -8.7097     13.1559    104.1937   1.0362400648e+02   5.3582084934e+01    0.2548407    0.1770012  48.15 0.0007057021    1.795    0.443
        91 -10.8784     21.0361    110.1213   1.0173714203e+02   5.1548178466e+01    0.4337403    0.3129553 -50.35 0.0009324037    1.178    0.151
        92  -8.2887    140.6605    111.7289   6.3006356896e+01   3.2198749454e+01    0.1534187    0.1216939   6.38 0.0002560487    1.605    0.377
        93  -8.9020    231.3001    109.6417   4.5433824920e+01   1.4371906940e+01    0.1359411   0.08891079 -64.22 0.0007036543    1.711    0.416
        94  -8.9280    103.9855    109.2703   7.2481803057e+01   4.0253103213e+01    0.2087624    0.1981487  20.36 0.0002097604    1.053    0.051
        95 -10.9378     30.3707    107.6086   9.7777924692e+01   5.1395726462e+01     1.178764    0.4117046 -33.46  0.003578321    4.349    0.770
        96  -9.1455     91.8350    106.3047   7.5497184749e+01   4.3208136035e+01      0.25147    0.2119768 -36.58 0.0002629601    1.155    0.134
        97  -9.1235     37.1148    106.6235   9.5036406994e+01   5.0991187581e+01    0.3059447    0.1421525 -44.92 0.0006773035    1.933    0.483
        98  -9.1198     46.4973    105.3304   9.1221654662e+01   5.0284374805e+01    0.4288521    0.2531345   1.59  0.001622178    2.203    0.546
        99  -9.3372    132.0018    103.9662   6.3159083361e+01   3.5680499434e+01    0.2302561    0.2212688  60.81 0.0006081102    1.074    0.069
       100 -10.2541    100.9741    102.7578   7.1635464286e+01   4.2295982798e+01    0.4700626    0.3284341   4.73  0.001626798    1.986    0.497
       101  -9.0940    100.4764     99.0149   7.0746479093e+01   4.3213998158e+01    0.3281757    0.2113157 -41.74 0.0009100741    1.543    0.352
       102 -10.5324     70.8692    102.0388   8.1465766486e+01   4.7744272113e+01    0.4051019    0.2454048 -48.61  0.001086371    1.572    0.364
       103 -10.6288     78.8449    100.7226   7.8318485304e+01   4.6758810597e+01    0.5193917    0.3772029 -14.59   0.00241717    1.626    0.385
       104  -9.3504     80.5510     95.0287   7.6141960904e+01   4.7751276824e+01    0.3349305    0.2359053  45.36 0.0008843114    1.549    0.354
       105  -8.4236     95.0216    100.0073   7.2742630521e+01   4.4038611959e+01    0.1797937    0.1709138 -14.97 0.0003426197    1.011    0.011
       106 -10.2671     43.4860     98.9668   9.0857162295e+01   5.2172332449e+01    0.3891535    0.3226348 -74.45  0.001711654    1.403    0.287
       107 -11.6050    117.6586     98.0097   6.5390600690e+01   3.9958302822e+01    0.2794838    0.2605954  23.05 0.0003104303    1.075    0.070
       108  -8.8385     16.5020     98.9966   1.0138425828e+02   5.4633147322e+01    0.2088287    0.1145696 -60.41 0.0009026257    1.546    0.353
       109  -9.6287      5.7392     98.1213   1.0540403986e+02   5.5509465941e+01    0.4938721    0.1860621  16.61  0.002114006    2.947    0.661
       110 -10.1604      2.7138     92.7561   1.0566241251e+02   5.6958369579e+01    0.4058846    0.2348118  55.88   0.00141409    2.523    0.604
       111 -10.1104      2.2851     86.4532   1.0470308378e+02   5.8473313212e+01    0.5001374    0.1569599 -59.57  0.001697268    2.299    0.565
       112  -9.6546      3.1475     79.6027   1.0301166716e+02   6.0020506244e+01    0.3925264    0.1963151 -55.64  0.001405897    1.567    0.362
       113  -9.8681    141.0076     96.7526   5.8976546632e+01   3.5198602700e+01    0.2596208    0.2045776 -53.03 0.0005319567    1.304    0.233
       114  -9.6457    139.5492     93.5090   5.8451168358e+01   3.6154733399e+01    0.2778066    0.2146418 -42.87 0.0006228402    1.292    0.226
       115 -10.2519    124.9945     97.0294   6.3110581938e+01   3.8611474153e+01    0.3792443    0.2272212  54.18  0.001594059    1.829    0.453
       116  -7.8855    154.6878     96.2791   5.5717125121e+01   3.2286087091e+01    0.1469745    0.1154513 -83.55 0.0002639953    1.565    0.361
       117 -10.4281     56.8351    101.0305   8.6308813410e+01   5.0021941865e+01     0.411551    0.2867099 -44.33  0.001861329    1.320    0.243
       118 -10.4150    134.3974     92.5630   5.9451678139e+01   3.7469947655e+01    0.3888298    0.3747689 -25.29  0.001760503    1.056    0.053
       119  -9.7612     20.4087     81.8505   9.6104247437e+01   5.8399658267e+01    0.3961119    0.2598314  49.98  0.001746015    2.151    0.535
       120 -11.0080     26.0947     87.5585   9.5073355432e+01   5.6613152916e+01    0.9526966    0.3554548 -39.20  0.003342995    2.591    0.614
       121 -10.2661     31.4384     93.7719   9.4358887563e+01   5.4666848621e+01    0.4000056     0.290287 -74.21  0.001262941    1.612    0.380
       122  -9.3069     33.6767     90.7159   9.2729646892e+01   5.5170291508e+01    0.2235438    0.1984673 -36.92  0.000723968    1.049    0.046
       123  -9.2147     14.0292     88.2041   1.0020861011e+02   5.7388087858e+01    0.4077367    0.1367219 -44.73  0.001645719    2.414    0.586
       124  -9.6895     15.0000     93.5181   1.0090277343e+02   5.6060611139e+01    0.3666642    0.1538211 -58.56  0.001624572    1.920    0.479
       125  -9.5596     18.1914     90.9455   9.9081698056e+01   5.6449324564e+01    0.2465123    0.1785151  -2.26 0.0005708841    1.467    0.318
       126 -10.4637     47.6056     92.7818   8.7702610774e+01   5.3145417878e+01    0.3453318    0.3086911 -87.20  0.001099124    1.412    0.292
       127  -9.6792     44.9048     87.0434   8.7249607245e+01   5.4787485712e+01    0.4840952      0.19027 -38.23  0.001763288    2.694    0.629
       128  -8.9938    197.1113     92.8881   4.6911222950e+01   2.3810194747e+01    0.2092514    0.1729967 -74.42 0.0009218664    1.230    0.187
       129  -8.8532    104.5859     90.6280   6.7085081166e+01   4.4173413942e+01    0.2127139    0.1707845  85.88  0.001002255    1.738    0.425
       130  -8.9893     71.0299     91.0457   7.8368194875e+01   5.0217447043e+01    0.2202657    0.1854673  80.47 0.0007388185    1.656    0.396
       131  -8.9881     90.9345     83.5037   6.9249207917e+01   4.8304110426e+01    0.2215561    0.1869867 -35.32 -0.0003469945    1.183    0.155
       132  -9.4135     93.3791     79.1662   6.7126144504e+01   4.8690330099e+01    0.3936604    0.2600806   9.49  0.001119822    2.153    0.536
       133 -10.2759     86.1775     88.9707   7.2467295706e+01   4.8063640547e+01     0.502669    0.3535883 -14.39  0.001317115    1.758    0.431
       134  -9.0791     86.9850     83.7350   7.0625954962e+01   4.9000667139e+01    0.2216835     0.208357 -21.65 0.0003398233    1.062    0.059
       135  -8.3350     52.4938     90.5184   8.5192143028e+01   5.3045787200e+01    0.1422116    0.1314292 -24.79 0.0008096896    1.058    0.055
       136  -9.6340     39.7027     88.7472   8.9797001008e+01   5.4996444847e+01    0.3943826    0.1767979 -43.80   0.00166341    1.994    0.498
       137  -9.9411     97.7495     88.7557   6.8640002317e+01   4.5917489485e+01    0.2587118     0.248408  88.52 0.0002652601    1.198    0.165
       138  -9.1764      6.8785     88.9832   1.0329917872e+02   5.7639641271e+01    0.1815963    0.1641198 -53.47  0.000480611    1.130    0.115
       139 -11.3606    123.8028     86.8453   6.0557373150e+01   4.0890221753e+01      1.05867    0.4363034  35.60  0.003408772    3.319    0.699
       140  -9.7187    117.4589     83.4706   6.1283139436e+01   4.2905301869e+01    0.2728095       0.2493   8.06 0.0007264095    1.145    0.126
       141 -10.0880    120.4838     83.7040   6.0532403393e+01   4.2209308339e+01    0.3077009    0.2513726 -13.63  0.000598259    1.410    0.291
       142  -9.8583     57.4788     87.0562   8.2295336327e+01   5.3144619266e+01    0.4367623    0.2301799  54.96  0.001536405    3.651    0.726
       143 -10.1827    155.2116     85.0103   5.2653832233e+01   3.4265253501e+01    0.2554764    0.2482352 -28.43  0.000293506    1.097    0.089
       144 -11.1108    155.1952     79.2914   5.1142848382e+01   3.5279129050e+01    0.5079153     0.337296  44.26 0.0004428915    1.591    0.371
       145  -9.6614    110.8313     85.3924   6.3708162002e+01   4.3939010234e+01    0.3111815    0.2468294  43.87 0.0009805408    1.240    0.194
       146 -10.3022     63.8179     74.1791   7.5964939280e+01   5.4921282875e+01    0.6291239    0.3923943  48.89  0.002907811    2.023    0.506
       147 -11.5289     72.2284     79.7286   7.4556641858e+01   5.2429495654e+01    0.6393889    0.5489522 -20.45  0.003547165    1.109    0.098
       148 -10.0731     65.8676     85.6537   7.8699530073e+01   5.2209166333e+01    0.2873988    0.2326556 -19.73  0.001528616    1.208    0.172
       149  -9.5570    143.0408     84.4514   5.5160886957e+01   3.7090193142e+01    0.2634132    0.1977881 -57.18 0.0005080615    1.438    0.305
       150  -8.5811    137.6821     84.7012   5.6476466503e+01   3.8240070601e+01    0.1474493    0.1166608  13.37  0.000204313    1.615    0.381
       151 -10.9802     45.2096     68.6592   8.1735141687e+01   5.8697904481e+01    0.3602225    0.2257261 -43.74 0.0005055098    1.498    0.333
       152 -10.6196     51.4675     82.6130   8.3379804476e+01   5.4944524278e+01    0.4106492    0.3049688 -30.36  0.001288686    1.259    0.206
       153 -12.9404     53.0560     75.2065   8.0530670172e+01   5.6306716838e+01    0.3630579     0.296355 -16.93 0.0005313354    1.134    0.118
       154 -11.3948     50.9985     68.3787   7.9217640390e+01   5.7980292877e+01    0.6350794      0.61607 -88.13  0.003931775    1.379    0.275
       155  -8.4616     99.4680     83.4856   6.6529289803e+01   4.6640446809e+01    0.1490196    0.1396747   6.55 0.0002418594    1.029    0.028
       156 -10.5463     38.8521     81.6178   8.8246230460e+01   5.6703558481e+01    0.3236075    0.2417307  14.68 0.0004121363    1.365    0.267
       157  -9.2674     45.0594     80.4804   8.5360673343e+01   5.6228558900e+01    0.2871066    0.2195261  34.06  0.001054837    1.441    0.306
       158  -8.7595     59.9767     82.5017   8.0004922680e+01   5.3777411926e+01    0.1874465    0.1184913  53.91 -0.0005142481    2.319    0.569
       159 -11.5558    167.5957     77.6317   4.8304356481e+01   3.2781979650e+01    0.4725574    0.3365563 -24.73 0.0006202708    1.712    0.416
       160 -10.7190    165.4424     70.8625   4.6963150695e+01   3.4382662385e+01    0.4274713    0.3042559 -24.85  0.001315431    1.710    0.415
       161  -8.8119    185.3327     78.3142   4.5404814805e+01   2.8771624173e+01    0.1322622    0.1095942  17.30 0.0007045823    1.683    0.406
       162  -9.1274     84.7494     78.1713   6.9662149219e+01   5.0528930408e+01    0.2309149    0.1859154  -2.84 0.0005809638    1.335    0.251
       163 -10.4314     94.3652     71.3323   6.4345756162e+01   4.9969354998e+01    0.7277484    0.5213485 -68.18  0.003350286    2.127    0.530
       164 -10.2220     87.0953     67.8814   6.5574517943e+01   5.2022100431e+01    0.4114241    0.3333644  60.26  0.001062953    1.498    0.333
       165  -9.6589     87.8393     75.1673   6.7679159973e+01   5.0529289606e+01    0.3807427     0.264938  24.10 0.0006889869    1.532    0.347
       166  -9.3194     88.9807     72.0000   6.6291386654e+01   5.0905618881e+01     0.350518    0.1966496  41.12 0.0009842357    1.721    0.419
       167  -8.5680     12.6624     78.0959   9.8565345876e+01   5.9813219617e+01     0.186816    0.0911632 -49.61 0.0003752217    1.630    0.386
       168  -9.6299    110.9259     75.9504   6.0849920877e+01   4.5704390665e+01    0.4121763    0.2051476 -50.80  0.001609124    2.419    0.587
       169  -9.6505    141.9055     75.6812   5.2991205509e+01   3.8904476004e+01    0.2228005    0.2119364 -72.63  0.000736627    1.061    0.057
       170  -9.6411    145.5057     74.9817   5.2008656025e+01   3.8210001916e+01    0.2011834    0.1906936 -55.46 0.0005949024    1.068    0.063
       171  -8.6890    126.4264     76.4746   5.6879373747e+01   4.2236114983e+01    0.1432294    0.1396936  36.32 -9.860352e-05    1.016    0.016
       172 -10.2793     29.1984     74.9248   9.0520751688e+01   5.9178954234e+01    0.3392033    0.2014779 -35.21 0.0007105825    1.517    0.341
       173 -10.6608     28.4957     68.5031   8.9010338689e+01   6.0622392480e+01    0.7187871    0.4259895  12.12  0.003702177    1.755    0.430
       174 -10.4176     22.2266     64.3463   9.0660579873e+01   6.2073489197e+01    0.6151481    0.1958524 -40.34  0.001609667    2.805    0.643
       175 -10.6974     35.5676     53.4787   8.0954789872e+01   6.2834278190e+01    0.5854521    0.4384328 -17.46  0.003485997    1.182    0.154
       176 -11.2162    175.9550     74.3761   4.6004905575e+01   3.1466770654e+01    0.4109288    0.3488907  22.25 0.0009850463    1.538    0.350
       177  -9.1437    100.1064     75.1313   6.3767504094e+01   4.8112172976e+01    0.2082538    0.1840837  10.63  0.001132346    1.143    0.125
       178  -8.5038     37.6983     75.6946   8.7066791751e+01   5.8128396049e+01    0.1436608   0.09135427 -23.66 0.0003598584    1.595    0.373
       179  -9.4171     18.8709     73.0546   9.4587951005e+01   6.0490137521e+01    0.3186175    0.2514661 -44.97    0.0014512    1.123    0.109
       180 -11.1750    157.8534     70.7494   4.8348618921e+01   3.6115373988e+01    0.4686411    0.3623672 -74.65  0.002466193    1.447    0.309
       181  -9.2731      2.8577     72.8716   1.0172088648e+02   6.1558052120e+01    0.2059687    0.1335122 -36.35  0.000520662    1.280    0.219
       182  -9.6314    218.8108     69.9301   3.8813555210e+01   2.3178691690e+01    0.1924691    0.1655456 -85.60 0.0003411604    1.130    0.115
       183 -10.3780    173.5502     68.9101   4.5052242506e+01   3.2879460620e+01    0.2506332    0.2236734 -75.35 0.0003700055    1.053    0.051
       184  -9.1016    145.9352     70.1492   5.0581220001e+01   3.8922865436e+01    0.2206892    0.1875016 -84.51 0.0007837348    1.274    0.215
       185 -10.3440    140.7751     68.5404   5.1234590058e+01   4.0361379279e+01    0.2872138    0.2434085 -70.88 0.0006695635    1.285    0.222
       186  -9.1567    102.4559     69.7962   6.1384802224e+01   4.8593212565e+01    0.3577866    0.2366801 -10.59  0.001564211    2.156    0.536
       187  -8.7367    106.7899     66.3013   5.9022883007e+01   4.8284718741e+01    0.3132153    0.1389555  47.49 0.0009803879    2.135    0.532
       188  -9.4672    119.9169     67.7080   5.5920292553e+01   4.5193369984e+01    0.3410653    0.2166555 -34.21  0.001035379    1.683    0.406
       189 -11.1697     80.6397     83.2968   7.2657061984e+01   5.0244100527e+01    0.5307855    0.3084494  25.31 0.0005259978    1.941    0.485
       190  -9.8733     15.1204     64.7990   9.4105386351e+01   6.2554992322e+01    0.7903482    0.4921442 -18.27  0.003982801    1.545    0.353
       191 -11.8014      2.3897     66.1314   1.0040457719e+02   6.3065293447e+01    0.3233897    0.2143778 -45.30 0.0005183751    1.190    0.160
       192 -11.7813      3.6995     60.0399   9.8280877170e+01   6.4296985711e+01    0.5351184    0.3781498 -17.30 0.0002100179    1.284    0.221
       193 -10.7851     11.0580     51.0159   9.2069722542e+01   6.5664445440e+01     0.573469    0.4501395  68.74  0.002692087    2.224    0.550
       194 -10.3041      6.7675     51.5891   9.4422621551e+01   6.5845258539e+01    0.3280362    0.2073987 -15.05  0.001100244    1.447    0.309
       195  -9.5909     32.3085     47.4879   8.0345148486e+01   6.4307690947e+01    0.2901331    0.2006981 -33.44  0.001699362    1.312    0.238
       196 -10.4137    128.2649     57.5416   5.0823573556e+01   4.4940555059e+01    0.4038762    0.2000695  61.24  0.001101116    2.136    0.532
       197 -10.3610    134.6870     64.2638   5.1353171207e+01   4.2437219651e+01    0.3303475    0.3079031  38.51 0.0007703502    1.098    0.089
       198 -10.2959    132.6993     59.7202   5.0469512387e+01   4.3600171441e+01     0.315854    0.2795482 -33.73 0.0009403867    1.210    0.174
       199  -9.7790     82.0668     61.9821   6.5292104835e+01   5.4024267263e+01    0.3196703    0.2045542  24.03   0.00151202    1.718    0.418
       200 -10.0667     77.5177     61.8010   6.6804380448e+01   5.4905135471e+01    0.4276238    0.2866358 -22.12  0.001950877    1.653    0.395
       201  -9.7281    147.1696     64.3442   4.8718054118e+01   3.9575092181e+01    0.3000714    0.1669644  71.42  0.001251583    2.263    0.558
       202 -10.0166    155.2395     60.4888   4.6101725855e+01   3.8323197347e+01    0.3300195    0.2351712  61.97  0.000993749    1.343    0.255
       203  -8.9802     97.7112     64.0165   6.0946728350e+01   5.0575775296e+01    0.1919003    0.1794356 -20.32 0.0004320681    1.108    0.097
       204 -10.3488    124.1169     62.6511   5.3339934228e+01   4.5083891719e+01    0.2742581    0.2398918  83.85 0.0003160459    1.267    0.211
       205  -9.9148     64.5139     62.1018   7.1702753084e+01   5.7120882627e+01    0.4595087    0.2111988  33.21  0.001948084    2.148    0.535
       206  -9.2506     28.4681     52.4268   8.3928880110e+01   6.3831965590e+01    0.2055254    0.1633071  18.23 0.0005887058    1.284    0.221
       207  -9.1872    175.8996     61.3814   4.2796158298e+01   3.3516435425e+01    0.2151018    0.1872547 -20.29  0.001267425    1.405    0.288
       208  -9.6711    167.4314     61.7429   4.4271311991e+01   3.5361575257e+01    0.3060582    0.1661294 -65.38    0.0012533    2.610    0.617
       209 -10.0462    161.0126     60.8288   4.5145733471e+01   3.6954816831e+01    0.3511839    0.2765038  27.88  0.001891119    1.644    0.392
       210 -10.7539    160.7348     54.5589   4.3545624119e+01   3.7941824539e+01     0.267866    0.2285658 -77.46  0.000337758    1.153    0.133
       211 -10.5794    102.6273     59.6142   5.8060302921e+01   5.0274466426e+01    0.3962623     0.329147  -4.96  0.002184499    1.328    0.247
       212 -11.8865     56.2871     56.7653   7.3100823809e+01   5.9393527132e+01    0.4152379    0.3263182  57.16  0.000268577    1.834    0.455
       213  -9.3807    193.9613     60.3138   3.9890437492e+01   2.9726981142e+01    0.2574103    0.1523683 -55.34 0.0006678224    1.638    0.390
       214  -8.9343     71.6831     60.5032   6.8454034158e+01   5.6183096858e+01    0.2882407    0.2171855  32.36  0.001252108    1.253    0.202
       215  -8.2082     74.9723     56.7668   6.5961218991e+01   5.6232972355e+01     0.286204    0.1546501 -21.54  0.001185824    2.504    0.601
       216  -7.9627    113.6907     60.3088   5.5247601178e+01   4.7773263121e+01    0.1384763    0.1117372 -83.95 0.0007023337    1.618    0.382
       217  -9.4339    143.5191     58.6564   4.7866163780e+01   4.1286034596e+01    0.4034765    0.1659748  42.02  0.001344261    3.047    0.672
       218  -8.8252    139.1066     59.5094   4.9019825227e+01   4.2168596468e+01    0.2049367    0.1311716  57.90 0.0003373486    1.483    0.326
       219  -8.9966     94.3143     59.1682   6.0380184742e+01   5.2079029299e+01    0.2183009    0.1734944  -6.09 0.0005636994    1.398    0.285
       220 -12.7657     24.9840     56.2847   8.6880536923e+01   6.3446046929e+01    0.4091043    0.3379163  21.34 0.0005228457    1.335    0.251
       221  -9.2493     74.7185     65.9336   6.9200966304e+01   5.4673434127e+01     0.269767    0.1930389  27.20 0.0007735721    1.355    0.262
       222 -10.4361    225.8901     55.4832   3.5035691529e+01   2.3906774728e+01     0.226768    0.1728127 -67.19 0.0003382177    1.109    0.098
       223  -9.0136    187.5263     56.0177   3.9776678492e+01   3.1741104603e+01    0.2452576    0.1642675  87.93   0.00071672    1.606    0.377
       224  -8.7208    167.7445     56.2170   4.2805726948e+01   3.6109776696e+01    0.1772739    0.1574019  34.20  0.001052428    1.355    0.262
       225  -8.5602    118.4892     54.9854   5.2359580396e+01   4.7528604914e+01     0.191501    0.1235569  -1.68 0.0005662956    2.543    0.607
       226  -8.9408     92.2303     54.7844   5.9540407385e+01   5.3205787462e+01    0.3556097     0.214455  32.50  0.001250463    1.716    0.417
       227  -9.3880     95.4797     52.5182   5.7784191616e+01   5.2885581619e+01    0.4825872    0.2997522  67.52  0.002123832    2.362    0.577
       228 -11.5947     68.6267     48.2250   6.5186526943e+01   5.8763094264e+01    0.5779321    0.4005783 -42.60 0.0003149471    1.637    0.389
       229 -12.7248     61.8180     44.3334   6.6308458551e+01   6.0554641349e+01    0.4644743    0.2770404  36.84 0.0004208283    1.547    0.353
       230 -10.3671     44.4136     54.1873   7.7215309440e+01   6.1577649270e+01    0.4562821    0.2755759  36.11  0.002368883    1.732    0.423
       231 -10.2385     45.8362     47.4606   7.4128611407e+01   6.2556732752e+01    0.5076932    0.2757704   8.67  0.001502439    2.522    0.604
       232  -9.1916    201.6015     47.5308   3.6041873601e+01   2.9909723855e+01     0.299264    0.2021308  23.64  0.001154099    3.070    0.674
       233 -10.3732    193.2965     52.4752   3.8178313588e+01   3.0994908162e+01    0.2280079    0.2060383 -77.79 0.0004034433    1.074    0.069
       234  -9.2237    196.2190     48.9721   3.7011272697e+01   3.0853479892e+01    0.2606046    0.1779517  71.58  0.000812876    1.413    0.292
       235 -10.3015     54.0673     60.8293   7.5430474453e+01   5.8991262141e+01    0.2955294    0.2736301  75.29 0.0009504767    1.553    0.356
       236 -10.4555    181.2952     51.0155   3.9458479039e+01   3.3815427307e+01    0.3426184    0.2445434 -19.35  0.001843602    1.915    0.478
       237  -9.8305    146.1168     52.3812   4.5592787310e+01   4.1606273189e+01    0.2475461    0.1653451  68.48  0.001258329    1.487    0.328
       238  -9.4581     61.3476     52.0915   6.9389214054e+01   5.9389852797e+01    0.2282194    0.1650797  22.00 0.0006256534    1.296    0.228
       239 -10.5765    153.8119     47.9587   4.2976368145e+01   4.0450820293e+01    0.3628394    0.3258558 -37.19 0.0008976812    1.227    0.185
       240 -10.7065    136.6283     49.4474   4.6622640920e+01   4.4201922995e+01    0.3079413    0.2421206  78.32 0.0001641501    1.323    0.244
       241  -9.1334    121.9229     50.6427   5.0186328867e+01   4.7390232872e+01    0.8544473    0.1794856  56.87  0.002311229    5.031    0.801
       242 -10.8316    127.9674     48.0270   4.8022709707e+01   4.6383428253e+01    0.3983125    0.2510478 -41.13   0.00121854    1.704    0.413
       243 -10.4843    125.8010     44.8660   4.7532245947e+01   4.7306806191e+01    0.4290096    0.2393612  55.19 0.0004939457    1.613    0.380
       244  -9.8726     86.6381     49.4866   5.9454129228e+01   5.5149984169e+01    0.4699118    0.2149554  39.88  0.002002174    2.074    0.518
       245  -9.5021    165.8972     51.2642   4.1834855374e+01   3.7233441897e+01    0.2759687    0.1708261  77.18  0.001366458    1.729    0.422
       246  -8.5070    228.5856     49.2309   3.3512249991e+01   2.4248950119e+01    0.1530904    0.1068352 -34.66 0.0009371893    1.595    0.373
       247  -9.5465    142.5725     48.9607   4.5307070907e+01   4.2901084662e+01    0.2474809    0.2032396  86.05 0.0003813222    1.255    0.203
       248  -9.8090    145.7868     46.1276   4.3903575594e+01   4.2545461892e+01    0.2375762    0.1968228  84.02 0.0004613856    1.196    0.164
       249  -9.4681    175.6357     48.2182   3.9585899868e+01   3.5458475349e+01     0.230602    0.1669705  71.17 0.0005019102    1.300    0.231
       250 -11.0397     79.6263     44.1997   5.9835421570e+01   5.7313383045e+01    0.6026213    0.4444344  -2.54  0.002664956    1.518    0.341
       251  -8.5646     57.0235    249.0176   1.0879568565e+02   1.3265596982e+01    0.1429981    0.1218062  54.70 0.0009266755    1.003    0.003
       252 -10.1198     26.2185     22.7054   7.3328519608e+01   6.9004490439e+01    0.2284073    0.1630813 -11.12 0.0003874628    1.206    0.171
       253  99.0000     23.1673     47.2001   8.4701434419e+01   6.5348609756e+01    0.4908755    0.4308219  23.42  0.003275641    1.383    0.277
       254  -8.9360     30.9930    248.2378   1.1426749640e+02   1.6398133209e+01    0.1582756   0.09022557  34.11 0.0008835641    1.625    0.384
       255 -10.2340     27.8973     42.6982   8.0713606015e+01   6.5654256342e+01    0.2154027      0.18582 -38.91 0.0002054796    1.366    0.268
       256  -9.1175     25.1076     38.6577   8.0570806325e+01   6.6654751590e+01    0.4121372    0.1990514 -21.73  0.001891026    2.452    0.592
       257  -8.8663     18.8315     34.2460   8.2109700530e+01   6.8052038469e+01    0.2375806    0.1422759 -14.79 0.0007777833    1.593    0.372
       258  -8.9768      1.4591    244.0482   1.1998944934e+02   2.0188621784e+01    0.1665917   0.09710805 -87.25 0.0004300855    1.536    0.349
       259 -10.2477     16.9382     46.5650   8.7624683869e+01   6.6047113719e+01     0.318959    0.2255606 -36.12 0.0008950645    1.214    0.176
       260 -10.6258     14.7781     40.4799   8.6614582266e+01   6.7349767818e+01     0.433253    0.3569686  73.86     0.002616    2.321    0.569
       261  -9.5920    244.8199    242.1083   6.8145823224e+01  -9.8840550083e+00    0.1834313    0.1341877  -8.61 0.0008538789    1.043    0.041
       262  -8.6816    235.2899     47.4109   3.2522607870e+01   2.3222845315e+01    0.1474391    0.0975885 -87.40 0.0004438397    1.477    0.323
       263  -9.9458    115.2337     45.7583   5.0235245305e+01   4.9575490438e+01    0.3805009    0.2436607  49.63  0.001936424    1.410    0.291
       264  -8.7684     38.5702     47.0364   7.7241748434e+01   6.3615840564e+01    0.1855203    0.1165917 -39.61 0.0006544165    1.548    0.354
       265  -9.1618    164.9891     45.9902   4.0621569848e+01   3.8160370794e+01    0.3176275    0.1906773  45.46  0.001579918    1.895    0.472
       266  -8.5504      3.7710     45.6416   9.4179746046e+01   6.7200708412e+01    0.1628786    0.1132077 -32.70 0.0002569669    1.125    0.111
       267  -9.3822    244.7581     44.7853   3.1195019030e+01   2.1829698414e+01    0.1752265    0.1431788  76.74 0.0007657949    1.365    0.267
       268  -9.3910    180.0493     44.6892   3.8107915397e+01   3.4949471330e+01    0.1797239    0.1479385  83.69 0.0003552801    1.104    0.094
       269  -9.8005    185.5169     43.3948   3.7076902248e+01   3.3915101398e+01    0.2306008    0.2038857  45.09 0.0006581626    1.395    0.283
       270 -10.0002    103.4520     39.7343   5.1205537133e+01   5.2979969616e+01    0.6162523    0.2153857 -36.64  0.002413279    3.062    0.673
       271  -9.4111    107.6338     43.8685   5.1509816714e+01   5.1518192472e+01    0.2747806    0.2133086  30.99 0.0007695027    1.307    0.235
       272  -9.0373    108.1614     40.1778   5.0152417367e+01   5.1888951018e+01    0.2013433    0.1695718  37.48 0.0004440994    1.118    0.106
       273  -9.2001     86.8987     43.2741   5.7161225185e+01   5.5998185251e+01    0.1959648    0.1831834 -35.28 0.0002814226    1.236    0.191
       274 -10.0281    203.2667     40.3560   3.4284021311e+01   3.0507442781e+01    0.3111022    0.2357753 -19.58  0.001305718    1.854    0.461
       275 -10.1226     91.0422     41.1872   5.5159689720e+01   5.5433587563e+01    0.5809831    0.3227686  62.12  0.002002472    2.242    0.554
       276 -11.6591     97.1244     35.2174   5.1328066634e+01   5.4919786952e+01    0.4002927    0.3452228  40.75 0.0005701272    1.016    0.016
       277 -10.2395     60.8080     33.5371   6.2464445810e+01   6.2288410488e+01     0.585976    0.3709706   6.18  0.003022359    1.895    0.472
       278  -8.3653     46.3447     41.3192   7.1545424144e+01   6.3487522268e+01    0.3423875    0.2396091  -4.03  0.001229593    1.424    0.298
       279  -9.5325     55.0483     31.4863   6.3895376932e+01   6.3554831425e+01    0.2715282    0.1808276  -5.94 0.0008116775    1.633    0.388
       280 -12.0167     52.8737     37.8879   6.7389789748e+01   6.3006907142e+01    0.3044016    0.2599594  31.64 0.0003879731    1.251    0.201
       281 -10.0877     47.4571     34.5231   6.8328386830e+01   6.4351955413e+01     0.807238    0.5055239  60.54  0.003474262    3.692    0.729
       282  -7.5731     50.5705     32.5253   6.6172042593e+01   6.4147657282e+01    0.2176691    0.1774777  18.44 0.0004994272    1.061    0.058
       283 -10.4599    234.3219     30.4328   2.9368930765e+01   2.5573110494e+01    0.3232222    0.2504938  47.89  0.001128992    1.904    0.475
       284 -10.7762    228.6452     39.9220   3.1672722196e+01   2.5466116922e+01    0.3938363    0.3749664 -89.18  0.002978293    1.356    0.262
       285 -10.1231    223.1978     40.5343   3.2296651589e+01   2.6444843551e+01     0.300111    0.2272508  66.86  0.001026449    1.437    0.304
       286  -9.8816    143.9666     41.3904   4.2902810495e+01   4.3585956036e+01     0.293773    0.2140102  70.70 0.0007458268    1.296    0.228
       287  -9.0221     72.2283     42.0124   6.1560646175e+01   5.9038748182e+01    0.2877918    0.1485874  30.55  0.001299209    2.038    0.509
       288  -9.2412     33.8288     41.6926   7.7442468735e+01   6.5126495309e+01    0.2996684    0.1535946  23.73  0.001509755    1.880    0.468
       289 -10.7501      9.7304     31.7613   8.6114746416e+01   6.9302551322e+01    0.3654483     0.192946  23.12 0.0007659048    1.867    0.464
       290 -10.3495    159.5707     39.0109   3.9647634919e+01   4.0300291976e+01    0.4017953     0.190098  66.18  0.001847679    1.978    0.494
       291  -9.1441    163.6973     36.3564   3.8338725493e+01   3.9688963874e+01    0.2118312     0.122044  70.52 0.0007377965    1.624    0.384
       292  -9.3147    127.1201     39.5414   4.5624342880e+01   4.7696614608e+01    0.2651522     0.216392  74.40  0.001546842    1.219    0.179
       293 -10.8847     40.1258     39.4658   7.3610849790e+01   6.4667161989e+01    0.2113153     0.173457  -6.13 0.0003877277    1.046    0.044
       294  -9.6467    237.3619     37.4402   3.0441134355e+01   2.4133495433e+01    0.4120958    0.1975858 -46.61  0.002357732    1.710    0.415
       295  -8.9880    120.9164     39.1611   4.6833091334e+01   4.9158640086e+01    0.1974816    0.1709924  85.49 0.0003877814    1.242    0.195
       296 -10.3411    179.1899     36.6324   3.6286541254e+01   3.6173342008e+01    0.3923422     0.222945  51.38 0.0009938797    1.914    0.477
       297  -9.6701    145.9717    242.2752   8.7997440659e+01   2.5442396589e+00    0.1930329    0.1594358  18.12 0.0006474212    1.060    0.057
       298 -10.8117    118.2745     32.7282   4.5375465901e+01   5.0538794955e+01    0.7034103    0.3936936  15.46  0.002303427    3.540    0.718
       299 -10.1879    112.6548     33.2110   4.6780218616e+01   5.1748803834e+01     0.402565     0.231414 -21.18 0.0007710377    2.152    0.535
       300  -9.3543    138.6537     36.7327   4.2538791665e+01   4.5393561564e+01    0.4447625    0.1535419  52.34  0.001760178    2.565    0.610
       301  -9.9016     86.8716     34.6001   5.4020121101e+01   5.7153659495e+01    0.4289314    0.2533155 -15.25  0.002095368    2.145    0.534
       302 -10.2808     74.1144     35.2308   5.8322752157e+01   5.9615039666e+01    0.4403288    0.3098906  39.48  0.002508613    1.252    0.202
       303  -9.0653     71.9286     29.9990   5.7029126818e+01   6.0700695184e+01     0.258513    0.2343137 -57.86  0.001411338    1.507    0.337
       304  -9.6771    102.0043    240.4756   9.7769032825e+01   9.1551124446e+00    0.3021818    0.1537034 -77.04  0.001194248    3.331    0.700
       305  -9.5517     78.0497     34.4997   5.6734283203e+01   5.8944537590e+01    0.3083263    0.2146843  49.04 0.0007953437    1.367    0.268
       306 -10.1271     80.2012     31.4752   5.4896841511e+01   5.8896420024e+01    0.4743605    0.3392075  80.38  0.002393074    2.357    0.576
       307  -9.5542    131.2470     35.3004   4.3514062336e+01   4.7271957866e+01    0.4007401    0.2252211 -57.33  0.001095947    2.349    0.574
       308  -9.9961    186.5222    235.7319   7.8202341552e+01  -1.9142334587e+00     0.290541    0.1469018  16.91  0.001316397    2.218    0.549
       309  -8.8888    242.2732     34.5391   2.9504860907e+01   2.3592043406e+01    0.1312921   0.09792227  73.41 0.0002471117    1.444    0.308
       310  -8.8766    222.9746     33.8254   3.0981406023e+01   2.7337484648e+01    0.1953381    0.1066732 -77.34  0.001069759    1.898    0.473
       311  -9.1296    160.1340     32.8543   3.7953997436e+01   4.0922704913e+01    0.2693956    0.1626429 -51.16  0.001427842    1.722    0.419
       312  -8.9650    145.5209     34.2440   4.0624918083e+01   4.4110431320e+01     0.337351    0.1441259  54.19  0.001497023    2.094    0.522
       313  -9.5587    227.0764     33.0502   3.0470009992e+01   2.6634669907e+01    0.1694445    0.1338228 -71.26 0.0002796687    1.014    0.014
       314 -10.5607    152.9472     31.9070   3.8784524778e+01   4.2678149854e+01    0.3053319    0.2107651 -77.67  0.001675726    1.601    0.375
       315  -9.5570     24.7947     31.1560   7.7723169451e+01   6.7913688645e+01    0.2480792    0.2054595 -13.99  0.001246489    1.147    0.128
       316  -8.7885     34.4905     31.4966   7.3011503885e+01   6.6660751266e+01    0.1997469    0.1572262 -14.59 0.0005690512    1.138    0.121
       317 -10.9137     36.4524     26.8171   7.0066319573e+01   6.7070656152e+01    0.5531837     0.269666  33.46  0.001242097    1.867    0.464
       318  -8.7435     29.2291     32.4487   7.5999307796e+01   6.7186842441e+01    0.2195483     0.195752  43.04  0.001042385    1.663    0.399
       319  -8.9358     29.4831     29.4791   7.4624295351e+01   6.7609764355e+01    0.2138853    0.1646485  -3.06 0.0008667965    1.051    0.049
       320  -8.6548    190.0747     32.5507   3.4020693921e+01   3.4289512313e+01    0.1796043    0.1089307  75.02  0.001001936    1.527    0.345
       321 -11.0468    145.3580     29.2724   3.9265866760e+01   4.4724685982e+01     0.574613    0.2492111  47.97 0.0008155275    2.381    0.580
       322 -10.2991    248.0192     29.9542   2.8241729099e+01   2.3117690292e+01    0.2609271    0.1192339 -48.96  0.001040453    1.711    0.415
       323  -9.3553    124.9222     30.8831   4.3417837884e+01   4.9238842365e+01    0.2068087    0.1562629  41.75 0.0005359609    1.322    0.243
       324  -8.7576    148.9562     38.4720   4.1217565607e+01   4.2804212666e+01    0.1968581    0.1179972  63.20 0.0004895736    1.508    0.337
       325  -9.8547    212.2741     26.5168   3.0471066337e+01   3.0355513729e+01    0.2384522    0.1995025  50.64  0.001150647    1.596    0.373
       326  -8.7212    190.2339     28.4388   3.3072802808e+01   3.4744529294e+01    0.1725674    0.1030233  86.57 0.0009462615    1.630    0.387
       327 -10.4379     42.4822     15.6191   6.2254758053e+01   6.7593053812e+01    0.2892738    0.1656569  34.88 0.0003495522    1.481    0.325
       328  -9.1000     32.0522    232.3275   1.1290195586e+02   1.9722510944e+01     0.173821    0.1433419  55.60 0.0004182697    1.079    0.073
       329  -9.9970     40.9949     20.9970   6.5374405168e+01   6.7177980499e+01    0.2586853    0.2324272 -36.66  0.001286288    1.565    0.361
       330  -8.8497    222.3031    233.6510   7.0787393168e+01  -6.1106376492e+00    0.1042107    0.1003692 -51.46 0.0007040164    1.696    0.410
       331 -10.3053     47.9216     26.9478   6.4945362392e+01   6.5328792645e+01    0.4106668      0.30834  56.54  0.001776971    1.987    0.497
       332  -9.0351    177.8009    231.3380   7.9309252830e+01   5.7538915403e-02    0.1961942     0.111804  20.52 0.0009532402    1.739    0.425
       333  -9.7622    222.1157     26.7456   2.9659406765e+01   2.8364441287e+01    0.1985859    0.1445772  62.14 0.0007054463    1.575    0.365
       334  -8.3371    229.6592     26.7059   2.9034564461e+01   2.6906708120e+01    0.0993036   0.08564659  51.11 0.0003842439    1.656    0.396
       335  -8.9210    161.3531     26.4525   3.6126436036e+01   4.1381197051e+01    0.2240092    0.1058586  63.34 0.0007091005    1.846    0.458
       336  -9.0097    101.2624     26.0559   4.7063915135e+01   5.5085024610e+01    0.2526688    0.1461093  43.94 0.0007602654    1.549    0.354
       337  -8.3257      3.3599    230.2609   1.1890572289e+02   2.2977223118e+01    0.1060845   0.08811865 -41.11  0.000336249    1.629    0.386
       338  -8.5291     82.8663     25.8402   5.1942263678e+01   5.9016993565e+01    0.1525648    0.1416634  64.90            0    1.264    0.209
       339  -8.5780    207.0336    226.5107   7.2491900134e+01  -3.0477905767e+00     0.180452    0.1157943  24.27 0.0005416358    1.510    0.338
       340  -8.7426    163.4541    226.5542   8.1634930643e+01   3.0013912105e+00    0.1354833    0.1212179   8.33 0.0003726593    1.068    0.063
       341  -8.7703    223.7623    224.9929   6.9032604303e+01  -4.9027387319e+00    0.1761397    0.1337743 -17.65 0.0004902152    1.056    0.053
       342  -8.0704      6.0312     21.0353   8.3896650801e+01   7.1365003746e+01    0.4008184    0.1893288  11.22  0.002169995    2.063    0.515
       343  -9.0321    132.1484    225.2178   8.8587635340e+01   7.9397284838e+00    0.1848201    0.1592352  54.56 0.0003553512    1.323    0.244
       344  -9.4714     89.4620    220.5942   9.8216334414e+01   1.5243065090e+01     0.277533    0.2370538 -16.17 0.0009371588    1.369    0.270
       345  -8.0333    175.0000    217.9847   7.7637554306e+01   2.9427035692e+00    0.2153925   0.07484967 -46.52 0.0006203619    2.884    0.653
       346  -8.5679    117.8439    211.8705   8.9954740997e+01   1.3014636165e+01    0.1975116    0.1652175  56.23 0.0005355029    1.313    0.239
       347  -9.0544    242.7827    210.0496   6.3014787346e+01  -4.7764821277e+00     0.177907    0.1427411 -32.32 0.0006548354    1.256    0.204
       348 -11.1838     86.2569     22.4632   4.9690503832e+01   5.8683162688e+01    0.3681969    0.2724949  80.13 0.0003778171    1.850    0.459
       349  -8.8783    233.9215     24.1181   2.8216869801e+01   2.6403146047e+01    0.1773039    0.1169706 -70.08 0.0005130751    1.235    0.191
       350 -10.1859    172.5938     23.2001   3.3871054773e+01   3.9210826907e+01    0.5668537    0.2210847  67.77  0.002056349    2.258    0.557
       351 -10.4648    153.6826     22.8293   3.6250249602e+01   4.3522180492e+01    0.3613434     0.201292  60.30 0.0003564857    1.576    0.366
       352  -8.6157    230.6672    209.6915   6.5070233160e+01  -3.2404512482e+00    0.1328275   0.08251914 -11.65 0.0007041461    1.670    0.401
       353  -9.0701    123.9496    206.0308   8.7498154266e+01   1.3376831473e+01     0.206631    0.1943954   4.13            0    1.028    0.027
       354  -8.1301     95.3143    205.3270   9.4624262821e+01   1.7956314974e+01    0.1482826    0.1106189 -21.74 0.0003126516    1.670    0.401
       355  -8.6373    221.3192    198.7026   6.4763247618e+01  -1.3099969463e-01    0.1143601    0.1050392 -68.24 0.0002762639    1.615    0.381
       356  -8.6568     96.0590    195.7210   9.2961651189e+01   2.0162523610e+01    0.2026134     0.187731  29.09 0.0003985241    1.070    0.066
       357  -9.2537     71.9750     14.9783   5.0981848553e+01   6.2350150378e+01    0.1899154     0.160306  62.53 0.0004142592    1.371    0.270
       358 -10.9257     62.3419     22.3131   5.7272275009e+01   6.3414202257e+01    0.2885391    0.2178032  20.35 0.0007997248    1.180    0.152
       359  -9.2922      7.2797    194.8983   1.1580594264e+02   3.0871662707e+01     0.297478    0.1979696  50.91  0.001713518    1.443    0.307
       360 -10.4479    205.6726     21.6963   3.0073721218e+01   3.2261386405e+01    0.3077846    0.1960364 -81.89   0.00139164    1.424    0.298
       361  -8.8528    188.5424     21.5984   3.1713988787e+01   3.5887779392e+01    0.1995543    0.1190746 -29.33 0.0007801509    2.001    0.500
       362  -9.2349    248.5805    191.9497   5.8795687116e+01  -2.5261273926e+00    0.3374262   0.09695505 -49.38 0.0009557585    6.315    0.842
       363  -8.3515    116.5977     22.5168   4.2463303106e+01   5.2038534643e+01    0.1283079    0.1093489  49.66 0.0001623237    1.076    0.071
       364  -8.5942     31.6995    181.3428   1.0835177923e+02   3.2077845113e+01    0.1468205   0.09361245  67.14 0.0005292594    1.675    0.403
       365  -9.2188    199.4810     18.7475   3.0019577023e+01   3.3876442725e+01    0.2504122    0.1149331 -31.20  0.001149472    2.495    0.599
       366  -8.6345    193.4476     20.0453   3.0874409942e+01   3.5007951191e+01    0.1544925    0.1107302 -40.64 0.0003222851    1.470    0.320
       367 -10.3056      6.4602    175.1250   1.1445682817e+02   3.5859668782e+01    0.2687725     0.198005  59.40 0.0006333528    1.347    0.258
       368  -9.1208     18.1658    174.4489   1.1128484411e+02   3.5100919822e+01    0.2315928    0.1383875  12.54  0.001136199    2.106    0.525
       369 -10.0158     15.4502    165.4805   1.1112709130e+02   3.7638451467e+01    0.1793628    0.1330108  -7.15 2.254507e-05    1.729    0.422
       370 -10.5951      7.3067    166.3764   1.1346100184e+02   3.8025961262e+01    0.2389354     0.200952 -82.73 0.0003338023    1.010    0.010
       371 -12.5171     40.4634    161.4538   1.0342362846e+02   3.6376287005e+01     1.296833    0.4891258  51.89  0.001308898    3.749    0.733
       372 -11.6859     29.5694    153.2367   1.0557182086e+02   3.9630859491e+01    0.6484265    0.3773255 -68.73  0.002037924    1.524    0.344
       373  -9.9887     24.7347    163.0531   1.0822766915e+02   3.7487497658e+01    0.2141878    0.2036173  -1.06 0.0002324285    1.223    0.182
       374  -8.3424    140.3152     20.3111   3.7557187551e+01   4.6844368531e+01    0.1276427   0.08674444  40.94  0.000354804    1.636    0.389
       375 -11.0430    237.9416     17.6032   2.6730406099e+01   2.6402241276e+01     0.316595    0.2220979  66.35  0.001195161    1.625    0.384
       376 -10.2177     19.9893    159.2455   1.0915890962e+02   3.8891310160e+01    0.3174806    0.2294379 -77.33    0.0017304    1.229    0.186
       377  -8.4797     80.0826     19.2065   5.0213755468e+01   6.0297190744e+01    0.1997134    0.1365265  32.15 0.0008048982    1.346    0.257
       378 -10.4993      2.0195    157.0459   1.1406493008e+02   4.0775981851e+01    0.5782927    0.1634129 -67.08    0.0022303    2.617    0.618
       379  -9.9136      4.8858    152.8876   1.1285129199e+02   4.1660101044e+01    0.2098588    0.1737343  39.41 0.0003519967    1.359    0.264
       380  -9.1358    195.4636     15.5893   2.9714954986e+01   3.5061995342e+01    0.2048171    0.1437589 -89.87 0.0007082105    1.214    0.176
       381 -10.2992      9.6960    157.5028   1.1193540330e+02   4.0139458021e+01    0.2627378    0.2038941  63.93  0.001162561    1.331    0.249
       382  -9.6972    249.1183    154.1056   5.1652618451e+01   3.8157070983e+00    0.1976286    0.1481647 -26.32 0.0008868465    1.223    0.183
       383 -11.4370     19.7426    152.3088   1.0841642942e+02   4.0727168123e+01    0.9426469    0.2658408 -43.77  0.002861244    4.489    0.777
       384 -10.5270     19.1961    147.7983   1.0802765847e+02   4.1952989908e+01     0.489017    0.2143374  47.98  0.001992417    2.694    0.629
       385  -8.2179    128.2768     14.3573   3.7777859645e+01   5.0177331571e+01    0.1256918   0.08510814  36.79 0.0007008452    1.655    0.396
       386  -9.4172     87.4024     13.7794   4.6119728891e+01   5.9299393555e+01    0.5388206     0.120388  56.44  0.001802787    3.499    0.714
       387 -11.2726     10.6296    146.3525   1.1045895482e+02   4.2966376499e+01     0.681131    0.2244625 -52.43  0.002000861    2.581    0.612
       388  -9.7050     14.5316    150.4944   1.0976115077e+02   4.1607230032e+01    0.2322929    0.2022501 -85.42 0.0006224041    1.074    0.069
       389  -9.4423     62.6663    146.4114   9.4169933155e+01   3.7721040760e+01    0.4483129    0.2203988 -70.30  0.001672081    2.334    0.572
       390  -8.9401      4.3815    145.1240   1.1220298546e+02   4.3694242951e+01    0.2557842    0.1531775 -32.72  0.001292305    1.924    0.480
       391 -10.0358    240.4087    143.2207   5.0845028279e+01   6.9983676132e+00    0.3463185    0.1805277 -59.67  0.001472036    2.877    0.652
       392  -8.5705     38.2044    143.2206   1.0142258600e+02   4.1441172080e+01    0.1883576    0.1585444  72.81 0.0002966561    1.294    0.227
       393 -10.2186     11.1794    151.8257   1.1090536011e+02   4.1505518182e+01    0.3240993     0.210952 -50.87 0.0009702113    1.451    0.311
       394  -9.8667      1.8454    139.5769   1.1237872942e+02   4.5273719671e+01     0.265546    0.1511535  85.18  0.001186304    1.848    0.459
       395  -9.8123     40.9998    138.0138   9.9666463820e+01   4.2526220517e+01    0.2322601     0.214538 -57.48  0.001273839    1.022    0.021
       396  -9.1080    230.7992    137.1623   5.1102977091e+01   9.6010663488e+00    0.1783958    0.1478984 -13.08 0.0008808562    1.358    0.264
       397  -9.0751    235.9846    136.5483   5.0189205317e+01   8.8717130966e+00    0.1671029    0.1320073  48.51 0.0004945578    1.547    0.354
       398  -8.4006     83.0202    136.0494   8.5612475992e+01   3.7442977511e+01    0.1818834    0.1763371 -22.11 0.0003333985    1.029    0.028
       399  -9.1670     58.2682    135.5924   9.3535297926e+01   4.1141311408e+01    0.2386603    0.2093131   6.18 0.0005361169    1.232    0.188
       400 -10.0285     59.8732    131.6826   9.2223476463e+01   4.1951836914e+01     0.385561    0.3272039 -24.77  0.000972307    1.220    0.180
       401 -11.2902      7.3343    133.4748   1.0996215218e+02   4.6517492862e+01    0.4965647     0.443529 -50.60  0.003074575    1.118    0.106
       402  -9.5482     30.8192    132.3499   1.0210049293e+02   4.5016902214e+01    0.2804207    0.1821891  82.39  0.001294891    1.930    0.482
       403  -8.0699     22.6802    133.6752   1.0500569498e+02   4.5372035000e+01    0.1503116   0.08962823 -40.56 0.0007046022    1.677    0.404
       404 -10.1564     18.5622    127.3234   1.0543646787e+02   4.7343092807e+01    0.4278733     0.224427 -54.05  0.001729676    1.598    0.374
       405  -9.1315     42.1858    129.9651   9.7856581073e+01   4.4511748632e+01    0.2455148    0.2155082  22.36  0.001366796    1.244    0.196
       406  -9.3519     12.1790    128.5238   1.0774331266e+02   4.7483433981e+01     0.297617    0.1317641 -54.45  0.001161262    1.842    0.457
       407 -10.1298     50.7936    126.7496   9.4301965739e+01   4.4371934849e+01    0.2825619    0.2313469 -72.39  0.000641473    1.259    0.206
       408  -9.0525     56.0957    126.7060   9.2478442384e+01   4.3728918200e+01    0.2644976    0.1996901 -69.92  0.001098161    1.379    0.275
       409  -9.3148     34.0118    126.7082   1.0006693449e+02   4.6188980395e+01    0.2623486    0.1921903  81.71  0.001309744    1.650    0.394
       410 -10.3110     39.0231    123.5194   9.7750377627e+01   4.6517368362e+01    0.3810177    0.2373287 -10.88  0.001708893    2.063    0.515
       411  -9.0117    241.5021    124.0143   4.6905331801e+01   1.0175053936e+01    0.2076417    0.1050665 -43.07  0.001034565    1.601    0.375
       412 -11.0649     61.8444    121.3262   8.9349423457e+01   4.4347714016e+01    0.3896416      0.26013 -39.90 0.0001661334    1.463    0.316
       413 -10.3728      7.3905    122.4098   1.0851346136e+02   4.9353041989e+01    0.3855845    0.1882104 -53.64  0.001452312    1.674    0.403
       414  -8.8208     84.1136    122.2083   8.2074475394e+01   4.0750917636e+01     0.246286    0.2025291 -24.58 0.0006515688    1.269    0.212
       415  -9.3871     29.7240    120.6276   1.0048571886e+02   4.8157013027e+01    0.2845252    0.1710774  54.08 0.0009289791    2.167    0.539
       416 -10.3040     28.3084    116.2874   1.0020669270e+02   4.9392454534e+01    0.4264908    0.2818554  85.59  0.001730782    1.982    0.495
       417  -9.6878     32.9694    117.7557   9.8805606536e+01   4.8594618165e+01     0.223697    0.1660962 -37.15 0.0003116905    1.285    0.222
       418 -10.5991     33.8466    114.1671   9.7799118739e+01   4.9423904049e+01    0.4444992     0.280973  63.98   0.00146888    2.303    0.566
       419 -11.5520     21.4935    118.7574   1.0307138857e+02   4.9324113929e+01    0.4799703    0.4262123  61.64  0.002057199    1.301    0.231
       420 -10.5500      5.0473    109.6244   1.0750486854e+02   5.2712521014e+01    0.7341511    0.4859595  59.44  0.003536432    1.925    0.480
       421  -9.4589     11.5434    117.5560   1.0638592588e+02   5.0333518881e+01    0.2734007    0.1976241 -84.42 0.0007362596    1.422    0.297
       422 -10.5296     13.6270    113.1512   1.0495842728e+02   5.1313442903e+01    0.3420092    0.2534195 -14.39  0.001455591    1.483    0.326
       423  -9.9575    221.3480    119.3791   4.8903010447e+01   1.4424794168e+01    0.2926799    0.2467766  37.12 0.0007130687    1.434    0.303
       424 -10.7548     44.7232    119.4799   9.4952235455e+01   4.6943804015e+01    0.3516411    0.2619625  25.97 0.0006851371    1.447    0.309
       425 -10.0000      4.0330    116.7646   1.0889048107e+02   5.0975196296e+01    0.3950064    0.2924444 -48.55  0.001743669    1.184    0.156
       426  -8.7040     94.1139    119.1274   7.8107930510e+01   3.9779359346e+01    0.2451823    0.2033635 -13.16 0.0006296298    1.324    0.245
       427  -8.6234    104.2531    115.0699   7.3930308237e+01   3.8867750812e+01    0.2114844     0.200388 -36.60 0.0002714514    1.037    0.035
