#   1 NUMBER                 Running object number                                     
#   2 MAG_AUTO               Kron-like elliptical aperture magnitude                    [mag]
#   3 X_IMAGE                Object position along x                                    [pixel]
#   4 Y_IMAGE                Object position along y                                    [pixel]
#   5 X_WORLD                Barycenter position along world x axis                     [deg]
#   6 Y_WORLD                Barycenter position along world y axis                     [deg]
#   7 A_WORLD                Profile RMS along major axis (world units)                 [deg]
#   8 B_WORLD                Profile RMS along minor axis (world units)                 [deg]
#   9 THETA_WORLD            Position angle (CCW/world-x)                               [deg]
#  10 FWHM_WORLD             FWHM assuming a gaussian core                              [deg]
#  11 ELONGATION             A_IMAGE/B_IMAGE                                           
#  12 ELLIPTICITY            1 - B_IMAGE/A_IMAGE                                       
         1 -14.9871    211.8484      7.0895   4.1339294115e+01   3.0631034640e+01     2.932815     2.015719  43.66   0.01090722    1.716    0.417
         2 -13.9463    174.3961     51.5975   5.9763655657e+01   3.4784375538e+01     1.728404     1.360005  33.34  0.004243541    1.416    0.294
         3 -14.3593    189.1159     37.6535   5.2991213931e+01   3.2925272720e+01     1.187672     1.112368  18.04  0.004314031    1.165    0.141
         4 -13.5382    193.7981     31.7251   5.0520062901e+01   3.2471897071e+01    0.6861582    0.6380512  59.30  0.001159701    1.122    0.108
         5 -11.8797     49.0034     10.4860   7.7088385363e+01   6.8874074848e+01    0.3613348    0.1823979  12.88  0.001386367    3.722    0.731
         6 -11.9941     57.5024      3.4647   6.9487801220e+01   6.8367557305e+01    0.2950864    0.2342022  14.67  0.001854675    1.125    0.111
         7  -9.6095      1.4265    210.3418   1.3011537429e+02   3.0569331648e+01    0.1020299   0.06910599  68.15 0.0004223498    1.045    0.043
         8 -16.6687     70.7906    144.7204   1.0987990921e+02   3.6766382914e+01     8.840604     4.310836  73.12   0.02161678    3.579    0.721
         9 -19.1697     16.6932    103.0119   1.1881633430e+02   5.2575089835e+01     16.70459    0.7339458 -71.46   0.02685614   16.979    0.941
        10 -11.7815     97.6744    191.1922   1.1007451410e+02   2.2794346238e+01    0.6444039    0.3495318 -39.79  0.001988904    3.100    0.677
        11 -11.7084     97.1031    200.5709   1.1131126929e+02   2.1080165463e+01    0.3821772    0.3224506 -24.80  0.001116365    1.795    0.443
        12  -9.4972     27.2165    192.4426   1.2450160588e+02   3.1551281898e+01    0.1379104   0.09304057  50.05 0.0003348755    1.346    0.257
        13 -11.4084    142.1325    189.1532   1.0058712235e+02   1.5894148884e+01    0.2694941    0.2114391  86.38  0.001404913    1.600    0.375
        14 -14.8808     46.3987    209.7037   1.2202168394e+02   2.6082652012e+01     1.635982     1.102135   3.90  0.008370682    3.973    0.748
        15  -9.0528     53.1901    188.0113   1.1896702636e+02   2.9541095634e+01    0.2146057     0.144057 -59.72  0.001327297    1.693    0.409
        16  -9.6341     60.5158    186.4152   1.1730244874e+02   2.8958819108e+01    0.2029035    0.1789592 -24.86 0.0006328671    1.774    0.436
        17 -11.1699    153.5298    185.0517   9.7603991815e+01   1.4617281221e+01      0.26692    0.2220151 -72.91   0.00114905    1.467    0.318
        18 -18.5024     37.3112    241.0190   1.2549167078e+02   2.1579657874e+01     6.512413     3.105165  38.45   0.03052302    1.951    0.487
        19 -11.2382     99.2881    180.7965   1.0838705815e+02   2.4619477337e+01    0.2558379    0.2171603  45.13 0.0006755598    1.192    0.161
        20 -10.5952    188.6324    175.5411   8.8934831653e+01   9.8205823790e+00    0.3895826    0.2498699 -51.03  0.001603141    1.956    0.489
        21 -10.9542    204.4219    175.9194   8.6035552867e+01   6.8771070658e+00    0.3128605    0.2992159 -12.24  0.001084507    1.203    0.169
        22 -10.6195    196.7343    175.8462   8.7452187283e+01   8.2845446894e+00    0.3139674    0.2662606  41.79  0.001894049    1.205    0.170
        23 -10.1337     67.4843    176.5324   1.1478572440e+02   3.0120765000e+01    0.2305403    0.1438834 -86.43 0.0008891068    1.581    0.367
        24 -12.5076    196.8487    197.2029   9.1315093188e+01   5.0760816038e+00     1.268572    0.8999895  54.05  0.007286886    1.687    0.407
        25  -9.9208    185.4407    169.2426   8.8336990762e+01   1.1448469538e+01    0.1809706    0.1306744 -50.19 0.0009451427    1.635    0.389
        26 -10.3506     87.4368    203.0782   1.1351937548e+02   2.2017351725e+01    0.2373142    0.2151943 -83.51 0.0009964044    1.241    0.194
        27 -10.7156    229.5976    165.8175   7.9549062584e+01   3.8512048520e+00    0.1795838    0.1150848 -39.07 0.0007530353    1.693    0.409
        28  -9.7303     93.5195    205.4990   1.1257563282e+02   2.0687671855e+01    0.1868068      0.15702  60.47 0.0008415362    1.052    0.050
        29  -9.8962      1.4500    161.0605   1.2781579836e+02   4.0426860956e+01     0.157004   0.08521589 -85.99  8.37714e-05    1.421    0.296
        30 -10.5434    188.1931    153.3387   8.4538723021e+01   1.3618084442e+01    0.2039952    0.1796311 -14.55  0.001154117    1.127    0.112
        31 -11.7927    133.8919    145.8008   9.4636820658e+01   2.5895280008e+01     1.240569    0.3235219 -55.01  0.003114304    5.825    0.828
        32  -9.7509    191.5152    151.5069   8.3493133852e+01   1.3271617847e+01    0.2524987    0.1283505 -48.65  0.001031182    2.364    0.577
        33 -10.4508    113.5515    151.3329   1.0049562689e+02   2.8473983893e+01    0.3078866    0.2127958  77.84 0.0009989622    1.824    0.452
        34 -10.6145    174.3128    148.7128   8.6350135728e+01   1.7237327221e+01    0.3246894    0.2675049 -74.12  0.001318991    1.582    0.368
        35 -11.5083    143.8427    146.5636   9.2508588802e+01   2.3792829398e+01    0.5126886    0.2375017 -57.06  0.001896793    2.732    0.634
        36  -9.9363    161.0834    199.6431   9.8458479051e+01   1.0837491809e+01    0.1829773    0.1722983 -89.17 0.0004355753    1.262    0.207
        37 -12.2602    108.1849    139.0775   9.9485272827e+01   3.2140204403e+01    0.6280816    0.4481664 -37.86  0.003091446    1.664    0.399
        38 -11.2010     80.5583    194.8072   1.1402314332e+02   2.4585279674e+01    0.4916213    0.2200815  55.33  0.001740794    2.138    0.532
        39 -12.6391     96.5736    138.1007   1.0222252281e+02   3.4359642841e+01    0.3048513    0.2684101  70.11 0.0004524412    1.099    0.090
        40 -11.5262    106.0018    130.8259   9.8374247170e+01   3.4402386823e+01    0.4146032     0.333422 -79.39  0.001219218    1.299    0.230
        41 -11.3049    103.0658    125.0624   9.7921850658e+01   3.6250198619e+01    0.3166702    0.2592633 -19.85  0.001097722    1.602    0.376
        42 -11.3606    135.6913    127.5938   9.0242200348e+01   2.9417858198e+01    0.7284923    0.1898811 -51.21  0.001950222    4.496    0.778
        43  -9.8849    134.9085    119.8764   8.8593282522e+01   3.1242219798e+01    0.3276096    0.1614072 -49.10 0.0009583854    2.026    0.507
        44 -11.1356    115.2813    129.2462   9.5668329641e+01   3.3062005813e+01    0.3216326    0.2863173 -13.69 0.0007558421    1.368    0.269
        45 -10.3811    160.7728    127.9178   8.4513719264e+01   2.4069914864e+01     0.348907    0.2844307 -65.04  0.001735271    1.416    0.294
        46 -11.0806    120.6231    122.8434   9.2872283097e+01   3.3475633310e+01    0.4748198    0.2980324 -19.87  0.001756808    2.979    0.664
        47  -9.7707    152.3685    119.8119   8.4426269427e+01   2.7530607081e+01    0.2362517    0.1822174 -56.21  0.001125359    1.381    0.276
        48 -10.1934    110.3912    118.5488   9.4529315246e+01   3.6408903439e+01    0.2423617    0.2277063 -71.14 0.0002560157    1.009    0.009
        49 -10.3858    167.7661    112.8157   7.9195495676e+01   2.5505431540e+01    0.3800039    0.2837911 -69.73  0.001706577    1.763    0.433
        50 -10.6117    134.5272    105.0244   8.4872806080e+01   3.4521246716e+01    0.5539488    0.1477581 -45.17   0.00155831    3.647    0.726
        51 -11.8865    119.0619    110.0449   9.0168428564e+01   3.6649791598e+01    0.6096675    0.4617841  56.65  0.002954555    1.415    0.293
        52 -10.4126    205.4090    110.0978   7.1039375024e+01   1.7477566445e+01    0.3140549    0.2209795  41.83 0.0009387432    1.485    0.327
        53 -11.5967    151.8227    195.9931   9.9704040717e+01   1.3029845842e+01    0.3333398    0.1739174  41.60 0.0008928815    1.676    0.403
        54 -10.3244    186.2263     86.0598   6.8075278959e+01   2.6122348257e+01    0.3538212    0.2587188 -47.83  0.001047274    1.388    0.279
        55  -9.0292    153.5471     81.4728   7.3478923964e+01   3.4930928020e+01    0.1572784    0.1515048 -21.76 8.482299e-05    1.029    0.028
        56 -12.6420    163.7632     64.5092   6.5941158526e+01   3.5447609169e+01    0.7929671    0.6821945 -78.22 0.0005946308    1.313    0.239
        57 -12.2382    247.0047    244.4113   9.0434248281e+01  -7.9152564515e+00    0.3282309    0.2024398  31.24  0.002351068    1.303    0.233
        58 -10.8019    158.1004    235.6592   1.0403193445e+02   5.9627334498e+00    0.2092122    0.1932158 -22.66 0.0008187197    1.344    0.256
        59  -9.6952    167.1569    233.0150   1.0209507049e+02   4.9283936268e+00     0.271534    0.1333814  57.43  0.001241344    3.110    0.678
        60  -9.1713     93.1505     62.1230   8.3330370942e+01   5.2183271750e+01    0.1903051    0.1723466 -76.06 0.0003909224    1.288    0.224
        61 -10.6461     72.0050    231.2760   1.1896990928e+02   1.9065138408e+01    0.2095354    0.1239637  87.10  0.001027187    1.778    0.438
        62 -10.7126     58.0726    227.1769   1.2113151683e+02   2.1518192934e+01    0.1749083    0.1212252  76.46 0.0004715927    1.226    0.184
