#   1 NUMBER                 Running object number                                     
#   2 MAG_AUTO               Kron-like elliptical aperture magnitude                    [mag]
#   3 X_IMAGE                Object position along x                                    [pixel]
#   4 Y_IMAGE                Object position along y                                    [pixel]
#   5 X_WORLD                Barycenter position along world x axis                     [deg]
#   6 Y_WORLD                Barycenter position along world y axis                     [deg]
#   7 A_WORLD                Profile RMS along major axis (world units)                 [deg]
#   8 B_WORLD                Profile RMS along minor axis (world units)                 [deg]
#   9 THETA_WORLD            Position angle (CCW/world-x)                               [deg]
#  10 FWHM_WORLD             FWHM assuming a gaussian core                              [deg]
#  11 ELONGATION             A_IMAGE/B_IMAGE                                           
#  12 ELLIPTICITY            1 - B_IMAGE/A_IMAGE                                       
         1 -13.2783    219.4118     56.9231   2.3190106629e+01   2.4648298716e+01     1.141727    0.9970492 -58.39   0.00766657    1.090    0.082
         2 -13.2531    239.8739     44.1998   1.8671846559e+01   2.2450365213e+01    0.9749268    0.8197936  45.88    0.0069557    1.665    0.399
         3 -10.0446    100.8953      8.3221   2.3880046968e+01   5.8162498814e+01    0.3775434    0.2071542 -62.74  0.001651549    2.293    0.564
         4  -9.2688      2.9754      2.3247   6.5490072202e+01   7.8840843217e+01    0.1852875   0.07631399  44.73 0.0007049012    4.416    0.774
         5  -9.8452     79.4713    239.4441   8.6735056926e+01   1.4479449933e+01    0.2604084    0.1521884 -85.72  0.001374969    2.425    0.588
         6  -9.3566     24.1307    250.2582   9.9529380076e+01   1.8400951621e+01    0.1577917    0.1385362  36.59 0.0006398432    1.216    0.178
         7 -12.0617     37.0541    169.3524   9.0921398370e+01   3.4969854580e+01    0.7284975    0.4602272 -10.10  0.001117024    2.378    0.579
         8 -11.6142     45.2582    164.0281   8.7897191080e+01   3.5420295741e+01     0.325394    0.2877278 -14.00 0.0004319077    1.348    0.258
         9 -11.4751     15.2799    247.0115   1.0125337010e+02   1.9830842552e+01    0.6392874    0.2438883  81.44  0.003108288    2.982    0.665
        10 -15.2112      8.2394    229.4102   1.0212050577e+02   2.3907378340e+01     7.739277     6.083815 -88.89   0.05433351    1.329    0.248
        11 -13.4775     10.1084    206.5125   1.0076056010e+02   2.8630672588e+01     1.603525     1.051267   5.17  0.004287661    1.996    0.499
        12 -15.0771     21.7130    179.4935   9.6187664262e+01   3.3948905889e+01     7.925591     2.373219  85.09   0.02181799    5.880    0.830
        13 -12.0759      1.7426    191.8576   1.0220707967e+02   3.2654375003e+01    0.3983849    0.1920165 -84.02 0.0007540901    1.950    0.487
        14  -8.5580    192.3233    193.6626   5.6180012844e+01   7.4884424676e+00    0.1100764    0.1026866 -89.39  0.000705092    1.717    0.418
        15  -8.2668     99.3605    181.2600   7.4928911655e+01   2.3861351375e+01    0.1423641    0.1083824  -5.67 0.0006976129    1.628    0.386
        16 -10.5561    230.7897    168.8307   4.5199439160e+01   6.1195706238e+00    0.3773773    0.1404717 -40.47  0.001759964    2.368    0.578
        17  -8.0827    110.6992    167.3541   6.9632782744e+01   2.5234102282e+01    0.1492397    0.1132166  71.92 0.0004984274    1.703    0.413
        18 -11.2326    245.5739    164.7074   4.2298207452e+01   4.8143055940e+00    0.3130496    0.1598059 -33.49  0.001810988    1.549    0.354
        19 -12.0412     73.4632    136.1022   7.4713370955e+01   3.8889282539e+01    0.6251944    0.3934373 -65.69 0.0004361221    1.633    0.388
        20 -11.9375     67.5885    150.3999   7.9115841599e+01   3.6066876047e+01     0.625234    0.4608927  72.34  0.001116278    1.525    0.344
        21 -13.2270     68.3633    143.8466   7.7770780714e+01   3.7648615044e+01     1.670909    0.9357302  74.10  0.002863248    2.891    0.654
        22 -13.0382     43.7013    150.9951   8.6786362624e+01   3.8986274825e+01    0.6748281    0.4505271  -7.32  0.001618446    2.100    0.524
        23 -10.5609     86.3710    138.7177   7.1142100594e+01   3.6151945859e+01     0.403105    0.3313839 -10.62 0.0008863794    1.478    0.323
        24  -9.2258     90.4766    136.0137   6.9326888524e+01   3.6135989656e+01    0.2459345    0.1860622 -34.85 0.0008421982    1.480    0.324
        25  -9.9627    241.5034    137.5092   3.7733612192e+01   9.2553663705e+00    0.1211977   0.09484056 -29.31 0.0008105928    1.011    0.011
        26 -12.2080    237.5294    156.5216   4.1917050547e+01   7.0255642968e+00    0.5679895    0.4293956  16.96  0.003833496    1.457    0.314
        27 -12.0259     55.5627    127.7745   7.9200022787e+01   4.3677057885e+01      1.00723    0.3987936 -76.45  0.002953463    3.981    0.749
        28 -14.1454      8.8354    186.7140   1.0012660562e+02   3.3309667993e+01     1.872638     0.871886  83.28  0.002542596    2.107    0.525
        29  -9.3702    243.3298    130.3347   3.6096224351e+01   1.0039776174e+01    0.1207869   0.08220818  -9.09            0    1.726    0.421
        30 -10.7142     58.9510    155.4872   8.2586758247e+01   3.5934643728e+01    0.2812701    0.2627017  21.62 0.0004388031    1.145    0.127
        31 -10.0988     88.1247    124.2169   6.7489405436e+01   3.9487091645e+01    0.3136731    0.2673942  23.40 0.0006170185    1.255    0.203
        32  -8.7583    111.2146    123.6071   6.0387248546e+01   3.5336281163e+01    0.2241105    0.1477949  27.87 0.0009515387    1.747    0.428
        33 -10.4888    242.9564    118.2288   3.3743957844e+01   1.1852960213e+01    0.2621701    0.1187118 -51.54  0.001199931    2.701    0.630
        34  -8.3534    130.5021    118.9911   5.4068325780e+01   3.2524097072e+01    0.2102854     0.133445 -70.00 0.0008076466    2.362    0.577
        35  -9.0939    101.6297    117.6954   6.1746138734e+01   3.8585452804e+01    0.2388167    0.2187061 -18.87 0.0004115952    1.183    0.155
        36 -10.6919    244.5406    113.8915   3.2685630533e+01   1.2240741151e+01    0.2129641    0.1631411 -87.64  0.001353205    1.970    0.492
        37  -9.3857    204.0813    110.7996   3.7439291980e+01   1.9464915775e+01    0.3038381    0.2032153  31.51  0.001585672    1.938    0.484
        38  -8.9450    105.4709    215.9758   7.8240767123e+01   1.5664483470e+01    0.1786449    0.1323559 -61.66  0.001023009    1.581    0.367
        39 -10.2718    104.3457    129.7795   6.3812513127e+01   3.5181662624e+01    0.6032349    0.3976696  55.74  0.002518115    1.746    0.427
        40 -10.3189     52.9734     91.0061   7.2104043348e+01   5.3663203126e+01    0.3768355    0.1965841 -49.92  0.001373575    1.826    0.452
        41 -10.7037    167.4058     88.4580   3.8061508143e+01   3.0645326975e+01    0.2725962    0.2256844 -34.98 0.0008937996    1.179    0.152
        42  -9.9419    184.5236     77.0298   3.2282375033e+01   2.8852073652e+01    0.2442382      0.19102  40.84 0.0006769007    1.544    0.352
        43 -11.7538    247.5909    247.2926   5.5419946864e+01  -5.7823878492e+00    0.4585162    0.3092846  19.73  0.003664275    1.487    0.328
        44  -8.5754     70.0427    248.5008   8.9574863318e+01   1.3919739151e+01    0.1759511   0.09792292  29.20  0.000370524    1.478    0.324
        45 -10.5073     13.3451     60.2590   8.3261022851e+01   6.5844166996e+01    0.2637933    0.2218736 -45.32 0.0005179895    1.060    0.056
        46 -10.7849     96.6359    227.2514   8.1620319252e+01   1.4651372621e+01    0.2992708    0.1656472  35.95  0.001573141    1.509    0.337
        47 -10.5127     76.8052    202.1376   8.3579333339e+01   2.2363280454e+01    0.3392439    0.2336544  84.43 0.0004180504    1.778    0.437
        48 -10.6769     80.8067    244.9017   8.6924252277e+01   1.3325810453e+01    0.4417515    0.2656485  72.88  0.002289776    2.321    0.569
