#   1 NUMBER                 Running object number                                     
#   2 MAG_AUTO               Kron-like elliptical aperture magnitude                    [mag]
#   3 X_IMAGE                Object position along x                                    [pixel]
#   4 Y_IMAGE                Object position along y                                    [pixel]
#   5 X_WORLD                Barycenter position along world x axis                     [deg]
#   6 Y_WORLD                Barycenter position along world y axis                     [deg]
#   7 A_WORLD                Profile RMS along major axis (world units)                 [deg]
#   8 B_WORLD                Profile RMS along minor axis (world units)                 [deg]
#   9 THETA_WORLD            Position angle (CCW/world-x)                               [deg]
#  10 FWHM_WORLD             FWHM assuming a gaussian core                              [deg]
#  11 ELONGATION             A_IMAGE/B_IMAGE                                           
#  12 ELLIPTICITY            1 - B_IMAGE/A_IMAGE                                       
         1 -14.4240    153.4159     51.8718   8.8483861253e+01   3.9940197228e+01     1.532044     1.213897  44.84  0.003294636    1.259    0.206
         2 -14.6172    164.7794     35.9631   8.0947882540e+01   3.9286753670e+01     1.271615     1.024943   3.86  0.004248755    1.383    0.277
         3 -13.9986    178.1573      4.8053   6.8544422721e+01   3.9193515405e+01     1.019463      0.68499  72.40  0.004096536    1.447    0.309
         4  -9.6377      6.9429    248.4565   1.5263398966e+02   2.5198859174e+01    0.1118887   0.06725652  41.81 0.0005319541    1.339    0.253
         5 -19.8510     71.5608    168.1373   1.3551941901e+02   3.2258149143e+01     16.18665     6.588786 -69.63   0.07540295    2.687    0.628
         6 -13.5233    207.5893    183.7664   1.0964841587e+02   8.1518875363e+00    0.6310999    0.4435481 -50.11  0.001170922    2.214    0.548
         7 -13.0533    210.4919    181.5329   1.0875958527e+02   7.9606395694e+00    0.4179342     0.282173  -9.67  0.001822453    1.551    0.355
         8 -10.5193     32.2746    188.5072   1.4578848010e+02   3.2770937123e+01    0.1932485    0.1573816 -59.65 0.0004455937    1.592    0.372
         9 -12.8407     28.3126    183.9205   1.4634943613e+02   3.4017623012e+01    0.3181097    0.2126935  57.08  0.000872533    1.172    0.147
        10 -11.0514    157.7310    184.7660   1.1911646295e+02   1.6192454592e+01    0.1877335      0.15807 -34.30 0.0006579508    1.387    0.279
        11 -10.9946    140.4427    249.6179   1.3027828806e+02   9.9519874459e+00    0.1855472    0.1459908  61.86 0.0004928204    1.513    0.339
        12 -12.6005    178.9189    174.6121   1.1332294526e+02   1.4141817384e+01    0.4971805     0.306769 -21.16  0.002566993    2.021    0.505
        13 -12.1162    197.7018    176.2576   1.1010616919e+02   1.0733517979e+01    0.3645553    0.3149106 -51.72  0.001512935    1.642    0.391
        14 -10.0007    145.5238    178.4749   1.2061047979e+02   1.9195342591e+01    0.1276512    0.1084889  36.11 5.471681e-05    1.008    0.008
        15 -10.5117    125.9538    186.7680   1.2585911198e+02   2.0972881665e+01    0.3680253     0.191632  62.74 0.0009146996    3.092    0.677
        16 -10.9503    220.1504    227.3953   1.1430207839e+02   1.5048431107e+00    0.1524305    0.1160318 -18.31 0.0008726032    1.506    0.336
        17 -12.4968    146.7109    170.6198   1.1911806052e+02   2.0287215435e+01    0.5573378     0.408416  81.12   0.00296747    2.131    0.531
        18 -11.4680    138.4914    172.2203   1.2110767546e+02   2.1405235719e+01    0.4672994    0.3058593  75.11  0.002230556    2.609    0.617
        19 -11.6514    226.8249    168.5516   1.0366025022e+02   6.8915735691e+00    0.4240915    0.2605001 -53.40  0.001993994    3.490    0.713
        20 -11.0461    205.8142    170.3468   1.0759263232e+02   1.0148924480e+01     0.488674    0.2237471  26.03  0.002113651    2.656    0.623
        21 -10.4684    101.0615    224.3547   1.3493846680e+02   1.8569220709e+01     0.158282    0.1010633  44.22  0.001074423    1.181    0.153
        22 -11.4075    177.3974    169.2281   1.1267612576e+02   1.5194404174e+01    0.2318959    0.1608831 -39.24 0.0009238402    1.638    0.389
        23 -10.7706     35.0618    168.2974   1.4389335478e+02   3.6403873959e+01    0.2184906    0.1338496  63.43 0.0009129461    1.396    0.284
        24 -10.1622    123.9067    166.8623   1.2343677447e+02   2.4764352358e+01    0.2000401    0.1415384  65.22 0.0006747171    1.645    0.392
        25 -11.0629    199.9872    163.9099   1.0745031434e+02   1.2008938147e+01    0.3029821     0.245867  48.33  0.001427776    1.410    0.291
        26 -11.9292    230.2704    166.5370   1.0271905016e+02   6.5723406743e+00    0.2761164    0.1563921 -36.87  0.001519179    2.022    0.505
        27 -10.6621    110.1187    222.9100   1.3311395603e+02   1.7576937226e+01     0.161202    0.1149893  52.79 0.0004423253    1.205    0.170
        28 -10.8806     20.6495    219.1469   1.4945557223e+02   2.8509952641e+01    0.1583134   0.09049976  48.26 0.0006609213    1.273    0.214
        29 -10.4471     15.6684    156.8737   1.4760139123e+02   4.0501457757e+01     0.166262    0.1462521  29.90 0.0006662263    1.407    0.289
        30 -13.4596    133.9371    145.4131   1.1752806202e+02   2.7002408262e+01     1.117451    0.3368537 -54.80  0.003405357    4.929    0.797
        31 -11.0165    174.2801    148.3648   1.0937512737e+02   1.8984110767e+01    0.3137847    0.2503725 -51.88  0.001310695    1.540    0.351
        32 -14.0738    135.8487    127.6578   1.1353795590e+02   3.0036214598e+01     1.814966     0.498797 -52.31  0.005050756    5.192    0.807
        33 -10.3053    139.4078    216.7276   1.2696945674e+02   1.4352406811e+01    0.2551916    0.1665035  83.62  0.001377553    3.035    0.670
        34  -9.8318     22.8564    239.6454   1.4980336247e+02   2.5068973578e+01     0.113812   0.05905071  48.95  0.000311579    1.302    0.232
        35 -12.0144      7.5495    139.1996   1.4855153550e+02   4.4844749100e+01    0.3879696    0.2202372  17.71  0.002322864    2.252    0.556
        36  -9.8337    113.4216    212.5547   1.3144638461e+02   1.8683162974e+01    0.1123211   0.09186983  34.44 -3.000233e-05    1.171    0.146
        37 -12.2812    209.4866    234.5083   1.1698628461e+02   2.2538264233e+00    0.2317907    0.1426181   7.09  0.001132832    1.702    0.412
        38 -12.7963    153.6272    145.7858   1.1319351766e+02   2.3302841262e+01    0.4409493    0.3013158  52.66  0.002273809    1.519    0.342
        39 -11.6866    160.2061    128.4117   1.0814655491e+02   2.5087878701e+01    0.3785243    0.2942489 -20.25  0.001998786    1.431    0.301
        40 -11.0459     18.4062    128.9552   1.4504430421e+02   4.6257579348e+01    0.2148997    0.1657632 -50.85  0.001219322    1.532    0.347
        41 -10.0976     31.1744    204.7765   1.4687810592e+02   2.9942889817e+01    0.1233495    0.1032045  37.46 0.0004895467    1.379    0.275
        42 -11.4401     21.6111    234.4389   1.4983572039e+02   2.5981120456e+01    0.1332995    0.1056639  66.67 0.0006796534    1.206    0.170
        43 -11.8705      4.4063    120.2172   1.4823189671e+02   4.9205698752e+01    0.3703315    0.2326707  16.50  0.002318374    2.015    0.504
        44 -13.5213    143.8535    145.1637   1.1522884408e+02   2.5234817235e+01    0.8732929    0.4030349 -54.85  0.003529804    2.832    0.647
        45 -11.7780    110.1371    231.6432   1.3392470685e+02   1.6312066716e+01    0.3354684    0.2209501 -83.18   0.00227714    2.145    0.534
        46 -11.6881    134.4973    102.9679   1.0812641334e+02   3.5147296426e+01    0.3682559    0.2093417 -37.39  0.001148057    1.882    0.469
        47 -12.0083    135.3388    195.8094   1.2515403471e+02   1.8060278902e+01    0.2626702    0.1923334  74.28 0.0008336029    1.856    0.461
        48 -11.9292      4.6029    112.1058   1.4762984965e+02   5.1011473972e+01    0.3212726    0.2101251  -0.53  0.001967403    2.198    0.545
        49 -10.2520    167.3231    112.6284   1.0295380268e+02   2.6385259155e+01    0.1473809    0.1168232 -78.93 0.0007032691    1.809    0.447
        50 -10.7974    124.7813    228.4122   1.3094718318e+02   1.4790697926e+01     0.285758    0.1823472  66.01  0.001014964    2.008    0.502
        51 -10.8112    205.3588    110.1272   9.4979191929e+01   1.8723175966e+01    0.3006663    0.1992556  40.78 0.0009153216    1.483    0.326
        52 -10.9214     40.2370    194.4634   1.4451617387e+02   3.0865877529e+01    0.3711209    0.1605362  33.61  0.001415222    2.099    0.524
        53 -11.1585     18.7876    108.8144   1.4314944205e+02   5.0791191125e+01    0.1789391    0.1644477 -16.67 0.0008215361    1.400    0.286
        54 -10.4057    156.4931    105.5211   1.0356035435e+02   2.9975565899e+01    0.2428083    0.1967539  85.40 0.0007053915    1.648    0.393
        55 -10.9866    124.3853     94.8689   1.0862643473e+02   3.8867207898e+01    0.2432732    0.2012078  55.56 0.0004960652    1.246    0.197
        56 -10.6151    144.1647     79.0735   9.9176745096e+01   3.7576888255e+01     0.236667    0.2039289  13.71 0.0006531439    1.267    0.211
        57 -11.0855     12.4769    248.9886   1.5177114280e+02   2.4634516132e+01     0.154572   0.08603803 -69.25  0.000706395    2.299    0.565
        58 -12.3359     13.6933    243.7061   1.5143422433e+02   2.5301784272e+01    0.2082188    0.1010669 -78.37  0.001546646    2.244    0.554
        59 -12.8960    168.1583     28.7305   7.7935779746e+01   3.9312533268e+01    0.4434826    0.3852156   7.68  0.001020204    1.235    0.191
        60 -10.7010     13.7243     59.9722   1.3851967011e+02   6.2592558114e+01    0.1804879    0.1741606 -80.21  0.000428772    1.164    0.141
        61 -10.6416    144.6938     33.9382   8.4012307718e+01   4.4789491931e+01    0.2771626    0.2176505  72.04  0.000302641    1.360    0.265
        62 -10.7877    189.7009     14.9818   7.0513369418e+01   3.5188286882e+01    0.2019711    0.1824947 -30.95 0.0006337648    1.097    0.088
