#   1 NUMBER                 Running object number                                     
#   2 MAG_AUTO               Kron-like elliptical aperture magnitude                    [mag]
#   3 X_IMAGE                Object position along x                                    [pixel]
#   4 Y_IMAGE                Object position along y                                    [pixel]
#   5 X_WORLD                Barycenter position along world x axis                     [deg]
#   6 Y_WORLD                Barycenter position along world y axis                     [deg]
#   7 A_WORLD                Profile RMS along major axis (world units)                 [deg]
#   8 B_WORLD                Profile RMS along minor axis (world units)                 [deg]
#   9 THETA_WORLD            Position angle (CCW/world-x)                               [deg]
#  10 FWHM_WORLD             FWHM assuming a gaussian core                              [deg]
#  11 ELONGATION             A_IMAGE/B_IMAGE                                           
#  12 ELLIPTICITY            1 - B_IMAGE/A_IMAGE                                       
         1 -14.2696    214.0170      3.0303   4.7068936573e+01   3.0875839201e+01     2.585604     1.586048  46.35   0.01208592    1.896    0.472
         2 -13.9464    175.5618     46.4041   6.4312708501e+01   3.5484072669e+01     1.524979     0.999567  33.67  0.004111561    1.805    0.446
         3 -13.9476    188.4950     34.5076   5.8683491330e+01   3.3770245962e+01    0.9260014    0.8878938 -22.32  0.003788079    1.099    0.090
         4 -14.3751    193.9194     27.1334   5.5794993707e+01   3.3290495084e+01     1.284469    0.9981203  27.29  0.001405456    1.540    0.351
         5 -13.1932     42.9619      3.9564   8.3635920833e+01   6.9511344233e+01    0.5870096    0.3017584  39.94  0.002428428    2.030    0.507
         6  -8.3891     66.9609    225.5144   1.2646433349e+02   2.0749125544e+01    0.1901156    0.1040573  30.55  0.001057576    2.212    0.548
         7 -16.7813     71.6199    146.7430   1.1645041441e+02   3.6485526674e+01     13.13977     6.251023  78.03    0.0347648    6.556    0.847
         8  -9.4925     51.2776    208.2577   1.2799396318e+02   2.5908203862e+01   0.09241061   0.08782578 -59.99  0.000185755    1.468    0.319
         9 -10.5686     44.1986    210.4204   1.2950963224e+02   2.6312052965e+01    0.2299647    0.1166584  57.16 0.0006890148    1.673    0.402
        10  -9.9471     37.7545    207.0000   1.3047328187e+02   2.7690488552e+01    0.1445312   0.05645313  36.03 0.0003747729    2.488    0.598
        11 -16.7692     68.4539    248.0842   1.2794540444e+02   1.6688448283e+01     7.407889     2.200684  32.39   0.02701038    5.522    0.819
        12  -9.8035     51.0087    204.8971   1.2776914030e+02   2.6594971592e+01    0.1871032    0.1027711  63.73 0.0005353654    1.653    0.395
        13  -9.6624    163.2701    203.9223   1.0497398171e+02   9.8005851772e+00    0.1688295      0.15835  19.52 0.0003534418    1.097    0.089
        14  -9.7752     45.4914    203.1826   1.2870183257e+02   2.7573180336e+01    0.2179628    0.1215242 -74.62  0.001312683    1.682    0.405
        15  -9.3352     43.2715    200.2677   1.2890153769e+02   2.8402445311e+01    0.1553887    0.1138394  84.17 0.0002093285    1.147    0.128
        16 -12.1369    155.4270    198.7645   1.0572387757e+02   1.2035118430e+01    0.6708342    0.3577645 -66.74  0.002653541    3.686    0.729
        17  -9.7253     88.0116    202.2948   1.2010650634e+02   2.2263587758e+01    0.1779308    0.1370844  52.34 0.0005351501    1.136    0.120
        18 -12.0420     38.3165    200.8694   1.2991330133e+02   2.8832013794e+01     0.185248    0.1424981  67.00 0.0004859187    1.066    0.062
        19 -10.4773    209.8529    199.3486   9.5233439213e+01   2.4696634923e+00    0.1985072    0.1705152 -35.39 0.0006162116    1.382    0.277
        20 -12.1109    193.3461    192.9101   9.7185191567e+01   6.2947243889e+00       0.7761    0.4437064 -50.64  0.003334493    2.330    0.571
        21 -12.1967    183.3827    215.6521   1.0294295175e+02   4.5524310811e+00    0.3958989    0.3316603  69.12  0.002487041    1.638    0.390
        22 -10.3912     82.4279    195.1518   1.2044484304e+02   2.4471326439e+01    0.2731461    0.2212021  31.82  0.001731119    1.430    0.300
        23 -13.0010     69.9650    190.2722   1.2251987031e+02   2.7167513395e+01    0.6707426    0.5778769 -74.50  0.004553392    1.219    0.180
        24  -9.9763    198.6579    222.8561   1.0125032003e+02   1.0433599929e+00    0.1595584    0.1402277  16.64 0.0006072331    1.118    0.106
        25 -11.8303     55.7539    211.4982   1.2740295763e+02   2.4748082494e+01    0.4829162    0.2013124  45.29   0.00126081    1.990    0.497
        26 -12.2591     40.0444    213.3190   1.3049531983e+02   2.6225255329e+01    0.2359221    0.1294966  56.72  0.001097884    1.493    0.330
        27  -9.8960    152.2614    184.6119   1.0401926247e+02   1.5126172813e+01    0.1333744    0.1053805  84.93 0.0006975417    1.693    0.409
        28 -11.6668     99.4745    180.8461   1.1492378255e+02   2.4872294663e+01    0.2424632    0.2262771  79.09 0.0005270591    1.073    0.068
        29 -11.9024    145.2952    179.4227   1.0460417560e+02   1.7362799924e+01    0.4132561    0.2641423  29.56  0.002011956    1.697    0.411
        30  -9.9896     70.8947    179.1800   1.2105289083e+02   2.9369314845e+01    0.1975671    0.1431762  69.38 0.0005957836    1.295    0.228
        31  -9.8753    167.4493    175.2733   9.9125655926e+01   1.4026106153e+01    0.3679189    0.2212987 -74.18  0.001266798    4.312    0.768
        32 -12.5099    138.7578    171.4945   1.0463040540e+02   2.0100612274e+01    0.5355738    0.4536867 -82.01  0.003008106    1.362    0.266
        33  -9.3329    202.6805    171.2990   9.1243173095e+01   8.0470752118e+00    0.1268613    0.1120842  84.47 0.0002978703    1.619    0.382
        34 -11.6103    195.2780    168.7131   9.2161451663e+01   9.8751181907e+00    0.3238943     0.279347  24.17 0.0006760508    1.068    0.064
        35 -10.3938     30.6722    169.9987   1.2895248884e+02   3.6043808630e+01    0.1768881    0.1593901  57.97 0.0001886736    1.264    0.209
        36 -13.6185     49.3819    217.6202   1.2908238613e+02   2.4349443970e+01    0.5194041    0.1908363  57.02  0.002540733    2.538    0.606
        37 -10.2204    230.3116    166.6297   8.5189871443e+01   3.7046344899e+00    0.1257173    0.1073579 -64.84 0.0007035152    1.773    0.436
        38 -10.9023    191.0113    161.0966   9.1437250429e+01   1.2006699087e+01    0.2826503    0.2213433 -53.67  0.001423152    1.543    0.352
        39 -11.1436    189.3017    155.3106   9.0552403398e+01   1.3364269546e+01    0.3540314    0.3507591 -53.53  0.001247372    1.167    0.143
        40 -10.6066    141.6262    158.6257   1.0156065503e+02   2.2159765639e+01    0.2467828    0.2263381  76.85 0.0004175029    1.162    0.139
        41 -13.0410     97.2504    154.8370   1.1139145136e+02   3.0835231921e+01    0.6812082    0.5061906 -26.76  0.003465395    1.883    0.469
        42 -11.9391    133.8849    145.2715   1.0065745655e+02   2.6429896995e+01     1.092913    0.2964323 -54.25  0.002869247    5.159    0.806
        43 -10.5044    174.9111    149.1400   9.2200537345e+01   1.7410579541e+01    0.2199619    0.2043977  78.89 0.0005658153    1.258    0.205
        44 -11.7311    144.4129    146.8088   9.8498281859e+01   2.4047980316e+01     0.422588    0.2808926 -75.83  0.001758924    2.375    0.579
        45 -12.1896    108.1224    140.2451   1.0598235068e+02   3.2283707362e+01    0.5086872    0.3126673 -35.01  0.002232128    2.082    0.520
        46 -12.5819     96.3637    140.2604   1.0899276572e+02   3.4267465901e+01    0.2716556    0.2650494 -43.24 0.0004911077    1.127    0.113
        47 -12.2733     64.1005    207.1223   1.2540368916e+02   2.4555743574e+01     0.401201    0.3562099 -53.76  0.001931071    1.493    0.330
        48 -11.2635    105.9133    130.6554   1.0457664314e+02   3.4835225143e+01    0.3807714    0.3120212 -70.60  0.001186336    1.259    0.206
        49 -11.3624    103.0345    126.5269   1.0445215568e+02   3.6276953289e+01    0.2988176    0.2646703 -13.03 0.0008222198    1.334    0.250
        50 -12.4446    115.7854    130.0187   1.0186945904e+02   3.3194455390e+01    0.6639374    0.4386086 -13.97  0.001518956    2.726    0.633
        51 -11.2513    135.4226    121.8361   9.4975306523e+01   3.1138364065e+01    0.5253766    0.2125235 -53.96  0.001721214    3.025    0.669
        52 -11.1902    136.0000    128.4987   9.6423686968e+01   2.9595329491e+01    0.4374426    0.1932313 -51.46  0.001595931    2.416    0.586
        53 -10.6079    110.5944    119.3344   1.0080330988e+02   3.6548775974e+01    0.2553761     0.240707 -11.80 0.0004993597    1.153    0.133
        54 -12.8337     60.3118    204.1255   1.2587642605e+02   2.5617697988e+01    0.4051458    0.2624204 -56.07  0.001412795    1.824    0.452
        55 -12.2201     65.0203    114.0957   1.1250353506e+02   4.4997171120e+01    0.3268352    0.2550825 -55.24  0.001168366    1.164    0.141
        56 -10.2877    167.7938    112.6504   8.5016617307e+01   2.5989989501e+01    0.2994253    0.2440196 -62.11 0.0009892485    1.420    0.296
        57 -10.5123    160.9979    127.9940   9.0389701446e+01   2.4458313892e+01    0.2479772    0.1945021 -82.58  0.001145544    1.757    0.431
        58 -11.4640    120.2335    110.7540   9.6123922091e+01   3.6606927054e+01    0.4336296    0.2461265  56.99  0.001727028    2.206    0.547
        59 -10.2197    205.6638    110.1355   7.6720330572e+01   1.7889041026e+01    0.2752763    0.2132655  38.91 0.0006362204    1.336    0.252
        60  -9.8142     42.7572    221.3353   1.3055661413e+02   2.4421920684e+01    0.1806763    0.1282711  11.96  0.001106431    2.644    0.622
        61 -10.9712     70.3333    219.3940   1.2531117212e+02   2.1431188378e+01    0.2740805    0.1522564  65.08   0.00158287    1.723    0.420
        62 -10.5330     41.8718     91.9673   1.1515660754e+02   5.2857009931e+01    0.1962962    0.1677588 -56.85  0.000580168    1.021    0.020
        63  -9.4817    163.2981    210.3485   1.0597653271e+02   8.7472360354e+00    0.1272496   0.09461859   6.17 0.0007035616    1.683    0.406
        64 -11.8306    166.9384     67.0708   7.2276493333e+01   3.4501914206e+01     0.524443    0.3452438 -75.82 0.0005111697    2.405    0.584
        65 -19.3557     16.4713    134.8067   1.2891605513e+02   4.5151733879e+01     18.10319      1.97403 -73.66   0.03945061   10.337    0.903
        66 -11.9752     72.7060    212.1414   1.2419014458e+02   2.2476895999e+01    0.2279204    0.1697981  64.00 0.0003069741    1.117    0.105
        67 -10.3553     76.4167    207.1783   1.2297266059e+02   2.2930612427e+01    0.3445406     0.198859 -61.19  0.001490052    1.850    0.460
        68  -9.8816     71.8517    229.8184   1.2592735658e+02   1.9353982951e+01    0.1465723   0.09685182  60.27            0    1.233    0.189
