#   1 NUMBER                 Running object number                                     
#   2 MAG_AUTO               Kron-like elliptical aperture magnitude                    [mag]
#   3 X_IMAGE                Object position along x                                    [pixel]
#   4 Y_IMAGE                Object position along y                                    [pixel]
#   5 X_WORLD                Barycenter position along world x axis                     [deg]
#   6 Y_WORLD                Barycenter position along world y axis                     [deg]
#   7 A_WORLD                Profile RMS along major axis (world units)                 [deg]
#   8 B_WORLD                Profile RMS along minor axis (world units)                 [deg]
#   9 THETA_WORLD            Position angle (CCW/world-x)                               [deg]
#  10 FWHM_WORLD             FWHM assuming a gaussian core                              [deg]
#  11 ELONGATION             A_IMAGE/B_IMAGE                                           
#  12 ELLIPTICITY            1 - B_IMAGE/A_IMAGE                                       
         1 -14.8748    163.1970     48.2858   7.4966659375e+01   3.8486045532e+01      1.13441     1.073429 -22.31  0.003812687    1.198    0.165
         2 -15.0363    177.0643     18.5755   6.4770507748e+01   3.8797901206e+01     1.069148    0.9870979  68.27  0.005088528    1.146    0.128
         3 -14.6494    190.5428     15.3418   6.2270660066e+01   3.5932374483e+01     1.491167    0.6673972 -82.66  0.005555205    3.532    0.717
         4 -11.9602     19.8404    196.6580   1.4293799912e+02   3.1416031561e+01    0.2265054    0.1484262 -62.68   0.00128815    1.525    0.344
         5 -20.3067     73.7962    178.4146   1.2886731310e+02   2.8999605655e+01     17.11066     7.017301 -64.29   0.06892118    2.305    0.566
         6 -12.4231    219.1964    194.7942   9.9375121760e+01  -1.3903482502e+00    0.3718339    0.1915175 -44.01  0.001385809    1.973    0.493
         7 -10.6783    140.2798    240.4489   1.2328195602e+02   4.4626721782e+00    0.1974763    0.1681485 -43.98 0.0007023668    1.398    0.285
         8 -12.0389    169.0344    194.0202   1.0951302946e+02   8.2423973660e+00    0.2261732    0.2214475  54.59 0.0006679419    1.037    0.036
         9 -11.8272    135.6527    237.9613   1.2386878737e+02   5.7207960487e+00    0.3818139      0.30231 -72.89  0.001155097    1.444    0.307
        10 -11.8549    116.8382    236.2554   1.2745402573e+02   9.2535623189e+00    0.2629362    0.2070936 -87.22 0.0007690524    1.352    0.260
        11 -10.9156    136.9274    185.3649   1.1507736113e+02   1.6396435255e+01     0.207169    0.1807803  47.64 0.0004056149    1.114    0.102
        12 -12.1294    162.9754    181.6099   1.0842090433e+02   1.2052613480e+01    0.3565011    0.2242787 -49.77  0.001592703    1.637    0.389
        13 -13.8578    188.0224    174.8484   1.0158470039e+02   8.3852638627e+00     1.066469    0.5153288 -54.95   0.00313283    2.593    0.614
        14 -10.9036    139.7111    246.2747   1.2420003917e+02   3.5068393627e+00    0.2115993    0.1678688  79.26 0.0006510348    1.441    0.306
        15 -12.7942    176.8330    169.3871   1.0283002801e+02   1.1823189125e+01    0.4830047    0.2297512 -54.68   0.00162694    2.500    0.600
        16 -10.4600    130.9236    231.1353   1.2387413148e+02   7.8433540370e+00     0.191394    0.1790399  60.62 0.0004609993    1.088    0.081
        17 -12.3011    194.6329    172.3909   9.9685904701e+01   7.5448194900e+00    0.4188475    0.2756707 -54.73  0.001479385    1.697    0.411
        18 -10.7244    207.3663    170.9365   9.6798084399e+01   5.2853604485e+00    0.3204836    0.1686753 -52.57  0.001289722    2.202    0.546
        19 -10.2604    125.4700    235.4881   1.2559813216e+02   7.9401720521e+00    0.1913646    0.1309294 -58.55 5.251832e-07    1.629    0.386
        20 -12.2151    230.1671    166.6509   9.1556311290e+01   1.7082432598e+00    0.3537484    0.1777764 -52.58  0.001424183    2.424    0.587
        21 -13.0843    161.2332    165.4975   1.0548081384e+02   1.5928309709e+01    0.5907108    0.3390263 -64.08  0.002236985    2.369    0.578
        22 -12.4817    188.7450    154.2427   9.6956190203e+01   1.2503977700e+01    0.6434178    0.4769612  45.24  0.002340841    1.379    0.275
        23 -10.2829    177.9116    156.1342   9.9700983288e+01   1.4426116510e+01     0.222414    0.2024983 -88.79 0.0002731476    1.197    0.164
        24 -10.7416     22.9441    156.1257   1.3811364301e+02   4.0476672567e+01    0.1893459    0.1537066 -80.04 0.0005039563    1.021    0.020
        25 -12.9285    164.5860    153.2863   1.0203408803e+02   1.7919506067e+01    0.4566078    0.3593857  50.52  0.001176353    1.284    0.221
        26 -11.2235     17.1947    153.8033   1.3922730008e+02   4.1537545388e+01    0.3029267    0.2103982 -29.93  0.001774775    2.026    0.506
        27 -11.7584    174.4595    148.9333   9.8829324144e+01   1.6726699981e+01    0.3775091    0.2973704 -65.88  0.001100522    1.417    0.294
        28 -12.2675    127.0863    228.5438   1.2430079344e+02   9.0199898698e+00    0.4076356    0.3565854 -13.60  0.002404755    1.549    0.354
        29 -12.5713     27.3290    145.8136   1.3570316241e+02   4.2509992241e+01    0.3896656    0.3221292 -55.40  0.001542526    1.219    0.180
        30  -9.8177      8.2557    149.3173   1.4087256334e+02   4.3311345715e+01    0.1196342   0.07319459 -54.53 0.0003142845    1.535    0.348
        31 -13.2881    207.9103    226.0030   1.0741325894e+02  -4.7536545741e+00    0.4288249    0.2326778 -36.47  0.001622877    1.947    0.486
        32 -11.2628      6.5569    228.5078   1.4773334621e+02   2.5954252996e+01    0.1135273    0.0808614  81.03 4.420727e-05    1.017    0.017
        33 -11.8740    114.8877    250.3041   1.2958848354e+02   6.9136859149e+00    0.1662403    0.1512685  40.30 0.0007216291    1.252    0.202
        34 -12.7873    160.3719    127.8599   9.7003058828e+01   2.4464700592e+01    0.5204471    0.3368637 -53.47  0.001405655    1.594    0.373
        35 -11.6230    146.3687    224.2213   1.1962482906e+02   6.4528606682e+00    0.4168855    0.2230885  47.14  0.001930107    1.706    0.414
        36 -10.3751     23.7316    123.5505   1.3339962310e+02   4.8075499648e+01    0.1936957     0.128753   9.48  0.001098553    2.038    0.509
        37 -10.3245     22.1050    222.3266   1.4455517219e+02   2.5599288546e+01    0.1439245    0.1081123  77.47 0.0001729136    1.038    0.037
        38 -10.9985    167.7303    112.7306   9.1530083950e+01   2.5992028660e+01    0.3210061    0.2243191 -82.87  0.001310507    2.054    0.513
        39 -11.1197    231.2897    113.7343   7.9748008391e+01   1.1367394438e+01     0.248437    0.2404681 -34.18 0.0007301923    1.132    0.117
        40 -10.9308    205.3602    110.2497   8.3357489839e+01   1.7732451363e+01    0.3078811    0.2111551  49.89 0.0009019674    1.538    0.350
        41 -10.4947    145.0000    232.9505   1.2123864831e+02   5.0306033751e+00    0.4059595   0.07781876 -51.82  0.001152977    5.901    0.831
        42 -10.8025    217.5681    218.0162   1.0411209594e+02  -5.0697253355e+00    0.1911672    0.1239737 -37.36 0.0006571297    1.573    0.364
        43 -13.8123     11.6590    205.9940   1.4529019208e+02   3.0179100571e+01    0.4502849    0.3658234  16.84  0.002430395    1.946    0.486
        44 -11.4857      3.4575    246.1613   1.4925021009e+02   2.2777901065e+01    0.2088504    0.1312841  25.04  0.000796472    2.735    0.634
        45 -10.9906    163.9662    243.3098   1.1895158151e+02  -1.2594705747e-01    0.1890229    0.1494172  38.19 0.0004617925    1.096    0.087
        46 -10.8850    134.2691    197.7923   1.1791330331e+02   1.4147069149e+01    0.3434383    0.2622286 -30.41  0.001105779    1.682    0.405
        47 -11.6678    120.7633    197.0672   1.2084656359e+02   1.6805289983e+01    0.2603233    0.2120261  67.66 0.0004848923    1.206    0.171
        48 -10.8957    144.9783     82.3254   8.8488889944e+01   3.7321381418e+01    0.2143736    0.1913522  52.58 0.0004348189    1.098    0.090
        49 -14.4040    151.6503     62.9375   8.1416768747e+01   3.9078527741e+01     1.329196     1.011558  32.03  0.003535293    1.502    0.334
        50 -10.5554    128.0788    245.6691   1.2642574163e+02   5.5821862153e+00    0.1538555    0.1393996  62.01 0.0009971089    1.088    0.081
        51 -13.4424    167.5893     39.9309   7.1881923129e+01   3.8550660533e+01    0.4624163    0.4126906  70.86 0.0008844412    1.023    0.023
        52 -11.2768     13.5820     59.9204   1.2363572139e+02   6.2483065383e+01    0.1794355    0.1589247  -0.44 0.0004141841    1.286    0.222
        53 -11.8125    109.4124    244.5305   1.2996838501e+02   8.8848785366e+00    0.2361217    0.1756852 -59.61  0.001418248    1.530    0.346
