#   1 NUMBER                 Running object number                                     
#   2 MAG_AUTO               Kron-like elliptical aperture magnitude                    [mag]
#   3 X_IMAGE                Object position along x                                    [pixel]
#   4 Y_IMAGE                Object position along y                                    [pixel]
#   5 X_WORLD                Barycenter position along world x axis                     [deg]
#   6 Y_WORLD                Barycenter position along world y axis                     [deg]
#   7 A_WORLD                Profile RMS along major axis (world units)                 [deg]
#   8 B_WORLD                Profile RMS along minor axis (world units)                 [deg]
#   9 THETA_WORLD            Position angle (CCW/world-x)                               [deg]
#  10 FWHM_WORLD             FWHM assuming a gaussian core                              [deg]
#  11 ELONGATION             A_IMAGE/B_IMAGE                                           
#  12 ELLIPTICITY            1 - B_IMAGE/A_IMAGE                                       
         1 -14.9328    157.3211     49.4678   8.1090286781e+01   4.0026582329e+01      1.33042     1.174024 -31.90  0.003674582    1.174    0.148
         2 -14.9564    167.5658     18.4252   6.9287241436e+01   4.1365443600e+01     1.635737     1.043682 -84.52  0.005972671    1.820    0.450
         3 -14.0990    173.7092      3.6368   6.3877169000e+01   4.1236367100e+01     1.246561    0.4818722  85.61  0.004232616    3.458    0.711
         4 -14.1017    190.0191     14.6674   6.5167850721e+01   3.5911394416e+01    0.7101052     0.459841 -65.93  0.002457006    1.629    0.386
         5 -13.5498    197.2486      7.7271   6.2416180839e+01   3.4770804987e+01    0.7101628    0.3907512 -46.15   0.00342618    1.778    0.438
         6 -12.3748    167.3743    241.7530   1.2222884013e+02   2.6405732801e+00    0.3948413     0.214404 -35.36  0.001874797    2.545    0.607
         7 -20.4676     83.5581    179.5633   1.3096970656e+02   2.7844841486e+01     15.07032      6.72079 -66.14   0.06745069    2.270    0.560
         8 -12.8681    204.0852    174.8293   1.0408079791e+02   6.4770217087e+00    0.5665532    0.3588171 -59.68  0.002173772    2.483    0.597
         9 -11.6608    207.6626    171.5500   1.0273264331e+02   6.3270621314e+00    0.3834257    0.2334594 -52.15  0.001389401    2.138    0.532
        10 -12.8583    195.8010    173.7936   1.0549098073e+02   8.2691747984e+00    0.8715567    0.4507921 -54.62   0.00340135    2.861    0.650
        11 -13.0711    189.9148    155.6499   1.0290188598e+02   1.2692959951e+01    0.5786356     0.530019 -76.77  0.002241893    1.288    0.223
        12 -12.7096    192.5368    164.5124   1.0424961270e+02   1.0546975371e+01    0.3380479    0.2926469 -14.29 0.0006640544    1.206    0.171
        13 -12.9181    189.8000    160.9809   1.0406309252e+02   1.1742870647e+01    0.4185743    0.3480152  89.79  0.001469315    1.618    0.382
        14 -12.9014    230.4376    167.4033   9.7686998104e+01   2.6559796603e+00    0.4097919    0.2332193 -47.00  0.001914478    2.137    0.532
        15 -10.3618      9.6236    236.8999   1.4988890078e+02   2.5493581471e+01    0.1211228   0.06522219  74.23 0.0004561305    1.364    0.267
        16 -11.8251     27.8358    231.1147   1.4659592319e+02   2.4626746795e+01    0.1721948    0.1219011  84.01 0.0009297163    1.183    0.155
        17 -10.7402     10.0977    168.0716   1.4605606902e+02   3.9045009160e+01    0.1602537    0.1237064 -71.19 0.0005023856    1.328    0.247
        18 -13.2213    207.8583    224.2498   1.1226404814e+02  -1.6190264474e+00    0.3856623    0.2456423 -37.48  0.001408494    1.834    0.455
        19 -12.0330    163.9579    238.9475   1.2248407488e+02   3.6016368571e+00    0.2935412    0.2057242  55.42  0.001150937    1.431    0.301
        20 -11.2725     22.8694    156.1920   1.4226397984e+02   4.0531808609e+01    0.2040409    0.1597813  84.19 0.0005848173    1.034    0.033
        21 -11.3871     18.2832    154.1481   1.4314019597e+02   4.1404851075e+01    0.2700239    0.1619434 -51.27  0.001084372    1.954    0.488
        22 -12.6842    161.0876    153.0845   1.0849934078e+02   1.9269724614e+01     0.350468    0.3122123  37.07 0.0008911564    1.106    0.096
        23 -12.0342    174.1918    148.5358   1.0463932401e+02   1.7385468076e+01    0.3602387    0.3286026 -71.74  0.001258626    1.218    0.179
        24 -12.5759     10.8236    144.6868   1.4405901544e+02   4.4151298595e+01    0.4956584    0.2420539 -52.06  0.002665338    2.266    0.559
        25 -11.2922     32.3526    222.1969   1.4529164612e+02   2.5780811468e+01    0.1691663    0.1424117 -82.23 0.0006759656    1.409    0.290
        26 -11.1027    171.0612    137.6776   1.0285644380e+02   2.0220238061e+01    0.2182696    0.1937599  46.87   0.00058625    1.104    0.094
        27 -10.7597     26.3697    220.7784   1.4626784225e+02   2.6706886801e+01     0.135394   0.08402712 -74.98  0.000624989    1.578    0.366
        28 -10.3122    217.6448    218.2332   1.0951689996e+02  -2.4273033125e+00    0.1589756    0.1082987 -18.74  0.000525422    1.602    0.376
        29 -12.9765    160.6180    128.0661   1.0291154059e+02   2.4508733693e+01    0.5017829    0.4042076 -65.68  0.001524059    1.399    0.285
        30 -11.1541     24.8973    214.4188   1.4615751949e+02   2.8080785226e+01    0.1394496    0.1017071  62.52  0.001021466    1.140    0.123
        31 -10.6704     20.8414    210.3530   1.4665289563e+02   2.9294990734e+01    0.1251468   0.09471096 -83.44 0.0003251779    1.300    0.231
        32 -13.9757     11.6376    205.5471   1.4805648183e+02   3.1151934144e+01    0.4786324    0.3245764 -64.50  0.003398227    1.737    0.424
        33 -12.1747    141.0781    120.8099   1.0577347670e+02   3.0391415481e+01    0.5279073    0.3122134  67.04  0.001964189    2.463    0.594
        34 -11.1717    167.5149    112.6439   9.7470172038e+01   2.6065039705e+01    0.3393722    0.2667105 -88.85  0.001157006    1.623    0.384
        35 -12.4541     26.4862    200.6025   1.4498906397e+02   3.0645829021e+01    0.3024775     0.254911 -66.66  0.001354837    1.519    0.342
        36 -10.8870    205.6082    110.1300   8.9087923613e+01   1.7560466762e+01    0.2785748    0.2185747  44.63  0.000607971    1.314    0.239
        37 -11.3992     35.1022    103.3385   1.3220220642e+02   5.1666710771e+01    0.3218506    0.2106703  -3.46   0.00170412    2.318    0.569
        38 -11.1432     23.7774    191.1448   1.4486950640e+02   3.2865444924e+01    0.1935908     0.149595 -62.93  0.001130331    1.560    0.359
        39 -10.8192     15.2744    187.7528   1.4632184487e+02   3.4404026023e+01    0.1385924    0.1048113 -75.02 0.0004476892    1.346    0.257
        40 -12.3706    210.9912    240.5034   1.1422893848e+02  -4.1891813366e+00    0.1891833     0.174505 -55.92  0.001383514    1.625    0.385
        41 -11.1317    105.4450     82.2279   1.0482688613e+02   4.6224054089e+01    0.2457933    0.2046896  42.69 0.0004004703    1.243    0.196
        42 -11.3985    142.3935     82.0904   9.4769772074e+01   3.8115403898e+01    0.3021888    0.2395494 -20.81 0.0005960361    1.427    0.299
        43 -14.6591    146.7962     63.8069   8.8001873361e+01   4.0384313558e+01     1.187443     1.157505 -53.68  0.001104541    1.042    0.041
        44  -9.8464     32.1708    249.5547   1.4685359726e+02   2.0894646659e+01    0.1043231   0.05216502  75.68 0.0005959103    1.679    0.404
        45 -13.5369    161.4325     40.2383   7.7308954258e+01   4.0289785075e+01    0.5353127    0.4860986 -19.77 0.0008078442    1.185    0.156
        46 -11.4494     13.4365     59.8691   1.3107448221e+02   6.3118582979e+01    0.1970603    0.1789817 -51.10 0.0003930498    1.154    0.133
        47 -11.5645     26.4771     58.7522   1.2558200475e+02   6.2410312699e+01    0.3636245    0.1973108   4.85  0.001450999    2.543    0.607
        48 -10.2138    155.5486    248.0649   1.2518109741e+02   3.6567193873e+00    0.1325223    0.1197913 -49.01 0.0002710274    1.427    0.299
        49 -10.6522    149.0400    247.4886   1.2628900562e+02   4.7806436218e+00    0.2042827    0.1630241  14.80  0.001147261    1.571    0.364
        50 -10.1938    158.9203    241.0334   1.2368429761e+02   4.1239402844e+00    0.1747608    0.1294614  20.14 0.0005232553    1.552    0.356
