#   1 NUMBER                 Running object number                                     
#   2 MAG_AUTO               Kron-like elliptical aperture magnitude                    [mag]
#   3 X_IMAGE                Object position along x                                    [pixel]
#   4 Y_IMAGE                Object position along y                                    [pixel]
#   5 X_WORLD                Barycenter position along world x axis                     [deg]
#   6 Y_WORLD                Barycenter position along world y axis                     [deg]
#   7 A_WORLD                Profile RMS along major axis (world units)                 [deg]
#   8 B_WORLD                Profile RMS along minor axis (world units)                 [deg]
#   9 THETA_WORLD            Position angle (CCW/world-x)                               [deg]
#  10 FWHM_WORLD             FWHM assuming a gaussian core                              [deg]
#  11 ELONGATION             A_IMAGE/B_IMAGE                                           
#  12 ELLIPTICITY            1 - B_IMAGE/A_IMAGE                                       
         1 -14.8216     43.5933    111.2720   1.0159000232e+02   4.8803516630e+01     2.706302     1.563463  58.89   0.01172027    2.495    0.599
         2 -13.9424    197.1202     43.0368   4.2199154600e+01   3.0823408559e+01    0.9578332    0.8676778 -66.11  0.003083568    1.067    0.063
         3 -14.1201    230.5513      8.0875   3.0960823656e+01   2.7627633946e+01    0.8554097    0.6793668 -70.87  0.004158133    1.027    0.026
         4 -14.2219    205.8703     34.7416   3.9119278318e+01   2.9899225013e+01    0.7482135    0.7100258  17.21  0.001309571    1.384    0.277
         5 -13.5743     58.0544      3.3328   5.8349197476e+01   6.6781470522e+01    0.7804005    0.3188998  40.21   0.00381932    2.048    0.512
         6  -9.6217     33.8441    228.2181   1.1846034771e+02   2.1551507379e+01    0.2088572     0.126405  53.22 0.0007817249    1.385    0.278
         7 -13.4157     45.7442    195.1566   1.1304825270e+02   2.7559764117e+01     1.389139     0.475858  46.42  0.001749826    2.709    0.631
         8 -16.7031      3.4510    124.5012   1.1660935870e+02   4.8759282809e+01     13.69906     2.633783 -75.11   0.04045743    4.873    0.795
         9 -18.0080     11.9460    243.0313   1.2353653008e+02   2.0854706270e+01      8.29106     2.648563  24.89   0.03184015    5.405    0.815
        10 -13.1360     28.3640    215.6349   1.1867674812e+02   2.4845437442e+01     0.902083    0.3487089  87.61  0.003709645    3.170    0.685
        11  -9.3828     63.1127    213.8497   1.1098432517e+02   2.1114014239e+01    0.8058164    0.2923606 -53.59  0.003256132    3.088    0.676
        12 -11.7254     57.0383    211.1395   1.1206922002e+02   2.2501830095e+01    0.6392215    0.5075153   1.63  0.003692342    1.852    0.460
        13 -11.5489     54.8116    206.5944   1.1211409391e+02   2.3809278847e+01    0.3420538    0.2472637  67.69  0.001029419    1.273    0.214
        14  -9.5629     50.3759    213.5150   1.1377783087e+02   2.2800550358e+01    0.1268195    0.1058138  76.46 0.0001817429    1.032    0.031
        15 -12.4647     49.1843    249.4666   1.1696654243e+02   1.5484808586e+01    0.2114258     0.161132  78.09 0.0005413658    1.173    0.148
        16 -10.4273     88.9472    210.4097   1.0469328208e+02   1.8262862046e+01    0.2410848    0.1924459 -73.47 0.0004607067    1.294    0.227
        17 -10.3696     42.0373    208.1864   1.1513260466e+02   2.4985638943e+01    0.3160922    0.1634972  82.11  0.001505787    2.128    0.530
        18 -16.4106      6.4871    211.3725   1.2288788204e+02   2.7924813103e+01     2.559156     0.741686 -60.07   0.01086447    3.545    0.718
        19 -12.8130    202.2971    200.2772   7.7644592695e+01   1.5487463220e+00    0.9993878     0.283846  29.88  0.002586476    6.359    0.843
        20 -12.0341    194.0141    196.5351   7.8617129766e+01   3.5814929044e+00     0.567045    0.3493341 -64.10  0.002301571    3.165    0.684
        21 -11.5920    191.5130    192.0214   7.8266378678e+01   4.8365104583e+00    0.5433518     0.300245 -62.59  0.001913221    3.956    0.747
        22 -11.2844     60.5319    198.0200   1.0986651732e+02   2.5060131966e+01    0.2366437    0.1875693  37.64 0.0003512394    1.305    0.234
        23  -9.6611     36.6551    198.7971   1.1549789635e+02   2.7743110163e+01    0.1072929   0.09724308 -17.62 0.0003518953    1.522    0.343
        24 -12.5031    109.2029    189.4867   9.6799981954e+01   1.9818722697e+01     0.519993    0.3111342 -21.17  0.001889888    3.338    0.700
        25  -9.8111     82.7676    194.7010   1.0409439796e+02   2.2757073860e+01    0.2077782    0.1814128  11.90 0.0009787292    1.387    0.279
        26 -10.7871    150.5041    192.5233   8.7401807353e+01   1.1960677455e+01    0.2406616    0.2169296  64.51  0.001243828    1.264    0.209
        27 -12.1785    147.1060    187.3756   8.7242310553e+01   1.3662997350e+01    0.6303791    0.3740724 -71.15   0.00239053    2.920    0.658
        28 -11.2548     72.0000    249.0724   1.1246390647e+02   1.2668042100e+01    0.2424708    0.1490898 -77.62  0.001417265    1.787    0.440
        29 -11.1611    128.0117    192.4868   9.2711850871e+01   1.5935978380e+01    0.2270043    0.1375685  37.48 0.0005768105    1.570    0.363
        30  -9.5499     21.6247    192.2083   1.1834680067e+02   3.0832778235e+01    0.1266487   0.07411233  57.08  0.000361164    1.581    0.367
        31  -9.8865     69.4277    183.6725   1.0591421424e+02   2.7296757881e+01    0.2705094    0.1803732  77.02 0.0003503088    1.682    0.405
        32 -11.7073     65.8448    179.4109   1.0625074331e+02   2.8826362385e+01    0.3464565    0.2714514  76.78 0.0007167854    1.265    0.209
        33 -13.4554     58.3027    184.3875   1.0880068683e+02   2.8599577854e+01    0.7755886    0.7139971  28.35  0.003566413    1.263    0.208
        34 -10.7460     51.0082    181.4961   1.1027511260e+02   3.0210703285e+01    0.2296615    0.1640891  58.55 0.0008905182    1.358    0.263
        35  -9.8973     47.3545    186.1300   1.1170741201e+02   2.9521920188e+01    0.2097654    0.1415228  44.63 0.0005530259    1.444    0.307
        36 -10.5669     38.2095    185.4206   1.1385233948e+02   3.0733055569e+01    0.2718202    0.1855424  77.07 0.0007869773    1.391    0.281
        37 -10.4667     39.8440    182.5818   1.1316122474e+02   3.1238479936e+01    0.2700576    0.1954918  61.81  0.001233283    1.310    0.237
        38  -9.3437     77.2713    185.6608   1.0420853753e+02   2.5708906641e+01    0.1458442    0.1008943  73.25 0.0004989202    1.605    0.377
        39 -11.5754     72.1176    244.8712   1.1206566245e+02   1.3460548883e+01    0.4218331    0.2304425  55.56  0.001658566    1.653    0.395
        40 -10.0047     79.8485    183.1695   1.0320117584e+02   2.5935960400e+01    0.2221046    0.1800712  71.76 0.0007930142    1.234    0.189
        41 -11.4983     99.2951    180.8935   9.7884359343e+01   2.3471832179e+01    0.3003871    0.2693987  24.04 0.0006034995    1.205    0.170
        42  -9.9829     89.9093    180.5004   1.0022586787e+02   2.5060841034e+01    0.2125968    0.1388464  37.54 0.0005463135    1.513    0.339
        43 -10.0998     46.8062    177.2386   1.1083139959e+02   3.1753349606e+01    0.2350018    0.1642981 -87.11 0.0008043761    1.352    0.260
        44 -10.2048     39.5232    177.0754   1.1264792040e+02   3.2616327346e+01    0.2354543    0.1559896  53.58  0.000635328    1.479    0.324
        45 -11.4107    186.5400    174.5282   7.5806565269e+01   9.0811499273e+00    0.3783768    0.3493625 -62.37  0.001272123    1.297    0.229
        46 -11.0454     50.0298    217.6674   1.1423251549e+02   2.1926757832e+01    0.4097377    0.2174137  24.84  0.001995723    2.348    0.574
        47 -13.8536     72.5842    152.7620   1.0033240471e+02   3.4585380120e+01     0.764275    0.5099751 -63.14  0.001136795    1.411    0.292
        48 -15.8326     68.9345    144.1695   9.9864429109e+01   3.7298109685e+01     5.257787     2.359303  61.42  0.003262447    4.982    0.799
        49 -12.1188     75.9818    166.0433   1.0160460821e+02   3.0731565937e+01    0.3202706    0.2558483 -37.50  0.001665325    1.434    0.303
        50 -10.0176    147.7693    174.0043   8.4495242283e+01   1.6458503004e+01    0.1955311    0.1251566 -48.02 0.0003213285    1.586    0.369
        51 -12.6958     71.7686    170.6626   1.0345360644e+02   3.0178059525e+01    0.6309171     0.384971 -36.47  0.002771032    2.181    0.542
        52 -10.1135     47.3323    172.1495   1.1008488179e+02   3.2951004203e+01    0.2656618    0.2010644 -28.38  0.001054038    1.773    0.436
        53 -10.9117    240.4793    169.4850   6.4448339643e+01   7.4905706998e-01    0.1339791     0.111717 -21.69 -1.724807e-05    1.014    0.013
        54  -9.9293    192.8346    169.6425   7.3462872153e+01   8.8853760275e+00    0.1960813    0.1348737  48.66 0.0006070936    1.655    0.396
        55 -10.6768    110.7659    167.8857   9.2618423517e+01   2.4666347693e+01    0.2802906     0.211839 -80.17 0.0008263953    1.563    0.360
        56  -9.6449     37.1278    168.0111   1.1223891707e+02   3.5114145721e+01    0.2172922     0.136538  66.06 0.0007825278    1.663    0.399
        57 -10.0449     32.4367    165.0587   1.1312368858e+02   3.6332351869e+01    0.2117984    0.1830775 -30.34 0.0007110935    1.445    0.308
        58  -9.5366     47.8580    159.9011   1.0835919926e+02   3.5965418313e+01     0.191075    0.1484688  72.83 0.0004373743    1.294    0.227
        59 -12.4415     90.7310    151.2082   9.4890669498e+01   3.2195700920e+01    0.7377118    0.4754623 -29.10  0.003086598    2.113    0.527
        60 -11.7170    133.8033    145.2534   8.1845281033e+01   2.5761367852e+01     1.228626     0.343759 -54.96  0.002939454    5.211    0.808
        61 -13.2732     54.4601    147.1669   1.0461483381e+02   3.8427517536e+01    0.8156751    0.6695588 -61.86  0.004124657    1.117    0.105
        62 -10.1292    174.9862    149.0203   7.2779505732e+01   1.6545485306e+01    0.2345334    0.1918703 -85.57  0.000598917    1.659    0.397
        63  -9.7454    110.7324    148.9251   8.8838890374e+01   2.9299582271e+01    0.2545651    0.1813021  87.76  0.001064354    1.993    0.498
        64 -12.3043     40.5486    146.9385   1.0860181385e+02   4.0073002890e+01    0.3801083    0.2771051 -20.95  0.001288897    1.818    0.450
        65 -11.0155    104.2189    137.3708   8.8151107652e+01   3.3331979604e+01    0.5449803    0.3239927 -24.91  0.001966381    2.698    0.629
        66 -11.2132    105.9373    130.8427   8.6160024799e+01   3.4621674861e+01    0.4081086    0.3341862 -60.74  0.001324327    1.237    0.192
        67 -11.5841     43.8539    138.3797   1.0634797379e+02   4.1905549797e+01    0.2922198    0.1957192 -68.16 0.0008686156    1.328    0.247
        68 -13.9086     43.2100    128.9347   1.0499398414e+02   4.4387797373e+01     1.130226    0.6723727  81.28  0.004893879    2.327    0.570
        69 -10.8607    136.0000    129.0621   7.7428278980e+01   2.9082102804e+01    0.4455864   0.08928514 -46.86  0.001046981    4.895    0.796
        70 -10.8917    112.6259    128.7441   8.3739716713e+01   3.3867254265e+01    0.3394905    0.2658667   8.09 0.0007197253    1.592    0.372
        71  -9.8959     43.9955    216.1316   1.1539968903e+02   2.2986304928e+01    0.1909945    0.1355547  67.13 0.0008834125    1.230    0.187
        72  -9.7540     93.4756    125.9106   8.8693050632e+01   3.8072596499e+01    0.2248106    0.1479652 -55.14 0.0004164141    1.472    0.321
        73 -11.0659     99.8326    124.7091   8.6498526653e+01   3.7240167506e+01    0.3071199    0.2556395   1.17 0.0009359266    1.418    0.295
        74 -11.4128    118.7904    123.3370   8.0664627572e+01   3.3945736619e+01    0.4451954    0.2980938   8.07  0.001708825    2.380    0.580
        75 -10.0124    108.5025    118.0632   8.2284167267e+01   3.7218400135e+01    0.2195101    0.2095877  28.69 0.0003370006    1.076    0.070
        76 -10.5944    231.2773    113.7368   5.4062068640e+01   1.2081270621e+01    0.2445388    0.2194393 -27.65 0.0007354456    1.116    0.104
        77 -10.0866    205.7055    110.1732   5.7437649547e+01   1.7890506564e+01    0.2308835    0.2008131  77.92  0.000513487    1.303    0.232
        78 -11.8562    116.0841    108.9380   7.7679478383e+01   3.7832728255e+01    0.3955821    0.3417655  15.23  0.001960983    1.266    0.210
        79 -12.4120     91.5506    137.1467   9.1786045074e+01   3.5600409081e+01    0.2962328    0.2563511 -43.10 0.0004156203    1.148    0.129
        80  -9.8571    128.8643     96.0615   7.0521122485e+01   3.7931099578e+01    0.2331636    0.2118216  80.43 0.0005810434    1.237    0.192
        81 -11.6036     52.9378     93.9506   9.4370966701e+01   5.1937078719e+01    0.4622916    0.2865057  52.42  0.002107768    2.191    0.544
        82  -8.9942     75.7197     85.3106   8.3792210297e+01   5.0638275812e+01    0.1376074    0.1177038  88.98 0.0002503954    1.564    0.361
        83 -10.4207    156.3070     88.4543   6.1603351563e+01   3.3173739612e+01    0.3331063    0.2358843 -80.24  0.001033033    2.028    0.507
        84 -13.3994    185.5125     52.2515   4.6184296676e+01   3.2264615751e+01    0.7226072    0.5190716  46.14 0.0008154976    1.558    0.358
        85 -11.4060     78.9580    237.4433   1.0995120249e+02   1.3997691317e+01    0.3323417    0.2275348 -56.31  0.001952885    1.688    0.408
        86 -13.2136     83.7399    158.5091   9.8204408493e+01   3.1465112842e+01     1.033029    0.7299801 -79.07 0.0005825338    1.562    0.360
        87 -12.0336     21.2067     34.3424   8.9451783956e+01   6.7727206890e+01    0.2419656    0.1937039  15.01 0.0009892298    1.334    0.250
        88  -9.9026    198.3687     23.7079   3.7303261660e+01   3.2965365598e+01    0.1606227    0.1231765 -23.31  0.000607756    1.597    0.374
        89  -9.2980     21.6586    215.2468   1.2004050510e+02   2.5627223071e+01     0.125239   0.06949303  60.20 0.0002067572    1.567    0.362
        90 -10.1529    168.0457    232.0364   9.0240701830e+01   1.4881510196e+00    0.1997845    0.1741486  21.42 0.0005214996    1.040    0.038
