#   1 NUMBER                 Running object number                                     
#   2 MAG_AUTO               Kron-like elliptical aperture magnitude                    [mag]
#   3 X_IMAGE                Object position along x                                    [pixel]
#   4 Y_IMAGE                Object position along y                                    [pixel]
#   5 X_WORLD                Barycenter position along world x axis                     [deg]
#   6 Y_WORLD                Barycenter position along world y axis                     [deg]
#   7 A_WORLD                Profile RMS along major axis (world units)                 [deg]
#   8 B_WORLD                Profile RMS along minor axis (world units)                 [deg]
#   9 THETA_WORLD            Position angle (CCW/world-x)                               [deg]
#  10 FWHM_WORLD             FWHM assuming a gaussian core                              [deg]
#  11 ELONGATION             A_IMAGE/B_IMAGE                                           
#  12 ELLIPTICITY            1 - B_IMAGE/A_IMAGE                                       
         1 -14.3874    157.6073     54.2141   8.0739140571e+01   3.8565652020e+01     1.442656     1.225821 -10.85  0.006716555    1.343    0.255
         2 -14.6551    170.1037     38.7547   7.3690140620e+01   3.7504219513e+01     1.174827     1.008851  -1.88  0.003929933    1.382    0.276
         3 -14.5648    186.1447      7.1478   6.2300161446e+01   3.6912175545e+01     1.017841    0.8802217  85.89   0.00429041    1.002    0.002
         4 -10.4306    219.6992    226.1589   1.0819723897e+02  -3.9840422844e+00    0.2096544     0.105125 -42.80  0.001066856    2.576    0.612
         5 -19.8083     63.5794    165.5414   1.3205038198e+02   3.3917696704e+01     18.13328     6.074039 -68.09   0.06912602    3.063    0.674
         6 -11.1925     30.0585    205.6166   1.4331625995e+02   2.9406221819e+01    0.1649538     0.153563 -82.85 0.0005581368    1.414    0.293
         7 -12.1907    163.6932    202.9927   1.1512953355e+02   9.2208115446e+00    0.2941102    0.2378216  51.32 0.0006142278    1.189    0.159
         8 -12.9468    157.0227    200.9237   1.1616989599e+02   1.0815143958e+01    0.6453503    0.4264845 -81.64  0.002891208    2.758    0.637
         9 -11.1261    153.6760    195.3095   1.1594187455e+02   1.2447936411e+01    0.2458901    0.1799537  52.49 0.0009175216    1.297    0.229
        10 -10.6036    139.2990    200.6282   1.1985894292e+02   1.4122360666e+01    0.2534906    0.2053279  65.26 0.0007433405    1.269    0.212
        11 -11.0539    168.0045    250.5286   1.2127013409e+02   1.1533064106e+00     0.189226   0.09369888  39.56 0.0003871485    1.556    0.357
        12 -12.1609    161.3098    197.4049   1.1468847447e+02   1.0639350774e+01    0.2987224    0.2480769 -78.44  0.001371291    1.550    0.355
        13 -10.6412    111.5697    196.9124   1.2529505279e+02   1.9733123055e+01    0.4699037    0.2723525  18.59   0.00181733    3.520    0.716
        14  -9.7466      6.5431    197.5392   1.4734493619e+02   3.3379909039e+01    0.1102277   0.08161272  77.79 0.0008076732    1.022    0.022
        15 -12.4376    174.8036    193.1430   1.1114983681e+02   8.8362992005e+00    0.4716608     0.312829 -76.39  0.001445671    2.990    0.666
        16 -13.6730    165.5687    188.3685   1.1221806617e+02   1.1445698421e+01    0.7283724    0.4062611  43.42  0.002530177    1.597    0.374
        17 -13.2110    175.4234    186.0017   1.0972340803e+02   9.9619962388e+00    0.5938103     0.385015 -61.10  0.002270239    2.189    0.543
        18 -11.2021    170.4956    185.0440   1.1057550373e+02   1.1090053285e+01    0.2673456    0.2158385  66.32 0.0007498008    1.458    0.314
        19 -11.0548    169.4546    195.2357   1.1262227982e+02   9.4870846989e+00    0.1718281    0.1352494 -62.67 0.0009346259    1.616    0.381
        20 -10.6498    110.2327    222.9067   1.2893845647e+02   1.5008761645e+01    0.1764539    0.1426106  64.97 0.0004045927    1.120    0.107
        21 -11.7969    180.5091    193.2689   1.1000683600e+02   7.7333002323e+00    0.3022574    0.2473612 -85.88  0.001646612    1.773    0.436
        22 -12.7131    152.4843    183.9942   1.1424092092e+02   1.4784746271e+01    0.4327495    0.2931581  87.34  0.001880748    2.525    0.604
        23 -10.3949     20.5659    219.1138   1.4596410952e+02   2.7785241547e+01    0.1902122    0.1004176  58.39 0.0007592854    1.474    0.322
        24 -12.1392    207.4788    178.1348   1.0179045838e+02   5.0992713869e+00    0.5606154    0.3496048  14.44  0.002553641    2.128    0.530
        25 -12.8884    195.7655    169.7837   1.0240623586e+02   8.7810391391e+00    0.5089059    0.4021007 -39.15  0.001423177    1.352    0.260
        26 -11.8396    193.8202    164.6827   1.0174613014e+02   1.0061713314e+01    0.3874217    0.3496756  16.59  0.001388069    1.058    0.054
        27 -10.5280    165.4323    172.2614   1.0923047106e+02   1.4454936845e+01    0.1919645     0.141401 -58.34 0.0009474845    1.618    0.382
        28 -11.5533    203.0405    171.3497   1.0128861502e+02   7.0735669286e+00    0.2418226    0.2176708  32.89 0.0008688121    1.081    0.075
        29 -11.3317    229.8382    166.0184   9.5201322738e+01   2.7958130796e+00    0.2113842    0.1548111 -58.57  0.001017744    2.000    0.500
        30 -11.7008    122.7743    165.8458   1.1774015269e+02   2.4175243069e+01    0.2662667       0.2055  59.43 0.0002451483    1.271    0.213
        31 -11.6683     25.3352    165.6252   1.4110126019e+02   3.8342428742e+01    0.2652003    0.2062384  10.42  0.001001798    1.900    0.474
        32 -10.6503    200.6554    162.3311   9.9892260443e+01   9.0827641324e+00     0.316604     0.216423  25.67  0.001026205    1.582    0.368
        33 -10.2976    222.5062    161.9499   9.5672718994e+01   4.8206129392e+00    0.2027932    0.1304406 -36.50  0.001014513    1.562    0.360
        34 -14.9528    133.7169    145.7198   1.1112562379e+02   2.6361662300e+01     1.633277    0.6458016 -52.79   0.00569788    2.792    0.642
        35 -14.4051    135.8317    128.7252   1.0679050225e+02   2.9589781601e+01      1.40659    0.4534427 -45.92  0.004417226    3.190    0.687
        36 -12.4439    135.2404    120.1312   1.0486285865e+02   3.1563827203e+01    0.4192449    0.2597542 -42.87  0.001550006    1.668    0.400
        37 -11.1613     14.0518    151.2448   1.4243469892e+02   4.2557900502e+01    0.3696626    0.2293729 -32.95  0.002061295    2.542    0.607
        38 -12.0825    134.6656    109.3873   1.0227212396e+02   3.3971885528e+01     1.265475    0.1738279 -44.79  0.002559953    7.394    0.865
        39 -11.4479    174.2992    148.6670   1.0238910454e+02   1.7125196032e+01    0.3491715    0.2808062 -75.57  0.001422304    1.610    0.379
        40 -13.6033    144.1011    145.6604   1.0860328210e+02   2.4217129040e+01    0.6908435    0.4466197 -72.49  0.002808501    2.306    0.566
        41 -12.1728     20.2606    141.3745   1.3993616091e+02   4.4249781955e+01    0.2214182     0.174152  79.87 0.0004671247    1.134    0.118
        42 -12.4659      2.9501    112.3287   1.4141972916e+02   5.2098939383e+01    0.4368963    0.1896003 -71.22  0.001996327    1.784    0.439
        43 -12.4659     10.5268    110.9805   1.3906955669e+02   5.1916800451e+01    0.5045787    0.2285982   4.10  0.002108971    3.836    0.739
        44 -13.3007      2.6159    126.1153   1.4295271102e+02   4.9029073794e+01    0.5016056    0.3152549 -65.38   0.00320957    1.331    0.249
        45 -12.6416      2.2740    122.0234   1.4263873385e+02   4.9967071823e+01    0.4703909     0.184298 -71.44  0.001565374    1.957    0.489
        46 -12.7278      5.2109    139.7490   1.4355608056e+02   4.5806563302e+01    0.9112257    0.3637912 -80.32  0.003588246    2.124    0.529
        47  -9.9100    170.3320    136.6687   1.0053434292e+02   2.0338640466e+01    0.1565161    0.1225433 -89.06 0.0007052094    1.723    0.420
        48  -9.6727    150.6905    250.7250   1.2448765357e+02   3.9128940831e+00    0.1143115    0.0818316  22.90   0.00034528    1.553    0.356
        49 -12.0145    160.3891    127.9868   1.0071336551e+02   2.4312149201e+01    0.3957146    0.2955492 -59.85  0.001832313    1.533    0.348
        50 -12.0766    152.5043    139.1044   1.0515576398e+02   2.3786115175e+01    0.3364973    0.2278619  44.08  0.001529294    1.421    0.296
        51 -10.9637    168.5045    113.4773   9.5265404873e+01   2.5321359941e+01    0.3471339    0.2382391 -83.15  0.001360054    2.369    0.578
        52 -10.2670    139.6986    249.5711   1.2638798440e+02   5.8462010633e+00    0.1827201    0.1343329  73.49  0.001154888    1.668    0.401
        53 -10.8477    205.6117    110.1322   8.6948946986e+01   1.7202774992e+01    0.2843042    0.2144586  45.10 0.0006570192    1.349    0.259
        54 -10.1249    124.9645     81.5221   9.6970010803e+01   4.1810698999e+01    0.2319164    0.1481899  47.70  0.000772259    1.539    0.350
        55 -10.7543    116.5674    211.9095   1.2627064821e+02   1.5988807320e+01    0.2799923    0.1752602 -66.49  0.001496425    1.879    0.468
        56 -10.8193     12.6836    212.5851   1.4703156835e+02   2.9837389085e+01    0.1009061   0.07357187 -55.27 0.0006960188    1.925    0.480
        57 -12.5603    107.6912    207.2064   1.2751905317e+02   1.8359169916e+01      0.53669    0.3537942 -73.72  0.001835159    1.748    0.428
        58 -10.2089    135.3205    235.2178   1.2548683391e+02   8.7901990155e+00    0.1505061    0.1138017 -75.11 0.0005828687    1.692    0.409
        59 -12.8730    173.9764     31.5938   7.0924422134e+01   3.7400361798e+01    0.3897104    0.3636839  -3.68 0.0009548501    1.235    0.190
        60 -10.5481     13.5160     59.7871   1.2912485243e+02   6.2977093452e+01    0.1766257    0.1574651 -15.08 0.0003435645    1.226    0.184
        61 -10.4611    131.8156     29.0477   7.7829040645e+01   4.8544902587e+01    0.2121047    0.1870575 -86.06 0.0004831671    1.273    0.215
