#   1 NUMBER                 Running object number                                     
#   2 MAG_AUTO               Kron-like elliptical aperture magnitude                    [mag]
#   3 X_IMAGE                Object position along x                                    [pixel]
#   4 Y_IMAGE                Object position along y                                    [pixel]
#   5 X_WORLD                Barycenter position along world x axis                     [deg]
#   6 Y_WORLD                Barycenter position along world y axis                     [deg]
#   7 A_WORLD                Profile RMS along major axis (world units)                 [deg]
#   8 B_WORLD                Profile RMS along minor axis (world units)                 [deg]
#   9 THETA_WORLD            Position angle (CCW/world-x)                               [deg]
#  10 FWHM_WORLD             FWHM assuming a gaussian core                              [deg]
#  11 ELONGATION             A_IMAGE/B_IMAGE                                           
#  12 ELLIPTICITY            1 - B_IMAGE/A_IMAGE                                       
         1 -11.8797    174.4462     30.2094   7.6091680867e+01   3.7566100342e+01     1.300511    0.9438874  10.63  0.005519614    1.669    0.401
         2 -10.4602    178.2801     23.3598   7.3353267437e+01   3.7367202587e+01    0.6574191    0.4646946 -30.61    0.0015001    1.444    0.307
         3 -10.4118    144.2012     25.0710   7.9685476733e+01   4.5856641419e+01    0.2508231    0.2305678   1.13  0.000287528    1.093    0.085
         4 -12.7469     77.0097    209.5987   1.3856942587e+02   2.3122738428e+01     2.011322     1.336373 -41.02   0.01176129    2.499    0.600
         5 -13.3501     31.8176    234.5472   1.4818885818e+02   2.4238518580e+01    0.8480329     0.632426  60.05  0.005363438    1.205    0.170
         6 -13.1684     10.1976    236.6792   1.5159475950e+02   2.6097532298e+01     1.193492    0.6016896 -66.77  0.008546505    2.202    0.546
         7 -12.5910     58.8127    222.3748   1.4293847573e+02   2.3198873493e+01    0.6011156    0.4015439  64.41  0.001175567    1.178    0.151
         8 -15.4302     48.7923    245.5627   1.4620719394e+02   2.0522573292e+01     3.917796     2.885293  49.44   0.01842804    1.359    0.264
         9  -9.5852    116.9846    231.0021   1.3361976183e+02   1.3655993899e+01    0.3131426     0.186003  46.21  0.001021332    1.369    0.270
        10  -9.5830    159.2305    235.7091   1.2677433577e+02   6.2874614393e+00     0.209578    0.1680653  71.69  0.001103647    1.485    0.327
        11  -8.7450    138.4725    228.6943   1.2954507482e+02   1.0652879394e+01    0.2474129    0.1691629 -71.64  0.001524828    1.925    0.481
        12  -9.3133    181.0195    235.4657   1.2296230321e+02   2.7853936666e+00    0.2146385    0.1687634  30.52  0.001403417    1.110    0.099
        13  -9.0289    133.6125    231.8580   1.3078920246e+02   1.0944828049e+01    0.2843677    0.2212544 -25.76  0.001094439    1.946    0.486
        14  -7.9524    115.9172    226.4892   1.3330746281e+02   1.4540365488e+01    0.1743355   0.09580937  45.12 0.0004323057    1.503    0.335
        15  -7.9857    177.5894    220.2435   1.2137371920e+02   5.4060604810e+00    0.1507176    0.1147856 -20.27 0.0004473228    1.628    0.386
        16  -7.4991     10.7315    217.4100   1.5059004361e+02   2.9330438691e+01    0.1158111   0.08850145  42.62 0.0009340047    1.601    0.375
        17  -8.3176    167.0824    210.7718   1.2185931630e+02   8.5979106611e+00    0.3224358    0.2029266 -71.38  0.001548438    2.944    0.660
        18 -11.8969     13.3421    206.7593   1.4958780384e+02   3.0994467776e+01    0.7580541    0.3044857  35.69  0.003597931    2.675    0.626
        19 -11.5655     17.1076    250.2690   1.5119094655e+02   2.3227763439e+01     0.179703    0.1085682  52.70 0.0007063894    1.336    0.251
        20 -11.6933     13.1627    244.5333   1.5150751890e+02   2.4531704333e+01    0.2185584    0.1908286 -78.00 0.0007451718    1.675    0.403
        21  -9.5005     32.2624    205.2392   1.4625071925e+02   2.9368359061e+01    0.2270062    0.1895416  23.03  0.001239368    1.877    0.467
        22  -9.0914    198.7830    200.5242   1.1434727467e+02   4.5072963338e+00    0.4237757    0.2635583  50.58  0.002274341    1.656    0.396
        23  -9.8633    169.8596    240.9536   1.2561855075e+02   3.8731658197e+00    0.2565799    0.2142491  68.37 0.0009565902    1.442    0.306
        24  -7.8212    156.3215    242.3345   1.2810999081e+02   5.8450137538e+00    0.1116953   0.08120795  19.13 0.0006060265    1.705    0.413
        25  -8.8242    192.4939    194.9671   1.1452879231e+02   6.4500897416e+00    0.2678703    0.1848513 -60.89  0.001387687    2.237    0.553
        26 -10.0115    186.6072    193.2014   1.1531650042e+02   7.7933538619e+00    0.2300259    0.1908821  40.21  0.000322207    1.094    0.086
        27  -9.4985    104.2230    239.3438   1.3668675129e+02   1.4241203001e+01    0.2760287    0.1857552  88.49  0.000590685    1.686    0.407
        28  -8.1805    201.4106    183.1598   1.1070751471e+02   6.5757959381e+00    0.2492566    0.2087996  68.45  0.001443277    1.583    0.368
        29  -7.5923      1.4226    182.7617   1.5026617772e+02   3.6578898498e+01    0.1349416    0.0757174 -73.74   0.00036945    1.519    0.342
        30  -8.9563     92.7066    180.6826   1.3213670463e+02   2.6409428638e+01    0.2488619     0.202869 -65.70  0.001015482    1.264    0.209
        31  -9.5057     95.3412    175.7468   1.3090164701e+02   2.7000254055e+01    0.3548624    0.2370676 -44.24  0.001932182    1.864    0.463
        32 -14.0148     25.2419    247.8105   1.4989242482e+02   2.2777792848e+01     1.567587    0.5078704  54.41  0.007170881    2.201    0.546
        33  -8.9996     27.5120    181.8369   1.4536051400e+02   3.4374440233e+01    0.2238734    0.1051299  54.28  0.000989682    1.918    0.479
        34  -7.7156    186.7678    178.3093   1.1255548173e+02   1.0113103669e+01    0.2444915    0.1564395  58.00  0.001051723    1.867    0.464
        35  -7.6085     62.5144    178.5237   1.3810284125e+02   3.1060293096e+01    0.1227094   0.09742925  78.43 0.0001097752    1.062    0.058
        36  -8.5013     24.4913    177.4890   1.4559262241e+02   3.5544717667e+01    0.2280544    0.1289893  55.98  0.001460993    1.595    0.373
        37  -9.1641     21.6429    172.9717   1.4578394299e+02   3.6731742096e+01    0.3992289    0.1670635  48.36  0.001516547    2.195    0.544
        38  -9.2872     17.5248    169.1139   1.4628649252e+02   3.7899060783e+01    0.2298302    0.2074471 -87.92  0.001574103    1.304    0.233
        39  -7.4685    113.3838    170.7479   1.2629105701e+02   2.5093852592e+01    0.1787341    0.1217373 -48.27 0.0009474118    1.609    0.378
        40  -8.0710    226.3662    169.2468   1.0342703311e+02   3.9441866085e+00    0.1783547    0.1199801 -37.77 0.0004246045    1.601    0.375
        41  -8.0851     26.5270    166.9808   1.4429780082e+02   3.7491043149e+01    0.1698104     0.160815  19.67 0.0007120617    1.543    0.352
        42  -8.7107    100.6487    165.8181   1.2827478676e+02   2.8199099793e+01    0.2173796    0.1994995  53.65 0.0004465797    1.140    0.123
        43 -10.4961     89.4937    161.3701   1.3005495095e+02   3.0873376602e+01    0.3779221    0.3156188 -23.91 0.0007987278    1.698    0.411
        44  -7.6148     61.5466    161.0690   1.3621884229e+02   3.4830631800e+01    0.1764934    0.1077311 -69.03 0.0003480175    1.482    0.325
        45  -8.6898     12.2322    161.1513   1.4671174581e+02   3.9999443725e+01    0.1759246    0.1410612  66.65  0.001095328    1.218    0.179
        46  -8.8780    104.4539    158.8042   1.2628883739e+02   2.9040857229e+01    0.5059575    0.2047864 -46.25  0.001881537    2.846    0.649
        47  -7.7602     27.5108    158.4740   1.4330168428e+02   3.9173907871e+01    0.1161964   0.09014188  88.45 0.0002293333    1.013    0.013
        48  -8.6126     22.3891    157.5045   1.4429379820e+02   3.9861183901e+01    0.1904671    0.1075543  35.33  0.001004524    2.019    0.505
        49  -9.2027     10.2489    154.3944   1.4656954722e+02   4.1568069193e+01    0.2833517    0.2094523   2.14  0.001931759    2.307    0.567
        50  -7.4651     61.3119    149.6582   1.3474516888e+02   3.7326775627e+01    0.1329582   0.08545253  76.60 0.0007046164    1.699    0.412
        51  -7.9603     49.0038    149.2190   1.3752009915e+02   3.8902443422e+01    0.1449069   0.09712379  39.67 0.0007799107    1.638    0.390
        52 -10.5982     70.3224    145.6790   1.3205103183e+02   3.7022541599e+01    0.4326843    0.2272848 -62.35  0.001121665    1.733    0.423
        53 -10.8598     66.5115    143.0049   1.3254578508e+02   3.8119969628e+01    0.5784196    0.3263292 -84.76   0.00252034    2.155    0.536
        54  -8.2024     44.8604    147.8841   1.3830075492e+02   3.9658764178e+01     0.182353    0.1543283 -66.71  0.001242552    1.204    0.169
        55  -8.6645      3.0403    147.7939   1.4754674992e+02   4.3510687006e+01    0.1627804    0.1426554 -47.67 0.0007574168    1.534    0.348
        56  -8.2478    133.6819    146.0526   1.1727366212e+02   2.6455975589e+01    0.2871381     0.129003 -54.92  0.001099521    2.506    0.601
        57  -8.7953    113.4520    142.8908   1.2131846133e+02   3.0867573266e+01    0.4175356    0.2082724 -33.81  0.001493868    3.424    0.708
        58  -7.1078     86.2806    144.6273   1.2808820626e+02   3.4967672493e+01    0.1393983   0.09632525  83.81 0.0007012028    1.700    0.412
        59  -8.4765     80.4375    143.8333   1.2934845538e+02   3.6009200079e+01    0.2493738    0.2011345  69.94 0.0007153439    1.234    0.189
        60  -8.8226    102.3124    142.9424   1.2396614792e+02   3.2779044546e+01     0.219149    0.1964328  41.85 0.0003547694    1.196    0.164
        61  -8.2857      5.7940    141.3602   1.4641105547e+02   4.4661361361e+01     0.123203    0.1082437   5.76 0.0009481028    1.692    0.409
        62  -7.7518    131.8307    140.0951   1.1645552981e+02   2.8039191006e+01    0.2245343    0.1926824 -89.58  0.001209024    1.290    0.225
        63 -10.2817     67.3715    134.4084   1.3096230428e+02   3.9916625231e+01    0.3247155    0.2122645 -81.11 0.0009107725    1.602    0.376
        64  -8.5640     80.0150    135.9947   1.2810450663e+02   3.7803410513e+01    0.2045968     0.184058 -81.35 0.0008615053    1.007    0.007
        65  -9.6204     58.9469    133.6599   1.3293226621e+02   4.1161322059e+01    0.2864528    0.2174679  50.62 0.0008977071    1.391    0.281
        66  -8.5652     54.1116    133.5661   1.3411603154e+02   4.1766414303e+01    0.2459058     0.192331  63.99  0.001097021    1.309    0.236
        67  -8.0537    118.7602    132.2026   1.1785348061e+02   3.2184001689e+01     0.192588    0.1699486 -18.96 0.0007390353    1.335    0.251
        68  -8.9354     72.1525    128.7360   1.2877929484e+02   4.0539520040e+01    0.3525647     0.139705 -46.85  0.001400916    2.741    0.635
        69  -7.7055    160.1971    127.1848   1.0709628916e+02   2.4800483735e+01     0.239732    0.1096725 -50.49 0.0008599053    2.519    0.603
        70  -8.0974      6.3209    126.3125   1.4486335514e+02   4.7848070217e+01    0.1114734   0.06961033 -52.30 0.0002765756    1.652    0.394
        71  -8.2597    128.1809    125.1101   1.1399463939e+02   3.1882110802e+01    0.2078744    0.1948655 -15.70 0.0002668947    1.162    0.140
        72  -8.8208     64.6029    125.1063   1.3006812736e+02   4.2364438852e+01    0.2109878    0.1695275  60.84 0.0005472241    1.314    0.239
        73 -10.3731    241.8316    120.8623   9.0065557581e+01   8.0742345202e+00     0.273782    0.2496594  36.69 0.0005122403    1.177    0.150
        74  -7.3857    112.7069    121.3025   1.1692534610e+02   3.5647023059e+01    0.1429743      0.11171  88.23 0.0002729213    1.572    0.364
        75  -8.1509    196.3295    107.5791   9.4689675842e+01   2.0240789465e+01    0.2524159    0.2289257 -67.99 0.0007613296    1.261    0.207
        76  -7.9619    188.0168    107.0207   9.6155842726e+01   2.2272059625e+01    0.2206494    0.2151295 -44.78            0    1.076    0.071
        77  -8.9766    244.9558    102.0467   8.5078333151e+01   1.0225027737e+01     0.305248    0.1929487 -26.00  0.001223242    1.483    0.325
        78  -7.5586     68.3508    103.6747   1.2482220496e+02   4.6683352557e+01     0.137281     0.100051  81.31 0.0007048371    1.757    0.431
        79  -7.6430    212.1598     80.5966   8.4701980434e+01   2.0933280385e+01    0.1989797    0.1343755  43.09 0.0001766933    1.564    0.361
        80  -8.7628    118.7192    235.8369   1.3384252032e+02   1.2638502366e+01    0.2715894    0.1804414 -86.46 0.0008370182    1.919    0.479
        81  -8.7405    194.9721     59.0158   8.1490365237e+01   2.8447513660e+01    0.2129209    0.2085783  16.23 -0.003769674    1.037    0.036
        82 -10.5830    162.0810     51.2166   8.5027133120e+01   3.7925970121e+01    0.5618318    0.4400229  10.93  0.002745565    1.469    0.319
        83 -10.4879    161.9268     45.3009   8.3142033632e+01   3.8813371206e+01    0.5443524    0.4010062  80.66  0.002577059    1.625    0.385
        84  -8.3251    135.2009     49.0656   9.0069097182e+01   4.4820698148e+01    0.2728101    0.2092132 -65.41  0.001306765    1.706    0.414
        85  -9.7936    249.7266     44.8979   7.0367732682e+01   1.7132185472e+01    0.2513683    0.2243701 -22.08 0.0005040723    1.157    0.136
        86  -7.5310    175.4665    242.5120   1.2486575187e+02   2.7773798140e+00    0.1166432   0.09053127  36.57 3.131875e-05    1.042    0.040
        87  -9.9388    170.6327    234.1680   1.2458478965e+02   4.6473600669e+00    0.4531362    0.1497299  37.61  0.001917091    2.818    0.645
        88  -7.3497    190.5229     32.4792   7.4352141438e+01   3.3148563122e+01    0.1420099    0.1385572  74.42 0.0002219646    1.011    0.011
        89  -7.4103    162.0383     26.4764   7.6926674977e+01   4.1193495529e+01    0.2080355    0.1375271  62.57 0.0003221898    1.457    0.314
