#   1 NUMBER                 Running object number                                     
#   2 MAG_AUTO               Kron-like elliptical aperture magnitude                    [mag]
#   3 X_IMAGE                Object position along x                                    [pixel]
#   4 Y_IMAGE                Object position along y                                    [pixel]
#   5 X_WORLD                Barycenter position along world x axis                     [deg]
#   6 Y_WORLD                Barycenter position along world y axis                     [deg]
#   7 A_WORLD                Profile RMS along major axis (world units)                 [deg]
#   8 B_WORLD                Profile RMS along minor axis (world units)                 [deg]
#   9 THETA_WORLD            Position angle (CCW/world-x)                               [deg]
#  10 FWHM_WORLD             FWHM assuming a gaussian core                              [deg]
#  11 ELONGATION             A_IMAGE/B_IMAGE                                           
#  12 ELLIPTICITY            1 - B_IMAGE/A_IMAGE                                       
         1 -14.9233      6.4250     70.7994   9.5243332716e+01   6.2911251468e+01     1.471289    0.7833105 -57.62  0.006666546    1.635    0.389
         2 -13.0252      6.6766     43.0888   8.7395081326e+01   6.8864624167e+01     1.417786    0.6940409  -4.96  0.006694339    2.301    0.565
         3 -13.1321      7.8199      2.7233   6.8114181820e+01   7.5445812767e+01    0.6501493    0.3869811  40.13  0.003898538    1.980    0.495
         4 -13.6796      3.1878     10.9909   7.6178354054e+01   7.4800139888e+01     0.743776     0.495459 -39.73  0.004848209    1.565    0.361
         5 -15.9012     12.4806     21.7678   7.5105011577e+01   7.2164914045e+01     1.902624      1.06032 -17.79  0.007722499    1.929    0.482
         6 -13.9080     24.7757     13.4447   6.3280273094e+01   7.1780916302e+01    0.8396863     0.279572  37.53  0.003685463    2.633    0.620
         7 -14.2833    166.5056     28.7144   3.0514762344e+01   3.9685248336e+01     0.943668    0.7089521  81.09  0.003858201    1.176    0.150
         8 -14.0601    120.6617     36.8444   3.9967040744e+01   4.9332543377e+01     1.501937    0.5493383  58.40  0.006062026    2.350    0.575
         9 -14.4006    146.9927     29.8262   3.3373278866e+01   4.4009421597e+01     1.379226    0.6739058  67.90  0.006225305    1.832    0.454
        10 -13.5014    188.3836     24.5966   2.7222722962e+01   3.5387276720e+01      1.08919    0.4391503 -55.15  0.005170705    2.396    0.583
        11 -12.7911    121.0630     25.4603   3.6305164076e+01   5.0567961455e+01    0.6366592    0.4423595  48.45  0.003071195    1.420    0.296
        12 -11.3513     82.3995      7.9416   3.8246589581e+01   6.1188944976e+01    0.4047877    0.2056815  76.02  0.001530274    2.384    0.580
        13 -15.0709     98.8272     11.2982   3.5842716031e+01   5.7158820466e+01     1.407817      0.75699  62.93  0.004911121    1.538    0.350
        14 -12.6527     85.6514     13.8026   3.9754663676e+01   5.9935707821e+01    0.4668838    0.3338942 -49.92    0.0020524    1.721    0.419
        15 -11.6939     71.2139     16.2087   4.4737388025e+01   6.2871945295e+01    0.3399791    0.2510693  15.39  0.001654624    1.517    0.341
        16 -13.3640    187.5769     11.1745   2.4309568981e+01   3.6994481350e+01    0.7470591    0.3997258 -41.51  0.004419521    1.758    0.431
        17 -12.8061     61.1087     14.8610   4.7467640677e+01   6.5121908366e+01    0.5703878    0.2551774  39.55  0.002673102    2.054    0.513
        18 -13.0782    214.7722     10.1049   2.2131885989e+01   3.1618694201e+01    0.4019293    0.2746772 -59.69  0.001630556    1.161    0.139
        19 -11.7037     46.7636     12.6792   5.1961574735e+01   6.8163038558e+01    0.2919517    0.2046634  45.47  0.001265375    1.265    0.209
        20 -10.4802     40.4959     12.5272   5.4657854336e+01   6.9323773037e+01    0.1596305    0.1153338 -36.17 0.0006764349    1.688    0.408
        21 -13.7070     41.9993      3.9650   4.9547141863e+01   6.9933539696e+01    0.6516823    0.4217688  37.51  0.003177404    1.248    0.199
        22 -12.2308    223.1502      9.8356   2.1563095963e+01   3.0055916521e+01    0.2406889    0.1511858 -80.09  0.001666404    1.319    0.242
        23 -12.0568    224.5114      4.2576   2.0442226267e+01   3.0374371630e+01    0.2404049    0.1875183  45.32  0.001747305    2.072    0.517
        24 -11.1451     74.9519      8.1613   4.0255754099e+01   6.2819481659e+01    0.3380241    0.1760387 -10.84  0.001037607    2.614    0.617
        25 -12.2059    153.0298      8.4824   2.6889552279e+01   4.4833682189e+01     0.269333    0.1940278  77.81 0.0009161826    1.170    0.145
        26 -10.8909     59.5753      7.3005   4.4525751827e+01   6.6168427938e+01    0.2352682    0.1092235  42.01  0.001030892    1.840    0.456
        27 -11.9441    119.1335      2.8016   2.9486792930e+01   5.3148206746e+01     0.470678    0.2153558 -86.61   0.00199126    2.938    0.660
        28 -10.6079    123.4878     11.0419   3.1402789397e+01   5.1433007655e+01    0.1606745    0.1254063 -30.86 0.0004463755    1.507    0.336
        29 -11.1180    169.3414      1.6512   2.3638877503e+01   4.1818249546e+01    0.2325709    0.1202514  74.85  0.001123749    1.634    0.388
        30 -11.0334     81.1542      1.3115   3.5883759347e+01   6.1996446902e+01     0.488932          nan  58.57  0.001261455    6.443    0.845
        31 -11.1990     61.3698      1.4463   4.1223426881e+01   6.6289878399e+01    0.3317304    0.0997439  58.86  0.001344885    2.734    0.634
        32 -10.4156     66.8614      3.6398   4.0575604043e+01   6.4950174857e+01     0.170893     0.103325  67.92 0.0004968653    1.667    0.400
        33 -11.6389    136.0120    132.1038   6.2829252263e+01   2.8598099063e+01    0.4508699    0.1990058  37.70   0.00162762    2.434    0.589
        34 -12.0992     51.5961    248.9741   1.0339902210e+02   1.4167140140e+01    0.3165083    0.2303334  82.67  0.001906151    1.500    0.333
        35 -13.7178      9.5046    245.2540   1.1258409651e+02   1.9251311360e+01    0.8376108    0.4585476  52.48  0.003506789    1.506    0.336
        36 -14.3248    106.2778    105.3672   6.4247239306e+01   4.0566058011e+01     2.174317     1.264828 -34.16  0.008773039    2.011    0.503
        37 -12.5385     84.3676    114.8919   7.3684801710e+01   4.2545602608e+01    0.8373857    0.3456455  31.24  0.002840406    2.665    0.625
        38 -12.2350     78.3709    110.0204   7.4497393708e+01   4.4772725023e+01    0.5278451    0.4309572  75.07  0.002096812    1.546    0.353
        39 -13.1879    111.6605    116.5742   6.5599635869e+01   3.6965647930e+01    0.5690055    0.3975204  37.43  0.001666125    1.448    0.310
        40 -11.6062    134.9522    125.6599   6.1566436008e+01   3.0234972394e+01    0.2716456    0.2143709 -33.18  0.001132451    1.318    0.241
        41 -10.8151    181.3200    120.6734   5.0324732318e+01   2.2018418827e+01    0.1427124    0.1069979 -74.60 0.0007046991    1.682    0.406
        42 -11.8848      4.4151    119.4985   1.0438415482e+02   5.0879154680e+01    0.5437303    0.1624135  14.37  0.001925196    3.671    0.728
        43 -13.5547    108.2943    122.9903   6.8183379212e+01   3.6145060581e+01     1.062167    0.8510407  53.77  0.005127533    1.338    0.253
        44 -12.1945     49.9975     98.5910   8.2230999336e+01   5.1954123553e+01    0.9552169    0.4860043  18.51  0.003780102    2.299    0.565
        45 -12.3034     48.9841     93.3948   8.1307595702e+01   5.3342959044e+01    0.4626586    0.4319664  53.82  0.002611509    1.219    0.180
        46 -12.3703     42.4471     90.5135   8.3294591424e+01   5.4885202968e+01    0.3999949     0.337766 -88.64 0.0005238094    1.487    0.328
        47 -12.3428     19.1629     86.0938   9.2559023776e+01   5.8377128454e+01    0.5582263    0.3305506 -15.55  0.001986843    1.893    0.472
        48 -14.6222     15.6849    107.5129   9.8221469167e+01   5.3274831238e+01     1.540142     1.044703  69.72  0.006597489    1.855    0.461
        49 -13.2852      2.3946     97.1223   1.0209187130e+02   5.6753196937e+01    0.8109285    0.2978421 -73.39  0.003083247    2.609    0.617
        50 -12.1211     36.7890     92.8553   8.6307504774e+01   5.5000379159e+01     0.493065    0.3260318   8.44  0.001444642    1.651    0.394
        51 -14.3501     22.7035     94.7869   9.2857955979e+01   5.5943439326e+01      1.52011    0.9633978   2.21  0.007422175    1.742    0.426
        52 -13.0331     29.6095     89.4505   8.8619282649e+01   5.6601202543e+01    0.8934715    0.5480297  80.13  0.003608981    2.944    0.660
        53 -11.6058      8.4735    114.7921   1.0221169864e+02   5.1870373819e+01    0.2365871    0.1992887   5.45 0.0009133556    1.301    0.232
        54 -11.2858    121.7480    112.1374   6.1645547436e+01   3.5902716698e+01     0.280042    0.2554547  68.92 0.0006559488    1.170    0.145
        55 -12.0941     62.7577    109.3736   7.9961680174e+01   4.7470111053e+01    0.5776846    0.4474841 -74.34  0.002789804    1.516    0.341
        56 -11.3113     42.1712    106.8881   8.7344242871e+01   5.0888289645e+01    0.3268036    0.2084001  14.98  0.001435545    1.707    0.414
        57 -12.0187    136.3959    102.9040   5.5508043809e+01   3.4749214981e+01    0.6838363    0.2463917  47.80  0.001937451    2.803    0.643
        58 -11.7564    120.8028    101.4834   5.9094084149e+01   3.8378490637e+01    0.3343612    0.2575126 -24.41  0.001591064    1.520    0.342
        59 -12.0380     60.8490     97.4797   7.7647357437e+01   5.0647146054e+01    0.4340221    0.3391331  55.11  0.001963823    1.515    0.340
        60 -11.1681     90.0563     97.3702   6.7122937699e+01   4.5556659859e+01    0.3393996    0.2182288 -57.75  0.001470147    1.765    0.433
        61 -10.4800    163.5087     97.4616   4.8262322057e+01   2.9984103325e+01    0.1418428    0.1331316 -65.82 0.0001290233    1.004    0.004
        62 -12.3730    136.8667     95.1525   5.3357937374e+01   3.6183923441e+01    0.5092068    0.3696055  65.22  0.002443917    1.529    0.346
        63 -10.8904     81.7088     93.1385   6.8745020674e+01   4.8077774436e+01    0.2956339    0.1989619   7.56  0.001227645    2.112    0.527
        64 -13.1904     95.5413    110.1869   6.8828884906e+01   4.1595082973e+01    0.9119002    0.8366057  80.03  0.004454903    1.223    0.182
        65 -10.3495    100.3295     89.2794   6.1531961361e+01   4.5225555784e+01    0.1511658    0.1183744   7.54 0.0004667991    1.601    0.375
        66 -12.1327    188.0742     84.3352   4.0924550833e+01   2.7138988036e+01    0.4740087    0.2120927  43.89  0.001923113    3.035    0.671
        67 -12.3645    241.9193     84.0053   3.4142467003e+01   1.7242096708e+01    0.2958721    0.1793822 -85.14  0.001671404    2.230    0.552
        68 -12.0279    158.6132     68.4338   4.1838000403e+01   3.6043998006e+01    0.8397059    0.2599453 -40.38  0.003010194    3.069    0.674
        69 -12.9995    163.7127     71.6473   4.1779782401e+01   3.4396319418e+01     1.096035    0.4519368  53.39  0.004499383    2.422    0.587
        70 -13.5756    169.4034     76.9023   4.2129881186e+01   3.2296806548e+01     1.094789    0.4266233  52.58  0.004374289    2.616    0.618
        71 -11.5298    158.2091     83.4118   4.5764990077e+01   3.3646284287e+01    0.3091619    0.2141963  72.49 0.0007300893    1.613    0.380
        72 -12.6427    161.3996     79.9003   4.4278962909e+01   3.3546936869e+01    0.5618705    0.3741866  32.96  0.001942653    2.100    0.524
        73 -13.2742     64.9734     52.1135   6.1471882943e+01   5.9271812057e+01      1.19345    0.7570844 -21.51  0.005712878    1.927    0.481
        74 -13.2769     91.4790     57.9729   5.4361360017e+01   5.2929666581e+01    0.5349979    0.4908543  40.19  0.003119915    1.007    0.007
        75 -13.6046     54.4115     67.7764   7.1382707187e+01   5.8202631290e+01     1.957744    0.6855527  35.09  0.007125445    2.756    0.637
        76 -13.0261     54.3358     81.1528   7.5648619725e+01   5.5386309243e+01    0.6348541    0.5078139 -69.77  0.003286525    1.556    0.357
        77 -12.2673     77.1618     73.2566   6.4270635756e+01   5.3092568316e+01    0.5881177    0.3620126 -26.31  0.001967837    2.033    0.508
        78 -13.9286     61.5241     75.6552   7.1005685632e+01   5.5420384952e+01    0.7109153    0.5444582  -8.71  0.001303143    1.464    0.317
        79 -13.2673     70.8091     75.1772   6.7232584092e+01   5.3896421259e+01    0.7091252    0.4539356  17.39  0.002119143    1.949    0.487
        80 -12.6388    216.1762     80.9296   3.6390029621e+01   2.2203038401e+01    0.4294741    0.2654723 -71.23  0.002235533    1.873    0.466
        81 -12.2035    135.6008     79.6146   4.9427895451e+01   3.9360216191e+01    0.6163803    0.3224031  54.77  0.002367465    1.891    0.471
        82 -11.7182    114.2913     79.6857   5.4692330136e+01   4.4114947564e+01    0.3905363    0.3014053 -56.19  0.001254733    1.411    0.291
        83 -11.3280     42.5109     79.4776   8.0239411646e+01   5.7434828970e+01    0.2914105    0.2060097 -30.98  0.001072286    1.407    0.289
        84 -11.1760     41.6150     76.2018   7.9679288690e+01   5.8283623338e+01    0.2757697    0.1975306 -52.60 0.0007340277    1.419    0.295
        85 -12.0029    109.4506    249.4547   9.0051265278e+01   6.9929400400e+00    0.2373197    0.1538195  34.09  0.001307965    1.331    0.249
        86 -13.5122      4.0330     63.6173   9.4792184685e+01   6.4689342132e+01    0.5474859    0.4069056  29.58  0.003247303    1.537    0.349
        87 -10.3857     97.4724     78.5341   5.9183686155e+01   4.7967284645e+01    0.1471547    0.1407356  33.87 7.101418e-05    1.004    0.004
        88 -11.2766     27.1534     75.5836   8.6216538363e+01   6.0113521004e+01    0.4480847    0.2660626 -85.91  0.001786522    3.193    0.687
        89 -11.3972    218.6557     74.3067   3.4735681800e+01   2.2742714081e+01    0.1298074   0.08015631 -67.35 0.0003743366    1.693    0.409
        90 -12.8366    199.2618     69.9616   3.6136065899e+01   2.7132471507e+01    0.6076937    0.4068509  48.77   0.00291537    1.823    0.452
        91 -11.3314    117.6821     72.4147   5.1641496447e+01   4.4676228779e+01     0.251812     0.235497  36.88 0.0003580569    1.098    0.089
        92 -12.4753    134.3206     65.7385   4.5797464062e+01   4.2006506225e+01    0.6175976    0.4652202  67.27  0.002745576    1.312    0.238
        93 -11.3931     99.4924     64.3792   5.4092798742e+01   5.0114439045e+01    0.3726239    0.2589575 -65.76  0.001727511    1.977    0.494
        94 -12.1801     31.0918     62.3128   8.0349734240e+01   6.2582329900e+01    0.5283182    0.3212588 -64.77  0.002503899    2.162    0.537
        95 -11.5686     25.0201     59.2966   8.2457766345e+01   6.3894187396e+01    0.5021517    0.3211126 -46.66  0.002031794    1.473    0.321
        96 -11.1616    200.0383     61.6530   3.4212132676e+01   2.8197124542e+01    0.1758289    0.1526189 -89.33  0.001158408    1.131    0.116
        97 -12.6116     79.1015     60.4921   5.9284982495e+01   5.5082156716e+01    0.4906935    0.4690083 -11.17  0.002105431    1.090    0.083
        98 -12.9437     82.1803     54.4844   5.6123048804e+01   5.5469229363e+01     0.640156    0.4318478  40.39  0.002372796    1.377    0.274
        99 -13.1663    177.9390     57.6112   3.6119369782e+01   3.3406722765e+01    0.6836184    0.4546992 -54.18  0.002619911    1.406    0.289
       100 -11.0464     39.1848     60.1104   7.5661217500e+01   6.2002676853e+01    0.2594954    0.1754219  53.68  0.001254652    2.124    0.529
       101 -10.9325    111.2079     58.8023   4.9098783887e+01   4.8417582278e+01    0.2737439     0.199001  29.23 0.0006495239    1.629    0.386
       102 -14.4374    120.4000     54.5087   4.5533393683e+01   4.6969291526e+01    0.9301107    0.5674544  52.76  0.002335212    1.517    0.341
       103 -13.4239     87.3888     65.0605   5.8052195047e+01   5.2580055545e+01     1.052877    0.6224769  19.49  0.004095118    2.748    0.636
       104 -11.3507     17.6869     55.4928   8.5132060584e+01   6.5418648204e+01    0.3127516    0.1936911 -54.94  0.001660415    1.626    0.385
       105 -13.4456    103.1333     50.3906   4.8460043180e+01   5.1540492544e+01    0.9550613    0.4773849 -53.67  0.002591743    2.803    0.643
       106 -13.1044     97.9027     50.3244   4.9862111834e+01   5.2725133965e+01    0.6783262    0.4034938 -46.82  0.002360337    1.917    0.478
       107 -11.2018     38.2145     50.5730   7.2701818261e+01   6.3976201810e+01    0.2755256     0.179656  17.34 0.0009628624    1.517    0.341
       108 -11.5650    136.3377     49.5645   4.0733071663e+01   4.3976894281e+01    0.2511714    0.2236713  54.45 0.0006510144    1.149    0.129
       109 -10.5286     23.5435     49.9854   8.0092045809e+01   6.5936295001e+01    0.1826716    0.1184987 -44.64 0.0004510848    1.480    0.324
       110 -12.0307    153.8118     46.6617   3.6904307329e+01   4.0328964657e+01    0.4181637    0.2554173  60.55  0.002173001    1.538    0.350
       111 -12.1849    158.9724     43.0446   3.5168173169e+01   3.9629330938e+01    0.4148094    0.3250411  86.89  0.001745774    1.179    0.152
       112 -12.9995    204.7550     40.0673   2.9039900335e+01   3.0157410612e+01    0.9315473    0.3811793 -86.42  0.003391687    4.539    0.780
       113 -12.5542    213.3573     42.7555   2.8793441858e+01   2.8117555938e+01    0.3900167    0.2381492  56.92  0.001317937    1.936    0.483
       114 -13.1837    219.7135     41.5739   2.7986830369e+01   2.7047345146e+01    0.7246033    0.3545604 -89.93  0.003347293    2.413    0.586
       115 -12.2831      3.0427    249.4466   1.1414987902e+02   1.8958521560e+01    0.4094647     0.280189  52.58  0.002236928    1.165    0.142
       116 -13.0126     28.5650    245.1927   1.0836786794e+02   1.7428753276e+01    0.4475533    0.2581301  42.67  0.002492807    1.425    0.298
       117 -13.4090    171.9821    242.3958   7.5285169498e+01   2.8054237266e-01    0.4673735    0.3431709  17.03  0.002901356    1.185    0.156
       118 -13.7445     92.1661    230.5063   9.1872652997e+01   1.3075676916e+01    0.4892403    0.4497416 -43.17  0.003026515    1.202    0.168
       119 -12.2047     24.5469    216.9032   1.0742047899e+02   2.4145780755e+01    0.6029952    0.3756615  59.34   0.00323306    1.504    0.335
       120 -10.7364     25.3977     44.2167   7.6948549741e+01   6.6823641665e+01    0.1683346     0.123225 -54.80  0.000951092    1.650    0.394
       121 -11.4094     13.6320    222.4456   1.1043653121e+02   2.3885559069e+01    0.3415465    0.1663041  77.17  0.001519267    2.155    0.536
       122 -12.1642    109.6795     41.8707   4.3987080115e+01   5.1243202626e+01    0.4991793    0.1796707  56.64  0.001144657    2.451    0.592
       123 -13.6205     26.5350    226.1375   1.0758716859e+02   2.1813531847e+01    0.8190525    0.4294065 -48.22  0.003939467    2.386    0.581
       124 -13.7615     20.4245    224.1671   1.0892161241e+02   2.2859306631e+01    0.5797303    0.5171703 -85.86  0.002177476    1.164    0.141
       125 -12.9046    139.7013     21.3695   3.2062801687e+01   4.6635281177e+01    0.8100461    0.2526291  66.46  0.002548991    2.715    0.632
       126 -12.1644     75.7622     37.0109   5.1754211192e+01   5.9431752858e+01     0.394147    0.2286902  48.25  0.001003182    1.526    0.345
       127 -11.3288     70.6735     36.0071   5.3097915087e+01   6.0621714217e+01     0.261129    0.2259998  45.01  0.000744689    1.100    0.091
       128 -12.4719    242.4677     36.0186   2.5159406138e+01   2.3605891913e+01     0.421027    0.2149225  80.12   0.00184089    2.051    0.512
       129 -12.9666    132.3042     32.6826   3.6517244270e+01   4.7105064715e+01    0.5069667    0.3739579  66.55  0.001452919    1.201    0.167
       130 -12.8082     43.9432     32.6538   6.2593212170e+01   6.6095539945e+01    0.7600716    0.4772026  41.93   0.00412416    1.535    0.349
       131 -10.9772     35.0067     34.7109   6.7906773136e+01   6.7185930576e+01    0.1869812    0.1640049  23.43 0.0004834192    1.191    0.161
       132 -13.4742     65.0828    223.1139   9.7781148009e+01   1.8191951006e+01    0.8224984    0.6589942  21.45  0.004711133    1.244    0.196
       133 -13.5543     64.4828    214.5768   9.7009930080e+01   2.0240520367e+01    0.6278734    0.3907855  48.86  0.003094394    1.558    0.358
       134 -12.7686    216.8511     28.2980   2.5572823772e+01   2.9209779435e+01    0.3121456    0.1526797 -46.57  0.001810841    1.683    0.406
       135 -11.5891     30.9603     25.2551   6.5754861868e+01   6.9236367412e+01    0.4174477    0.1906974  26.12  0.001568775    2.265    0.559
       136 -11.3751     36.4766     24.0823   6.2314270827e+01   6.8551320498e+01    0.3237104    0.2149338 -39.82  0.001866612    1.750    0.428
       137 -12.5962     59.3976    212.7863   9.8138704903e+01   2.1290712322e+01    0.3832043    0.2167367 -54.49  0.001064884    1.871    0.466
       138 -12.2507      4.3070    211.7422   1.1206644106e+02   2.7180571401e+01    0.4935087    0.2540659 -84.66  0.002502853    1.838    0.456
       139 -11.3606     72.7209    207.2793   9.3982902757e+01   2.0914686536e+01    0.2675798    0.2148671  55.37  0.001446444    1.248    0.199
       140 -11.3524     51.2635     20.4169   5.3782232856e+01   6.6437278796e+01    0.3221793    0.1662817  55.61  0.001416447    2.193    0.544
       141 -11.3069     45.9987     20.5240   5.6093328264e+01   6.7394173958e+01    0.3547379    0.2459299  34.31    0.0018127    1.222    0.182
       142 -11.1346    223.9651     21.0079   2.3632924056e+01   2.8694970252e+01    0.1512603    0.1325974  48.44  0.001135588    1.716    0.417
       143 -11.7853     57.7381    203.0160   9.7495730342e+01   2.3850682229e+01     0.469428    0.2269805 -88.87  0.001723058    3.123    0.680
       144 -12.1062     17.0057    196.0139   1.0781387226e+02   2.9914501658e+01    0.4216654    0.1833021 -72.36  0.001854269    2.140    0.533
       145 -13.1129     30.1667    169.1453   1.0156318150e+02   3.5622458361e+01     1.039637    0.5622769 -33.86   0.00431889    2.425    0.588
       146 -12.0803     22.1005    166.1395   1.0369995620e+02   3.7170501491e+01    0.4895574    0.2920915  -8.04  0.002176543    2.306    0.566
       147 -10.2512     35.6448     16.6784   5.9105218639e+01   6.9664599248e+01      0.13302   0.08213541  14.44 0.0007046234    1.759    0.431
       148 -13.5018     21.9842    180.9532   1.0518144797e+02   3.3296792315e+01    0.9860649    0.4050856 -57.92  0.004076245    2.294    0.564
       149 -15.0470      8.1866    183.1657   1.0924567637e+02   3.3890491741e+01     1.484733     1.203568 -81.99  0.008871138    1.132    0.117
       150 -14.7012     15.6421    174.8387   1.0646115092e+02   3.5436744934e+01     2.068582    0.7583408  48.23  0.007895109    2.801    0.643
       151 -12.2241    198.5869    181.3983   5.9551866925e+01   7.5440082118e+00    0.2697906    0.2476726 -26.09  0.001726034    1.156    0.135
       152 -11.8576    200.7710    191.7643   6.1053911960e+01   5.3578580056e+00    0.2509571    0.2083407   5.70  0.001081473    1.171    0.146
       153 -12.0862     62.5322     25.4805   5.1651483698e+01   6.3634807249e+01    0.5357714    0.2527508  27.40  0.002119037    3.100    0.677
       154 -12.1885    124.2969    166.6100   7.3361174896e+01   2.2819523985e+01    0.5494727    0.3936786 -76.85   0.00241894    1.942    0.485
       155 -11.0720    155.6669    185.3166   6.9261386664e+01   1.3382724585e+01    0.1383447    0.1161102  73.88 0.0006231358    1.690    0.408
       156 -11.7787     76.9723    156.6900   8.5098727732e+01   3.3113567297e+01    0.4510407    0.3134164  29.52  0.001415849    1.446    0.309
       157 -12.7049     73.7872    153.3949   8.5496121114e+01   3.4452031829e+01    0.7210132    0.4773019  18.99  0.002880854    1.675    0.403
       158 -11.1068    103.3396    149.8611   7.5760156357e+01   3.0543891859e+01    0.3122607     0.224568 -25.16  0.001051582    1.665    0.400
       159 -11.5306    245.2433    148.0043   4.5726411079e+01   6.7221431902e+00    0.1985729    0.1541843   9.58  0.001307379    1.632    0.387
       160 -13.0760     55.4990     26.9789   5.5021733052e+01   6.4818456432e+01    0.6659483     0.345075  47.20   0.00276251    1.740    0.425
       161 -11.5888     60.5601    147.3854   8.8692598464e+01   3.7922403409e+01    0.4258006    0.2915875   6.57  0.001890084    1.773    0.436
       162 -12.3767    246.9271    135.5535   4.3219158224e+01   8.4893245235e+00    0.2913677     0.195647  89.89   0.00153027    3.005    0.667
