#   1 NUMBER                 Running object number                                     
#   2 MAG_AUTO               Kron-like elliptical aperture magnitude                    [mag]
#   3 X_IMAGE                Object position along x                                    [pixel]
#   4 Y_IMAGE                Object position along y                                    [pixel]
#   5 X_WORLD                Barycenter position along world x axis                     [deg]
#   6 Y_WORLD                Barycenter position along world y axis                     [deg]
#   7 A_WORLD                Profile RMS along major axis (world units)                 [deg]
#   8 B_WORLD                Profile RMS along minor axis (world units)                 [deg]
#   9 THETA_WORLD            Position angle (CCW/world-x)                               [deg]
#  10 FWHM_WORLD             FWHM assuming a gaussian core                              [deg]
#  11 ELONGATION             A_IMAGE/B_IMAGE                                           
#  12 ELLIPTICITY            1 - B_IMAGE/A_IMAGE                                       
         1 -14.3860    200.1330      5.0249   5.9918904344e+01   3.4604858469e+01     2.248081     1.534343  46.78   0.01305745    1.750    0.428
         2 -14.3039    168.2948     46.2297   7.4819324226e+01   3.7446944222e+01     1.910282     1.373871  27.95  0.005859218    1.811    0.448
         3 -14.0303    181.5816     31.5514   6.8724231027e+01   3.6107523997e+01    0.9043747    0.7386336 -25.56  0.004117716    1.458    0.314
         4 -13.8112    186.0620     24.7470   6.6346877461e+01   3.5831841851e+01    0.7919104    0.6873215 -67.29  0.001582121    1.149    0.130
         5 -11.8617     56.8932      5.2287   8.8061210742e+01   6.5484123857e+01    0.2323969    0.1293296  27.30  0.001379447    1.601    0.375
         6 -10.4786    186.6675    220.6767   1.1207384198e+02  -4.5103033077e-02    0.1395611    0.1016788   6.63 0.0007050373    1.705    0.413
         7  -9.8403    159.4906    250.0136   1.2210860129e+02  -2.4550247291e-01    0.1648963    0.1086316 -18.94 0.0008103275    2.535    0.606
         8 -19.6700     35.7876    160.3599   1.3660614096e+02   3.8148934040e+01     20.11591     5.416664 -70.45    0.0696047    3.579    0.721
         9 -10.3434    180.0423    193.0157   1.0836468326e+02   6.3464909626e+00    0.3134511    0.2070592 -73.12  0.001308461    2.493    0.599
        10  -9.8259    157.3225    191.6830   1.1302608477e+02   1.1102213506e+01    0.1503116    0.1142223  77.98 0.0003380797    1.666    0.400
        11 -10.6316     64.5659    195.4376   1.3443426114e+02   2.6394456471e+01    0.2259464     0.201627 -87.07 0.0006403273    1.141    0.124
        12 -13.0255    111.7711    183.5907   1.2195582783e+02   2.1583900018e+01    0.5450453    0.4636046  44.05  0.002976641    1.204    0.170
        13 -15.9825     73.9716    147.5801   1.2498362958e+02   3.6416482695e+01     4.603654     2.421092  78.39   0.01461816    4.421    0.774
        14 -10.6628    157.3799    219.1665   1.1783611213e+02   5.5920961929e+00    0.1876871    0.1320595 -64.91 0.0009514414    1.744    0.427
        15 -11.9875    207.6929    183.9853   1.0087329360e+02   2.6834995405e+00    0.3977287    0.3786993 -84.82  0.001200593    1.243    0.195
        16 -11.9174    210.8296    181.0433   9.9649641857e+01   2.6282236357e+00    0.4581958    0.3012452 -30.71  0.002207721    1.579    0.367
        17 -11.9502    107.9342    210.6228   1.2704365434e+02   1.6225913784e+01    0.5870893    0.3663394  34.99  0.002885635    1.740    0.425
        18 -12.2189     98.2515    180.6492   1.2464082534e+02   2.4629492484e+01    0.4611011    0.2652649  38.98  0.001594325    1.793    0.442
        19 -12.6791    107.5771    204.6527   1.2625459568e+02   1.7581574689e+01    0.6534257    0.5584103  11.35    0.0032786    1.617    0.382
        20 -12.0692    197.8221    175.1742   1.0104454673e+02   6.3165369609e+00    0.5271947    0.3411025 -48.80  0.001409034    1.620    0.383
        21 -10.2416    145.5095    178.5032   1.1316715089e+02   1.6294700598e+01    0.1497297    0.1439117  63.69 -4.46202e-05    1.017    0.017
        22 -11.7443    115.9661    211.6722   1.2546738868e+02   1.4613045885e+01    0.5323476     0.299322  75.94  0.001051919    2.872    0.652
        23 -11.4214    145.7659    169.3713   1.1128559518e+02   1.8280617724e+01    0.4522739    0.2048213 -46.92  0.001419015    2.261    0.558
        24 -12.4564    137.8692    171.5668   1.1358134104e+02   1.9380203829e+01    0.5902965    0.3853377 -74.15  0.002483772    2.023    0.506
        25 -12.2296    116.2316    206.3000   1.2460643719e+02   1.5714538337e+01    0.4756448     0.223764  46.85  0.001630671    1.958    0.489
        26 -10.8004      9.8938    213.9897   1.4708763905e+02   2.8785391536e+01    0.2427248    0.1634646  20.83  0.001321115    2.450    0.592
        27 -11.4900    203.5865    167.3615   9.8215825630e+01   6.6812069914e+00    0.4560544    0.4095493  43.45   0.00186385    1.139    0.122
        28 -10.0840    177.3260    169.6642   1.0421229898e+02   1.1653259672e+01    0.1554758    0.1212625  88.60 0.0007051523    1.720    0.418
        29 -10.7704    225.4802    166.4354   9.3778750418e+01   2.5155687239e+00    0.2616705    0.1252259 -49.94 0.0008974923    2.374    0.579
        30  -9.6565    120.0462    163.6829   1.1630637256e+02   2.4694628265e+01    0.2086305    0.1833035  55.81 0.0004565621    1.121    0.108
        31  -9.6614    115.3913    162.2193   1.1716490803e+02   2.5920855321e+01    0.2024336    0.1400385 -67.63 0.0002765704    1.527    0.345
        32 -13.0778    100.9667    155.7820   1.1952919913e+02   3.0078492174e+01    0.7190437    0.4718747 -40.88  0.003280161    1.740    0.425
        33 -10.6076    119.4774    155.9239   1.1488116101e+02   2.6632981433e+01    0.2993484    0.2047362  60.22  0.001220747    1.616    0.381
        34 -12.3472    133.8625    145.0212   1.0893199685e+02   2.6311016747e+01     1.217984    0.3176415 -54.49  0.002927227    5.217    0.808
        35 -12.5931    110.3292    140.5669   1.1395682765e+02   3.2016068386e+01    0.6404184    0.4169712 -31.20  0.002707237    2.026    0.506
        36 -11.0799    174.6236    148.2607   1.0008239881e+02   1.6784067042e+01    0.4106663    0.2595956 -62.34  0.001461138    1.979    0.495
        37 -12.0795    145.2659    145.9790   1.0635370628e+02   2.3691899959e+01    0.4267081    0.3481375  67.51  0.002055266    1.329    0.247
        38 -14.2019     11.0829    206.5299   1.4634400545e+02   3.0239819350e+01    0.5230371    0.4468108  32.62  0.003302366    1.657    0.397
        39 -10.5449    164.8046    205.0433   1.1384916580e+02   6.9324814670e+00     0.485979    0.1881787 -57.77  0.001555235    4.058    0.754
        40 -12.5300     99.6084    140.9618   1.1687431683e+02   3.3874103433e+01    0.2886485    0.2819175  33.99 0.0004109303    1.127    0.113
        41 -10.3077     84.9803    142.4637   1.2108757265e+02   3.5969314510e+01    0.2104304    0.1427958  40.90 0.0005338718    1.563    0.360
        42  -9.0937    170.2708    205.3317   1.1274016179e+02   5.8311282429e+00    0.1387497    0.1103352  -2.82   0.00029898    1.589    0.371
        43 -11.9364      4.1829    137.4419   1.4151281995e+02   4.6235206651e+01    0.2406679    0.2241963  65.26 0.0006360019    1.296    0.228
        44 -11.9550     10.4001    136.9265   1.3990045324e+02   4.5906447016e+01    0.2112244    0.1771587 -70.01 0.0005463855    1.103    0.093
        45 -12.1764    117.7435    130.4405   1.0969494106e+02   3.2966249764e+01    0.4894738    0.4220457  14.87   0.00150798    1.376    0.273
        46 -12.0413    105.5525    128.9934   1.1261874464e+02   3.5637185560e+01    0.6413099    0.3381381 -58.69  0.002556063    2.002    0.501
        47 -10.9836    160.3707    128.4078   9.8594083934e+01   2.4276511944e+01    0.4320356    0.2937083 -41.70   0.00189684    1.482    0.325
        48 -12.1964    135.3402    122.2950   1.0314457737e+02   3.1183374218e+01    0.8907863    0.2375253 -50.91  0.002307533    4.366    0.771
        49 -11.5263    125.0763    127.0493   1.0695901257e+02   3.2270075053e+01    0.3941864    0.2692038  72.77  0.001543622    2.041    0.510
        50  -9.5570    211.3909    203.2373   1.0394933926e+02  -1.4771109192e+00    0.1762778    0.1282988 -48.63 0.0003844496    1.561    0.359
        51 -10.7122    111.8154    119.6233   1.0866586782e+02   3.6617535996e+01    0.2807465    0.2435397 -44.66 0.0005829448    1.128    0.114
        52 -10.6638      5.8466    118.1202   1.3864620046e+02   5.0491020676e+01    0.1734388    0.1615513 -79.67 0.0004773261    1.206    0.171
        53 -13.0953    194.1453    194.0962   1.0563510268e+02   3.3945711731e+00     1.088144    0.7603489 -68.86  0.004385551    2.154    0.536
        54 -10.8571    168.4510    113.4097   9.2991757542e+01   2.5592229812e+01    0.3790874    0.2855014 -81.82 0.0008453467    1.702    0.412
        55 -12.2535    204.7843    197.9516   1.0423486617e+02   6.6892629557e-01     0.519133    0.3053526 -16.28  0.002058416    2.651    0.623
        56 -10.4977    205.4315    110.1798   8.4707381708e+01   1.7571386798e+01    0.3198777    0.2174705  44.85 0.0009341424    1.596    0.373
        57 -12.1785    117.2651    201.1268   1.2357862867e+02   1.6654788981e+01    0.5431255    0.2045114  46.32  0.002043753    2.480    0.597
        58 -10.5003    134.5422    104.1448   9.8614101469e+01   3.5296489609e+01    0.4865576    0.1491537 -45.41  0.001462877    3.259    0.693
        59 -11.1559    140.6524    199.6237   1.1814272634e+02   1.2659302884e+01    0.2526903    0.2180926  68.77 0.0005795385    1.153    0.133
        60 -12.1430    112.7086    196.2353   1.2382394446e+02   1.8547119814e+01    0.5640695    0.3865047   4.62  0.002301886    3.040    0.671
        61  -9.8185    177.4923    196.4846   1.0957040749e+02   6.1637332243e+00    0.1434394    0.1357243  45.76 0.0008099345    1.050    0.048
        62 -12.2046    103.5557    194.6582   1.2564242152e+02   2.0497292267e+01    0.4158001    0.2909576  36.92  0.002116833    1.524    0.344
        63 -10.4963    168.1653    248.1208   1.2015076213e+02  -1.4149570431e+00    0.1844448    0.1550215  25.21 0.0002808444    1.169    0.144
        64 -10.0556    158.3213    246.6515   1.2185825414e+02   5.1120258282e-01    0.1306243   0.09350022  68.61 0.0007048986    1.740    0.425
        65 -10.7779    182.4395    241.5521   1.1636870341e+02  -2.7962951656e+00    0.2383174    0.2098583  78.05 0.0007721798    1.463    0.316
        66 -10.9002    182.7848    233.8213   1.1506375564e+02  -1.5943729817e+00     0.180712    0.1490029  57.16 0.0005876052    1.346    0.257
        67 -11.0253     13.6198     59.9298   1.2492565438e+02   6.2260439960e+01    0.1772226    0.1591001  -2.08 0.0004023348    1.284    0.221
        68  -9.9323    110.7583     21.0070   7.8753259071e+01   5.3891180979e+01    0.3484747    0.1723252  73.55  0.001303828    3.726    0.732
