#   1 NUMBER                 Running object number                                     
#   2 MAG_AUTO               Kron-like elliptical aperture magnitude                    [mag]
#   3 X_IMAGE                Object position along x                                    [pixel]
#   4 Y_IMAGE                Object position along y                                    [pixel]
#   5 X_WORLD                Barycenter position along world x axis                     [deg]
#   6 Y_WORLD                Barycenter position along world y axis                     [deg]
#   7 A_WORLD                Profile RMS along major axis (world units)                 [deg]
#   8 B_WORLD                Profile RMS along minor axis (world units)                 [deg]
#   9 THETA_WORLD            Position angle (CCW/world-x)                               [deg]
#  10 FWHM_WORLD             FWHM assuming a gaussian core                              [deg]
#  11 ELONGATION             A_IMAGE/B_IMAGE                                           
#  12 ELLIPTICITY            1 - B_IMAGE/A_IMAGE                                       
         1 -13.0247    189.5346     33.4931   5.9401674528e+01   3.3266923526e+01     1.354752    0.9973549  14.05  0.007057698    2.128    0.530
         2 -11.5086    214.1548      3.2990   4.9967986442e+01   3.1022359780e+01    0.5634214     0.383464  70.59  0.003144788    1.578    0.366
         3 -10.7818    210.4878      2.5051   4.9980651658e+01   3.1894215940e+01    0.3754655     0.247278  79.87  0.001648001    1.484    0.326
         4  -9.2815     51.0000      8.0085   7.9665850905e+01   7.0943020004e+01    0.2022619   0.07528283 -29.78 0.0007987665    2.917    0.657
         5  -9.5711    111.6511    217.7710   1.1628996561e+02   1.4889289622e+01    0.2441295    0.1826024  34.91  0.000614996    1.102    0.092
         6  -9.5175    140.0045    249.9911   1.1389839004e+02   5.7762809248e+00    0.1827791    0.1217327  47.27  0.001070246    1.697    0.411
         7 -19.4769     19.1950    143.1602   1.3403998636e+02   4.3643566737e+01     20.62575      3.42835 -79.06   0.05126426    6.425    0.844
         8  -8.7737    141.2672    198.0243   1.0670921579e+02   1.4140303400e+01    0.1771951     0.166682  10.61 0.0004173488    1.120    0.107
         9  -8.3935    208.6620    197.2843   9.2917491453e+01   4.3568619236e+00    0.1028423   0.09572065  47.16 0.0004139437    1.628    0.386
        10  -9.2095     99.8556    197.1988   1.1656791489e+02   2.0624716565e+01    0.3243324    0.1701446  25.38  0.001097673    1.892    0.472
        11  -9.4118     82.1629    195.6279   1.2090881463e+02   2.3505121336e+01    0.3221045    0.2758889 -81.21  0.001919793    1.309    0.236
        12  -9.1153    113.2135    196.1936   1.1309903604e+02   1.8821828298e+01    0.2317334    0.1426885 -12.33 0.0009563208    2.841    0.648
        13 -12.2816     70.1939    189.4257   1.2337041285e+02   2.6515781311e+01    0.7901179    0.7441722  72.92  0.003575744    1.126    0.112
        14  -9.6339    191.6451    192.5072   9.5232027261e+01   7.4405376990e+00    0.3161174    0.2221421 -70.70  0.001465957    3.515    0.716
        15  -8.3622    153.6848    194.3060   1.0333525357e+02   1.2882450940e+01    0.1268403    0.1020087  58.45 0.0003313884    1.625    0.385
        16  -9.7790     60.8464    188.1636   1.2576203623e+02   2.8023755740e+01    0.3323795     0.191031  67.94 0.0008339938    1.975    0.494
        17 -10.2206     56.3266    188.1704   1.2698977844e+02   2.8588797301e+01    0.3481251    0.2293127 -61.17  0.001834894    1.682    0.405
        18  -9.2466     95.9992    188.4774   1.1640122353e+02   2.3045952452e+01     0.355388      0.19628  53.84  0.001106437    1.994    0.499
        19  -9.2821     99.4539    180.8043   1.1441238492e+02   2.4191476326e+01    0.2668048    0.1820702  34.17 0.0006300349    1.306    0.234
        20  -8.4454     53.1301    181.1659   1.2719010634e+02   3.0612402590e+01    0.1895346    0.1762948  33.03  0.001154265    1.155    0.134
        21  -9.9258    103.6434    171.6766   1.1189477415e+02   2.5551635706e+01     0.417089    0.2567406  60.36  0.001817134    2.027    0.507
        22  -8.0785    165.1583    172.1875   9.6970168931e+01   1.5000282818e+01    0.1714268    0.1629514  72.04 0.0004267259    1.337    0.252
        23  -8.3236    124.4690    171.0132   1.0631863681e+02   2.2206863267e+01    0.2060639    0.1450517 -51.86 0.0005093712    1.558    0.358
        24  -9.6995     71.5692    179.6221   1.2186412973e+02   2.8576442936e+01     0.454397    0.1981188  59.18   0.00116899    3.160    0.684
        25  -8.3689    201.3247    168.6700   8.9135542791e+01   9.7140610644e+00    0.1161956    0.1045793 -79.06 0.0007050292    1.702    0.412
        26  -9.4061    194.1221    167.0965   9.0166479109e+01   1.1103305330e+01    0.2743036    0.2289544 -19.43 0.0008453731    1.101    0.092
        27  -8.3571    140.0111    167.9704   1.0192383674e+02   2.0141888573e+01    0.1726822    0.1601025  19.48 0.0004054486    1.015    0.015
        28  -8.4804    204.0017    164.2589   8.7816702537e+01   9.9931764485e+00    0.2423881    0.1540073 -58.01  0.001134794    2.597    0.615
        29  -8.0844    101.9790    250.4808   1.2191710765e+02   1.0513653633e+01    0.1809141   0.06640827  45.22 0.0008098182    2.501    0.600
        30  -8.9886     94.3527    250.0528   1.2351381818e+02   1.1533387710e+01    0.1607082    0.1333022  41.63 0.0007323698    1.134    0.118
        31  -9.5203    189.9153    155.5321   8.8704636873e+01   1.3725751538e+01    0.2142648    0.1904759 -52.52  0.001293726    1.351    0.260
        32  -9.8828    133.5809    142.9972   9.8579469273e+01   2.6552303548e+01    0.9124014    0.2563792 -55.48   0.00216311    6.266    0.840
        33  -8.2611    113.4843    151.0312   1.0556578850e+02   2.8540081148e+01    0.2255088    0.1520115 -56.73  0.001032467    1.606    0.377
        34  -7.9730    174.9786    149.2509   9.0380104515e+01   1.7462321627e+01    0.1757084    0.1159105  40.09 0.0004133295    1.517    0.341
        35 -10.9209     97.3053    154.2755   1.1074651987e+02   3.0623453254e+01    0.6982568    0.4737877 -27.98  0.003076139    2.006    0.502
        36 -10.2678    108.3351    139.6436   1.0474948877e+02   3.2123938234e+01    0.5893961    0.3149233 -35.31  0.002181392    2.565    0.610
        37 -10.7501     96.5073    139.6808   1.0825745462e+02   3.4267474251e+01    0.2957891    0.2721903 -35.70  0.001564868    1.186    0.157
        38  -9.6628    115.0668    130.6893   1.0089297230e+02   3.2922672445e+01     0.333212    0.2206284 -44.63  0.001131428    1.593    0.372
        39  -9.4504    105.8583    130.4102   1.0351370376e+02   3.4772918303e+01    0.4315254    0.3144688 -58.34  0.002006482    1.452    0.311
        40  -9.4786    103.0498    126.3444   1.0345789314e+02   3.6279840440e+01    0.3291886    0.2842115 -10.19  0.001628664    1.378    0.274
        41  -9.2252    120.1796    124.0441   9.7923719201e+01   3.3419262013e+01    0.2554408    0.1795816 -20.25  0.001069267    1.989    0.497
        42  -8.7002    110.4570    119.0700   9.9538552218e+01   3.6540227048e+01    0.2234432    0.1557521 -52.49 0.0003006584    1.485    0.327
        43  -8.0979    114.6643    118.3101   9.8120540944e+01   3.5857929383e+01    0.1620653    0.1230114  76.74 0.0004472293    1.680    0.405
        44  -8.6379     65.3957    114.7109   1.1357135125e+02   4.5789162230e+01    0.2037034    0.1872739  54.61 0.0008734201    1.059    0.056
        45  -8.4500    168.0389    113.0135   8.3654812309e+01   2.5575630700e+01    0.2414086    0.1820102 -78.80  0.001135755    1.823    0.451
        46  -9.9186    119.7526    111.8821   9.5060385206e+01   3.6250847257e+01    0.2908853    0.2156541 -54.71  0.001055534    1.414    0.293
        47  -8.3054    205.9885    110.2351   7.6190463004e+01   1.8383841243e+01    0.1627351    0.1135237  51.72 0.0004026075    1.595    0.373
        48  -9.5172    108.1301    203.6053   1.1535000960e+02   1.8105328496e+01    0.2384288    0.1507436  27.59 0.0007527765    1.422    0.297
        49  -8.5598     87.5572    202.3692   1.2030780314e+02   2.1318764463e+01    0.2890441    0.1693575 -54.47  0.001449642    1.967    0.492
        50 -10.1098    166.2066     66.6206   7.1758359481e+01   3.4179302052e+01    0.3296257    0.2509732 -86.94 0.0007890795    1.443    0.307
        51 -11.3851    174.5147     48.5333   6.5347650558e+01   3.4885138978e+01    0.5629281    0.3881049 -31.87  0.001763344    1.497    0.332
        52  -8.8813     94.7489    199.8526   1.1819250397e+02   2.0819988118e+01    0.2301536    0.1753795  70.49 0.0006716262    1.517    0.341
        53  -8.3384     76.2626    232.9609   1.2605649169e+02   1.6777180452e+01    0.1672798    0.1424386  43.74 0.0005846944    1.091    0.084
        54 -10.1116    178.4809    221.9463   1.0247616789e+02   4.8563684823e+00    0.2847881     0.154662 -34.54  0.001228982    1.968    0.492
