#   1 NUMBER                 Running object number                                     
#   2 MAG_AUTO               Kron-like elliptical aperture magnitude                    [mag]
#   3 X_IMAGE                Object position along x                                    [pixel]
#   4 Y_IMAGE                Object position along y                                    [pixel]
#   5 X_WORLD                Barycenter position along world x axis                     [deg]
#   6 Y_WORLD                Barycenter position along world y axis                     [deg]
#   7 A_WORLD                Profile RMS along major axis (world units)                 [deg]
#   8 B_WORLD                Profile RMS along minor axis (world units)                 [deg]
#   9 THETA_WORLD            Position angle (CCW/world-x)                               [deg]
#  10 FWHM_WORLD             FWHM assuming a gaussian core                              [deg]
#  11 ELONGATION             A_IMAGE/B_IMAGE                                           
#  12 ELLIPTICITY            1 - B_IMAGE/A_IMAGE                                       
         1 -12.1959    241.9492     88.6372   5.7399247384e+01   1.2926394610e+01     4.120242    0.4518967 -41.29  0.009267085    6.848    0.854
         2 -11.3379    189.7491     10.1842   4.3700561500e+01   3.6350699325e+01      2.39903     1.175781  85.03   0.01011092    2.268    0.559
         3 -11.8110    148.4479     42.7407   6.0504949015e+01   4.3007169065e+01     1.585702    0.8519367  88.17  0.004716819    4.563    0.781
         4 -11.4444    160.7344     49.3703   6.0153666717e+01   3.8921850395e+01     1.467636      0.81304 -63.47  0.005268161    2.919    0.657
         5 -11.4570    182.3329     75.9683   6.3952238997e+01   2.9113360852e+01     1.242532    0.7142599 -52.23  0.004991725    1.969    0.492
         6 -12.8155    228.5659     41.8730   4.7588799095e+01   2.2931375203e+01     1.986414      1.25588 -53.66  0.007985924    1.516    0.340
         7  -8.4307    108.5707     40.8353   6.9635285940e+01   5.2718932396e+01    0.2824009    0.1389575 -27.50  0.001154453    2.161    0.537
         8  -8.9983    157.9361     20.4511   5.1290630640e+01   4.3425885182e+01    0.2195481    0.1326154  67.21  0.000622094    1.567    0.362
         9  -9.1077    223.6999     16.4001   4.1753871140e+01   2.7268152938e+01    0.4254496    0.1670419 -50.87  0.001544011    2.516    0.603
        10  -9.5430    173.9076      3.2087   4.3573948114e+01   4.1064483990e+01    0.6878739    0.3042367  85.33  0.002446207    2.720    0.632
        11  -9.7227    135.0529     12.1692   5.2528601796e+01   5.0069565652e+01    0.3354569    0.1855482 -27.65  0.001577176    1.915    0.478
        12  -8.6750     62.9603     12.1323   7.2366099817e+01   6.5470643931e+01      0.17581    0.1597646  -2.22 0.0003872243    1.225    0.183
        13  -9.2507    120.2806      9.3290   5.4451001413e+01   5.3926768598e+01    0.3425681    0.2623191 -29.36  0.001039638    1.421    0.296
        14  -8.8355    216.5082      7.1391   4.0125570033e+01   3.0011487759e+01    0.5745479    0.2056826 -46.15  0.002228256    2.582    0.613
        15  -9.8980    213.4811      2.0000   3.9111598455e+01   3.1268928048e+01    0.7476339    0.1660506  71.15  0.002491059    3.855    0.741
        16  -8.5787    105.1697      3.0343   5.5307609290e+01   5.7997857450e+01    0.3814058    0.1615688 -28.92  0.001691493    2.452    0.592
        17  -8.0263     94.4936      4.8966   5.8795160071e+01   6.0178346193e+01    0.1859473    0.1235889 -15.47 0.0006690366    1.545    0.353
        18  -9.6957    225.3816      1.9803   3.8100977605e+01   2.8422904237e+01    0.2292688     0.183373 -81.61 0.0005849494    1.086    0.079
        19 -10.3025    124.0062    206.0012   1.0591165341e+02   1.5128223607e+01    0.1862044    0.1616857  54.42  0.001157439    1.011    0.010
        20  -8.4030    237.4794    175.1752   7.7693592006e+01  -7.6899413658e-02    0.2430208     0.178348  59.45  0.001288662    1.998    0.499
        21  -9.7242      2.4208    165.8193   1.2765421235e+02   3.9238330386e+01    0.2675194    0.1063746 -73.56  0.001227801    1.960    0.490
        22  -8.6088    205.9892    167.9206   8.2056988632e+01   6.8967277692e+00    0.2050493      0.18549  11.49 0.0003035812    1.011    0.011
        23  -8.5719     70.9741    165.0581   1.1207249666e+02   3.2143039056e+01    0.1898594    0.1638507  84.49  0.001162836    1.004    0.004
        24  -8.8393    228.0097    202.4885   8.4680356253e+01  -2.4460695211e+00    0.2687948    0.2289506 -87.14  0.001475593    2.185    0.542
        25  -7.5656    173.7142    155.3027   8.6044293570e+01   1.5739932187e+01    0.1432632    0.1194935  89.25 0.0002295985    1.559    0.359
        26  -7.7749    206.3354    154.6775   7.9152388080e+01   9.1427833736e+00    0.1409589    0.1180651 -82.90 -3.511574e-05    1.710    0.415
        27 -10.1855     67.5444    144.0314   1.0984547503e+02   3.7539939907e+01    0.5897679    0.3558718  60.62  0.001827199    1.852    0.460
        28  -8.1693    192.0049    143.9894   7.9633184495e+01   1.4077504768e+01      0.22469    0.1868098 -85.13 0.0005075863    1.625    0.385
        29 -12.8391    242.1406    116.2565   6.3941219927e+01   8.4248656648e+00     2.744404    0.8068835 -35.72  0.009303718    3.019    0.669
        30  -7.4863     81.6615    249.6716   1.1878334956e+02   1.3716726086e+01   0.09688725    0.0876371  12.91 0.0007051803    1.733    0.423
        31  -7.9407    223.1812    128.8616   7.0089496397e+01   1.0212243920e+01    0.1979875     0.160489  -0.36 0.0003465732    1.332    0.249
        32  -7.5726    154.5189    127.4454   8.4010116394e+01   2.5597154239e+01    0.1532021    0.1520375  62.69 0.0001545995    1.014    0.014
        33  -9.1263    201.5044    125.7420   7.3396036034e+01   1.5441505961e+01    0.2742019     0.257558  66.25 0.0007364918    1.179    0.152
        34  -7.5792    134.5512    123.4600   8.7949062330e+01   3.0759931234e+01    0.1559024    0.1470345 -87.40 0.0008052272    1.098    0.089
        35  -7.9873    205.8396    121.8335   7.1601182632e+01   1.5201400051e+01    0.2017912    0.1769695 -62.01 0.0004609755    1.287    0.223
        36  -7.9213    193.6824    119.3313   7.3366560010e+01   1.8399397650e+01    0.1561394    0.1221751 -74.36 0.0007047402    1.688    0.407
        37  -8.6345    151.5756    116.9049   8.2072224621e+01   2.8494918682e+01    0.2482959    0.2069506  34.65  0.001202352    1.250    0.200
        38  -7.6369    200.3219    115.6743   7.1134199701e+01   1.7575389887e+01    0.1551802    0.1206423 -72.71 0.0007047621    1.685    0.406
        39 -10.2138    207.4523    112.7799   6.9050160326e+01   1.6488204502e+01    0.5781612    0.3299744 -50.72  0.002374659    1.972    0.493
        40  -7.8047    174.3690    114.6876   7.6244031806e+01   2.3745475296e+01    0.1628178    0.1256606 -84.30  0.000703633    1.771    0.435
        41  -9.2924    167.9371    113.5384   7.7375449595e+01   2.5465865707e+01    0.3381289     0.275898 -86.04 0.0008724531    1.548    0.354
        42 -10.0875    117.7719    244.7157   1.1183617833e+02   9.3085455203e+00    0.1997689    0.1812355  62.52  0.000580241    1.180    0.152
        43  -7.5642    114.3961    112.5427   9.0581086658e+01   3.7315747147e+01    0.1515274    0.1430626 -39.63 9.065615e-05    1.063    0.059
        44  -8.3645    212.7796    110.1225   6.7407742113e+01   1.5762884355e+01    0.2685523     0.201998 -12.26  0.000423801    1.531    0.347
        45 -11.1886    188.0667    102.6052   7.0181222891e+01   2.2871969566e+01     1.355209    0.3167098 -36.39  0.003488814    4.417    0.774
        46  -7.9483    120.2414    230.2305   1.0976032876e+02   1.1342681084e+01    0.1662993    0.1195179  59.90 0.0006480209    1.271    0.214
        47 -11.7155    132.2578     38.3832   6.2597337337e+01   4.7621429568e+01     1.003302    0.4677304  62.33  0.003852105    2.374    0.579
        48 -11.4244    120.6382     35.3920   6.4337706866e+01   5.0794331673e+01    0.6368788    0.5691665 -35.75  0.003603386    1.195    0.163
        49  -8.2754    229.3967    220.4534   8.7617695936e+01  -5.0775429770e+00    0.1526219    0.1415098 -31.11 0.0004963668    1.487    0.328
        50 -10.3889    186.6326     89.6518   6.6960192701e+01   2.5616829598e+01    0.9527344    0.2866952 -39.90  0.002899387    3.132    0.681
        51  -8.6160    145.2926    220.5405   1.0361110341e+02   8.9104354036e+00    0.3001075    0.1893056  68.16  0.001386683    2.194    0.544
        52  -8.0718    144.9876    101.5124   7.9577478926e+01   3.3236487215e+01     0.240158    0.1556789  46.19  0.001008368    1.560    0.359
        53  -9.2157    197.1714     96.9767   6.6905458457e+01   2.1744335242e+01    0.3548752     0.290649  -2.70  0.001479623    1.436    0.304
        54 -13.1321     14.1836    192.1306   1.2698257055e+02   3.2649363844e+01     1.143578    0.8489363 -86.32  0.002713849    1.167    0.143
        55  -8.7533    152.5240     96.2933   7.6272497573e+01   3.2568115816e+01    0.3324245    0.2610864  19.60 0.0009616772    1.535    0.349
        56  -8.2617    137.5912     94.2524   7.9400690995e+01   3.6427466722e+01    0.2725211    0.1971168  65.38 0.0006551773    1.660    0.398
        57  -8.1423     96.6990     93.0087   9.0536580484e+01   4.5067595185e+01    0.1972013    0.1769373 -44.64 0.0002751912    1.049    0.047
        58  -7.5277    153.7712     90.6404   7.4357474268e+01   3.3403430794e+01     0.155896    0.1224261  -7.37 0.0002876757    1.575    0.365
        59  -8.4255    162.8314     89.1456   7.1833834798e+01   3.1518621802e+01     0.308282     0.228905  41.08 0.0008936244    1.396    0.284
        60  -9.1628    166.6604     86.8572   7.0324280933e+01   3.1022848085e+01    0.3280143    0.3000402  28.19  0.001016693    1.146    0.128
        61  -9.5541    146.7691     85.1555   7.4431027367e+01   3.6143255886e+01    0.3313275    0.2907608  -8.42 0.0007588586    1.249    0.200
        62 -10.4786    203.3037     60.9590   5.6054325285e+01   2.6325752240e+01    0.3411343     0.301064  35.46 0.0008699002    1.266    0.210
        63 -10.2296    210.2467     56.5999   5.3817091701e+01   2.5269418983e+01    0.4290012    0.2746225  41.28  0.001654028    1.858    0.462
        64  -9.3391    220.8762     79.0523   5.8129397660e+01   1.9202703293e+01    0.5139267    0.2863002 -52.56  0.002163971    1.962    0.490
        65 -10.6845    214.8945     74.1691   5.7787338494e+01   2.1407581958e+01     1.505619    0.6666574 -62.23  0.003764146    6.162    0.838
        66 -10.7633    211.8973     66.7605   5.6290247255e+01   2.3309114857e+01    0.9916717    0.5909598 -75.22  0.002908016    2.565    0.610
        67  -7.4531    207.2691     82.3349   6.1191854034e+01   2.1889325319e+01    0.1485457    0.1179682   7.60 0.0005270926    1.592    0.372
        68  -7.9574    202.4591     80.2755   6.1465230999e+01   2.3401069944e+01    0.2104653    0.1339467 -47.33  0.000661871    1.569    0.363
        69 -10.6877    163.8138     76.3496   6.7861626942e+01   3.3664701822e+01    0.3705436    0.2968553 -14.00 0.0006636371    1.427    0.299
        70 -10.2194    248.3239     73.9042   5.3010133096e+01   1.3834950363e+01    0.4841643    0.3075338 -47.97  0.001952166    1.453    0.312
        71  -7.5338    153.5835     74.4490   6.9573380957e+01   3.6530185990e+01    0.1528145    0.1507289 -50.09 0.0001278005    1.024    0.024
        72 -10.1697    112.0585     72.2438   7.9678096845e+01   4.6463874717e+01    0.2504235    0.2151409 -32.25 0.0002877065    1.129    0.114
        73  -9.9751    191.8414     68.9478   6.0193968373e+01   2.7917268326e+01    0.3085678    0.2879978 -74.01 0.0003972361    1.075    0.070
        74  -8.9207    137.0185     68.2536   7.1607328276e+01   4.1646831658e+01    0.2944266    0.2137419 -46.04 0.0006322414    1.425    0.298
        75 -11.2235    243.0616     34.2480   4.4175211794e+01   2.0581647203e+01    0.4978131    0.3005279  60.23 0.0009447712    1.758    0.431
        76 -11.8351    185.2001     57.5891   5.8098900171e+01   3.1411040425e+01     0.516153    0.3769814   5.92  0.001568741    1.888    0.470
        77  -9.0639    144.3406     59.3333   6.6928802966e+01   4.1443358116e+01    0.2766107    0.2512177 -60.38 0.0005965022    1.188    0.158
        78  -7.6977     72.6732     58.2243   8.7713281089e+01   5.6452034013e+01    0.1907635    0.1140636 -37.07 0.0004272396    1.548    0.354
        79  -8.4445    196.1096     56.3506   5.5915513837e+01   2.8833398805e+01    0.4079627    0.2320014  49.23  0.001340045    1.830    0.454
        80  -8.6045    191.3466     53.3226   5.5826194679e+01   3.0495877754e+01    0.4467672    0.2035668 -51.71  0.001607181    2.631    0.620
        81  -9.1027    136.2752     53.3454   6.6851519507e+01   4.4387615173e+01    0.3797693    0.1608259 -42.94  0.001367573    2.512    0.602
        82  -8.6557     69.1744     50.2562   8.6159688139e+01   5.8516833013e+01    0.4027466    0.1752254 -42.51   0.00112616    2.105    0.525
        83  -9.5723    210.4274     47.2773   5.1286327221e+01   2.6579103383e+01    0.3384548    0.2108687 -53.07 0.0008238737    1.626    0.385
        84  -8.1019    188.6148     45.8715   5.4116112203e+01   3.2279338393e+01    0.3528737    0.1038428 -39.16  0.001140748    3.120    0.679
        85  -8.0855    197.6499     44.5406   5.2352623206e+01   3.0165199825e+01    0.2976766    0.1324849 -49.28  0.001028025    2.447    0.591
        86 -13.0209     33.2901    179.1256   1.2215033872e+02   3.3530022008e+01     1.575537      1.17346 -20.26  0.009367456    2.440    0.590
        87  -9.4099    185.2888     39.2867   5.2715546966e+01   3.4044985184e+01    0.3247439    0.2652769  -7.08  0.001049458    1.453    0.312
        88 -10.5613    170.8790     59.4069   6.1282538182e+01   3.4776355388e+01      1.02833    0.4805048 -55.76  0.003346566    3.260    0.693
        89 -10.3772    143.2668     28.0346   5.6549359770e+01   4.6266761490e+01    0.4255359    0.1951612  56.76  0.001739104    1.970    0.492
        90 -10.5163    136.1494     24.7900   5.6862403123e+01   4.8428688871e+01    0.4472623    0.2521931  43.44  0.001356476    1.723    0.420
        91  -8.9225    247.7285     23.4211   4.1227564409e+01   2.0886077684e+01    0.3075773     0.155011 -54.05  0.001126244    1.828    0.453
        92  -9.3242    180.1002     23.7960   4.8901931425e+01   3.7333406707e+01    0.4629532     0.320696  74.77  0.002332134    1.396    0.283
        93  -7.2295    169.6471    202.3438   9.5909545195e+01   7.7755816595e+00    0.1364789    0.1028727  71.44 0.0007039986    1.816    0.449
        94  -7.9641    145.3162     22.6675   5.4287794126e+01   4.6387441856e+01    0.1462939     0.106639 -66.08 0.0005528657    1.687    0.407
        95  -9.1008    216.1756    197.3719   8.5909503040e+01   2.8972090792e-01     0.240835    0.2069283  43.22  0.000339073    1.324    0.244
        96 -10.3833    247.2961    195.2042   7.9918505154e+01  -4.5563354689e+00    0.2244153    0.2025191   9.01 0.0002711558    1.244    0.196
        97  -9.6194    148.7121     21.2230   5.3160034622e+01   4.5692543628e+01    0.3202294    0.1335418 -21.86  0.001216386    2.752    0.637
        98  -9.0984    217.0549    192.6700   8.4862035614e+01   8.4537912739e-01    0.2266596     0.182549 -23.86 0.0002736857    1.253    0.202
        99  -7.5105    227.2543    187.9989   8.2079915025e+01  -2.2437769851e-01    0.1599265    0.1066483 -29.94 0.0008639078    1.487    0.328
       100  -8.7058    217.5198    187.9887   8.3878254001e+01   1.4803209200e+00    0.2498479    0.1633369  24.11  0.000535538    1.517    0.341
       101  -9.9920    185.3160    183.9583   8.9413340829e+01   8.0767994068e+00    0.2378013    0.2307465  13.95 0.0003377288    1.107    0.096
       102  -8.1191    137.8630    184.2995   9.9598248364e+01   1.6955711503e+01    0.1869391    0.1612893  42.31 0.0002925856    1.091    0.083
       103  -8.6512    242.9736    183.1567   7.8330999939e+01  -2.1823077473e+00    0.3565205    0.1506732  46.56  0.001298338    2.665    0.625
       104  -8.8703     70.6367    180.5986   1.1414026989e+02   2.8686152338e+01    0.2024352    0.1726305 -78.32 0.0007489687    1.153    0.133
