#   1 NUMBER                 Running object number                                     
#   2 MAG_AUTO               Kron-like elliptical aperture magnitude                    [mag]
#   3 X_IMAGE                Object position along x                                    [pixel]
#   4 Y_IMAGE                Object position along y                                    [pixel]
#   5 X_WORLD                Barycenter position along world x axis                     [deg]
#   6 Y_WORLD                Barycenter position along world y axis                     [deg]
#   7 A_WORLD                Profile RMS along major axis (world units)                 [deg]
#   8 B_WORLD                Profile RMS along minor axis (world units)                 [deg]
#   9 THETA_WORLD            Position angle (CCW/world-x)                               [deg]
#  10 FWHM_WORLD             FWHM assuming a gaussian core                              [deg]
#  11 ELONGATION             A_IMAGE/B_IMAGE                                           
#  12 ELLIPTICITY            1 - B_IMAGE/A_IMAGE                                       
         1 -12.5232     43.5708     46.7282   1.0134294923e+02   6.2261750382e+01    0.8256963    0.6727848  59.42  0.003038532    1.620    0.383
         2 -12.0256     60.5319     45.4860   9.4309222964e+01   6.0362528432e+01     1.995191    0.4554888 -47.50  0.006450676    3.818    0.738
         3 -12.5194      6.9637     62.3487   1.1944446506e+02   6.1900533014e+01    0.7965975    0.4380398 -42.18  0.003750693    1.792    0.442
         4 -12.4672     74.8314     51.0838   9.1092453854e+01   5.7094819860e+01     1.297616    0.7466987 -52.17  0.006151087    1.775    0.437
         5 -12.0042    124.6859     27.7700   6.7187928079e+01   5.0743398519e+01    0.8157855    0.6321025  27.03  0.001913492    1.331    0.249
         6 -12.8061    120.1469     38.5906   7.2515555853e+01   5.0256723312e+01    0.8529605     0.601235 -63.05  0.002606112    1.959    0.490
         7 -11.7401    183.1036     25.3002   5.5326154700e+01   3.5922434692e+01     0.708926    0.3669731  52.52  0.002975683    1.861    0.463
         8 -11.3957    178.8018     21.0837   5.4589415507e+01   3.7549661550e+01    0.7377457    0.3275159  46.29  0.002644895    2.347    0.574
         9 -11.4762     26.3356     27.7793   1.0227775743e+02   6.7797061098e+01    0.4952565    0.2642422 -51.25  0.001918164    1.535    0.349
        10 -12.4507     18.9475     22.7852   1.0398165899e+02   6.9394095777e+01     1.055792    0.7194825  39.08  0.005837898    1.935    0.483
        11 -12.3897     16.8733     13.5187   1.0134193154e+02   7.1299300201e+01    0.5651755     0.434583 -52.78 0.0006738126    1.299    0.230
        12 -12.0108     22.5218     11.3488   9.7384112076e+01   7.1188339617e+01    0.7522822    0.3634626 -44.20  0.004178782    1.652    0.395
        13 -12.2743    104.8483     13.0663   6.6021421953e+01   5.7255360365e+01     0.602292    0.4133268 -27.93  0.003114266    1.451    0.311
        14 -12.6723    113.0354     24.8914   6.8937559928e+01   5.3884957845e+01    0.9122472    0.4829184  55.29  0.002574373    1.894    0.472
        15 -12.2662    106.0038     20.1323   6.8801986370e+01   5.6118757117e+01    0.3190771    0.2476371 -17.62 0.0003631644    1.263    0.209
        16 -12.2391    162.8659     28.6032   5.9656280053e+01   4.0899462011e+01    0.6903896    0.5178674  19.08 0.0008106601    1.530    0.347
        17 -11.4309    141.3961     19.8910   6.0500040387e+01   4.7556364854e+01     1.704619    0.4217941  44.35  0.004527453    4.770    0.790
        18 -12.0566    132.2432     14.8473   6.0388369339e+01   5.0461879260e+01     1.545979    0.6115132  64.46  0.005674426    2.597    0.615
        19 -11.1012    198.6540     28.6599   5.4210564946e+01   3.1425279335e+01    0.6756223     0.451234 -10.67   0.00269825    1.718    0.418
        20  -9.2385     87.4862      7.3985   6.8286038868e+01   6.1698765918e+01    0.5833375    0.3494776  46.71  0.002567351    1.601    0.375
        21 -11.1860     90.1379     21.0939   7.3853933173e+01   5.9394397213e+01    0.5874562    0.5266692  27.15  0.003528516    1.105    0.095
        22 -11.2932     85.7941     14.2033   7.2065109717e+01   6.1208930088e+01    0.5266799    0.3457409 -17.21  0.002013493    1.501    0.334
        23  -9.8895     32.2375     12.1804   9.2805946942e+01   7.0039278878e+01    0.2331462    0.2001652  65.44 0.0005557956    1.921    0.479
        24 -11.7348     36.2506     17.6429   9.3412807112e+01   6.8645921970e+01    0.6445029    0.2945593 -30.99  0.002185196    2.274    0.560
        25 -12.1068     48.5480     12.9530   8.5530601396e+01   6.7835461182e+01    0.6408655    0.3585232  35.73  0.003476374    1.933    0.483
        26 -11.9501     69.3209     18.7680   7.9912014450e+01   6.3664478021e+01    0.6466509     0.475529  39.51  0.002797441    1.435    0.303
        27  -9.7223    141.4780     12.2782   5.7585939307e+01   4.8377809516e+01    0.2370681    0.1916836  -2.87 0.0006849703    1.305    0.234
        28 -12.2295    239.0685     16.0075   4.6282981552e+01   2.2678767626e+01    0.8698454     0.481821  63.17  0.002701007    1.835    0.455
        29 -11.2260    165.1564     17.7006   5.5517132617e+01   4.1563909536e+01    0.4848782    0.3072229  34.44  0.001380345    1.758    0.431
        30 -11.8796    244.6892      6.5816   4.3429453693e+01   2.2313992014e+01    0.7737482    0.4311688 -48.68   0.00271488    1.640    0.390
        31 -10.2230    191.7944     16.8094   5.1476874456e+01   3.4562292935e+01    0.4372736    0.3315879 -72.55  0.002226417    1.416    0.294
        32 -10.5667    186.4915     15.1968   5.1647070596e+01   3.6139356454e+01     0.324059    0.2592193  37.20 0.0006552229    1.333    0.250
        33 -11.5895    192.7293      7.0126   4.8345743665e+01   3.5306052043e+01    0.8194875    0.4988386  14.95  0.003604404    2.234    0.552
        34  -9.9277    225.8632     15.1566   4.7265558679e+01   2.5974162498e+01    0.4209918    0.1762207 -29.50  0.001470829    2.174    0.540
        35  -9.7905     63.1766      6.3794   7.6089374506e+01   6.6471164547e+01     0.310613    0.2225386  -4.17  0.001442797    1.340    0.254
        36 -10.0837     61.7982     11.9842   7.9504505186e+01   6.5936912691e+01    0.4647749    0.1386142 -36.63  0.001526984    3.060    0.673
        37 -10.4969     66.5385     10.1589   7.6756149139e+01   6.5382259175e+01    0.5508074    0.2031344  46.95  0.002303213    2.837    0.647
        38 -11.3506    211.7633      9.7778   4.7148209529e+01   3.0077233134e+01    0.5375973    0.3475468  11.76  0.001601535    2.089    0.521
        39  -9.9187      1.2948      7.2654   1.0742928705e+02   7.3530506891e+01    0.1895211   0.07376207 -54.03 0.0002503479    1.897    0.473
        40 -10.4539      4.9298      9.0326   1.0604817601e+02   7.2987084342e+01    0.5500053    0.1795621 -51.58  0.002180499    2.159    0.537
        41 -11.3753      3.3382      1.7920   1.0383482770e+02   7.4398115788e+01    0.3792244    0.1919969   7.72  0.002251408    2.404    0.584
        42  -9.8839    168.9106      9.9653   5.2305979834e+01   4.1366276758e+01    0.3397651    0.1945577  47.78  0.001512921    1.712    0.416
        43  -8.9978    163.2225     10.0066   5.3145383424e+01   4.2880939395e+01    0.2287024     0.187424  33.28 0.0006891543    1.259    0.206
        44  -9.5009    162.6657      5.9980   5.1827743756e+01   4.3415403386e+01     0.241681     0.205908 -27.18 0.0004533479    1.229    0.186
        45  -9.7818    185.1313      7.2528   4.9301751841e+01   3.7297921689e+01    0.3223522    0.2029988 -46.41  0.001113573    1.633    0.388
        46 -11.2994    232.8141      7.4010   4.4581161633e+01   2.5058741123e+01    0.5548652    0.3384596  81.68  0.002582999    1.676    0.403
        47 -10.9995    218.7098      3.0973   4.4630385429e+01   2.8960843445e+01     0.326589    0.3201999 -19.79  0.001149158    1.123    0.110
        48 -10.1890    227.7652      3.0231   4.3844757765e+01   2.6715640419e+01    0.3649938    0.2181483 -17.76  0.001571387    1.805    0.446
        49 -10.3615    223.8821      1.8701   4.3856650405e+01   2.7783524381e+01     0.337776    0.2414827  72.49  0.001128158    1.371    0.271
        50 -10.0265    151.8312      7.5143   5.4014432900e+01   4.6147812228e+01    0.4834522    0.2250728  60.83  0.001310247    1.923    0.480
        51  -9.4006    203.0408      6.0000   4.6937202997e+01   3.2698536004e+01    0.3436748    0.1883698  48.76  0.001545718    1.917    0.478
        52 -11.2750    205.2905      2.2504   4.5620779297e+01   3.2466510287e+01    0.4595551     0.269207  85.88  0.001147591    1.760    0.432
        53 -10.9858     75.3326      4.3526   7.0644722050e+01   6.4494560526e+01    0.5538176    0.4662695  62.82  0.003370167    1.519    0.342
        54 -10.6408     41.3753      4.6282   8.4481631282e+01   7.0093894626e+01    0.4210935     0.217891 -16.94  0.001840836    2.381    0.580
        55 -10.2817    175.5989      5.1458   4.9795264848e+01   4.0039431788e+01    0.4621834    0.2601479  79.97  0.002023789    1.853    0.460
        56 -10.0747    142.4883      3.3084   5.3969764028e+01   4.8990359706e+01    0.3783486     0.265667  59.57   0.00160165    1.312    0.238
        57 -11.8384    133.5726      2.5670   5.5233605767e+01   5.1358465737e+01     0.436563    0.2656348  59.21 0.0007083446    1.502    0.334
        58  -9.3114     55.1394      4.0641   7.8067148373e+01   6.8119741674e+01    0.1839458    0.1413329  -2.22 0.0003601276    1.161    0.139
        59  -9.8852    159.5165      1.9648   5.0856730068e+01   4.4620384501e+01    0.5769673    0.1685951  54.68  0.001990719    2.818    0.645
        60 -10.4695     12.9794      2.1179   9.8215836577e+01   7.3627477931e+01    0.2478311    0.1806023  -7.91  0.001184111    1.346    0.257
        61 -10.9791    107.0059      1.7933   6.0406419125e+01   5.7957048549e+01     1.002318    0.3308452  66.75  0.003291959    3.841    0.740
        62  -9.8065    122.5506      1.3212   5.6819822322e+01   5.4248263589e+01    0.3907897    0.1183368  63.46  0.001341352    3.046    0.672
        63 -10.7731     82.1081      1.3315   6.6910864578e+01   6.3482950739e+01    0.2152533    0.1158733  52.45 0.0003691211    1.841    0.457
        64 -10.0113     47.9774    151.8734   1.1978058680e+02   3.8538836710e+01    0.2862594    0.2217982  57.58 0.0009745408    1.206    0.171
        65 -11.2026     47.6034    146.7566   1.1930748143e+02   3.9669632791e+01    0.4407793      0.42494  33.07   0.00323133    1.369    0.270
        66 -11.6928      3.7285    147.4044   1.2930458612e+02   4.3604690723e+01    0.5906895    0.3352251 -78.41  0.003294233    1.425    0.298
        67 -11.4697      3.8536    142.1813   1.2894166425e+02   4.4675454410e+01    0.3377844    0.2765096  27.37    0.0026239    1.620    0.383
        68 -11.9661      3.9921    136.9950   1.2855984302e+02   4.5749501977e+01    0.2280062     0.161845 -81.63  0.001652318    1.150    0.130
        69  -9.9279    214.6019    151.0924   8.3612762905e+01   9.7197398333e+00    0.2572505    0.2298028 -40.30  0.001090582    1.327    0.246
        70 -11.4501     62.8868    150.0014   1.1611765753e+02   3.7147561754e+01    0.4186136     0.373307  60.62    0.0019873    1.167    0.143
        71  -9.6255    239.8155    146.8286   7.8407106510e+01   5.4828812544e+00    0.2048562    0.1584365  11.67 0.0006518231    1.194    0.163
        72 -10.7766    249.4685    142.3971   7.5926408380e+01   4.2716965881e+00     0.513243    0.2502007 -25.57  0.002443028    1.972    0.493
        73 -10.6005     33.1095    144.2618   1.2243247409e+02   4.1732042791e+01    0.2559688    0.1879105  71.91 0.0007903778    1.182    0.154
        74 -10.3574    104.5245    142.1773   1.0506498796e+02   3.2672534138e+01    0.2312806    0.2065516  64.90 0.0002497553    1.043    0.041
        75 -10.1991    133.0395    140.4025   9.8057676684e+01   2.7904242157e+01    0.3192386    0.2702411  38.83  0.001061534    1.177    0.150
        76 -11.9772     29.7468    132.7523   1.2207291253e+02   4.4540367248e+01    0.6890794    0.3907818 -76.43  0.003412889    1.485    0.327
        77 -11.3355     24.1831    136.8396   1.2382501003e+02   4.4162467696e+01    0.3463262    0.2354086 -60.67 0.0003710643    1.491    0.329
        78 -11.2817     20.9814    134.3376   1.2435862114e+02   4.4981357408e+01    0.2350244    0.2110932  72.00 0.0003703249    1.214    0.176
        79  -8.7437    186.4893    139.5023   8.6418265416e+01   1.7219129526e+01    0.1423979    0.1312622  25.17 0.0008105976    1.000    0.000
        80 -10.5741     80.4858    136.1351   1.0990023076e+02   3.7740882334e+01    0.4245179    0.3261897   6.15   0.00167553    2.026    0.506
        81  -9.1891     43.9022    132.8466   1.1857584296e+02   4.3097292568e+01    0.2432102    0.1244012  59.65 0.0007403324    2.089    0.521
        82  -9.1749     40.9449    138.4440   1.1996036997e+02   4.2187908967e+01    0.1731508   0.07407092  55.64 0.0008072255    2.475    0.596
        83 -10.8596     71.9929    134.0746   1.1169621732e+02   3.9392542399e+01    0.5250394    0.4222586 -15.28  0.003018649    1.889    0.471
        84  -8.8675    216.6269    135.1884   7.9811437753e+01   1.1644298882e+01    0.1888341    0.1256182 -17.50 0.0005362652    1.603    0.376
        85 -10.7718     92.7057    129.4850   1.0569348391e+02   3.7321748652e+01     0.419157    0.2823621 -81.16  0.001542008    1.720    0.419
        86 -10.2849     47.4006    135.3723   1.1801745534e+02   4.2159620805e+01    0.4005762    0.1426445 -58.90  0.001616074    2.518    0.603
        87  -9.4114    107.7525    146.2000   1.0500156781e+02   3.1292592689e+01    0.2337246    0.1839516  45.11  0.001329212    1.233    0.189
        88  -9.7179     62.2888    131.7210   1.1379169312e+02   4.1191996813e+01     0.404607    0.1928063 -46.84  0.001812534    2.567    0.610
        89  -9.3995     78.5533    128.5157   1.0912990308e+02   3.9691638539e+01    0.3595233    0.1464989 -55.85  0.001534953    2.307    0.566
        90  -9.2877     81.6886    125.6909   1.0783060834e+02   3.9854990097e+01     0.256799    0.2028579  29.66  0.000670034    1.488    0.328
        91  -9.7097     84.4653    122.8318   1.0658884114e+02   4.0068719472e+01    0.4144421    0.2172817  26.93  0.001761222    2.692    0.629
        92 -10.3852     18.4482    124.9904   1.2409470840e+02   4.7222001078e+01    0.3606874    0.1429663 -66.86  0.001359081    2.030    0.507
        93 -10.7372     55.7672    123.2075   1.1421634098e+02   4.3891060241e+01    0.4305002    0.3382109  14.97  0.001251547    1.742    0.426
        94  -9.1496     50.1914    122.5917   1.1559783389e+02   4.4679529193e+01    0.2286653    0.1620185  17.09  0.001053157    1.970    0.492
        95 -10.2551     45.8465    120.2646   1.1641915701e+02   4.5683733611e+01    0.3135805    0.2128849  69.08  0.001201796    1.510    0.338
        96  -9.1882     41.6003    126.2438   1.1833475544e+02   4.4801167686e+01    0.1664449   0.09781199 -63.82  0.000467199    1.508    0.337
        97 -10.7385      4.4860    120.3509   1.2718136425e+02   4.9264475114e+01    0.7941465     0.147411 -59.15  0.003086939    4.178    0.761
        98 -11.3615      2.4323    112.1973   1.2701560490e+02   5.1166383770e+01    0.3413091    0.2315151  78.08  0.001140798    1.285    0.222
        99 -11.9404      3.8458    105.5532   1.2603160640e+02   5.2530624630e+01    0.3993222    0.2878378  87.94  0.001025212    1.142    0.124
       100 -11.5979    104.6838    121.7899   1.0114710018e+02   3.6985345879e+01    0.4490798     0.409246 -84.12   0.00145314    1.063    0.059
       101 -10.8599     33.3349    119.6717   1.1966419138e+02   4.7089112680e+01    0.2833549    0.2284621 -74.25 0.0006057253    1.099    0.090
       102  -9.2040    221.1928    120.4132   7.5622920817e+01   1.2887965536e+01    0.1889458    0.1368853  61.70 0.0006982544    1.669    0.401
       103  -9.4277    148.6342    119.6664   8.9968227515e+01   2.8844889690e+01    0.2303858    0.1803225   5.36  0.001104453    1.677    0.404
       104  -9.3152     72.6611    119.9539   1.0919189947e+02   4.2432234170e+01    0.1884049    0.1556017 -67.42 0.0006808047    1.121    0.108
       105  -9.2073     81.4809    117.3140   1.0634217394e+02   4.1745186093e+01    0.1784101     0.123412 -73.30 0.0009264138    1.471    0.320
       106  -9.5478    113.3364    116.1208   9.7717064914e+01   3.6640312682e+01    0.2297078    0.1986761  31.10  0.000535768    1.267    0.211
       107 -10.6252    107.6008    112.2510   9.8332970669e+01   3.8522952052e+01    0.5807325    0.3769872 -72.13  0.001905348    1.942    0.485
       108 -10.8740    101.7201    109.5501   9.9280843935e+01   4.0159039650e+01    0.4843707    0.3590875  27.39  0.002469893    1.614    0.380
       109 -10.3217    103.0563    106.0097   9.8109014396e+01   4.0691452479e+01    0.3548419    0.2148212  41.72 0.0003435689    1.703    0.413
       110 -10.3066     67.0568    112.0216   1.0929450472e+02   4.4980228243e+01    0.4726545    0.2708447 -69.63  0.002343419    1.712    0.416
       111  -9.7523     35.9405    114.0944   1.1823871649e+02   4.8088253013e+01    0.3463478    0.1781553  73.44   0.00164539    2.471    0.595
       112 -12.6804     53.1516     74.3590   1.0558060695e+02   5.5227903917e+01    0.6583045    0.4437962 -77.36  0.001155558    1.699    0.411
       113 -10.8501     46.9081     74.2756   1.0768671301e+02   5.5964165791e+01    0.3782045     0.179292 -60.91  0.001794617    1.843    0.457
       114 -10.3540     35.1037     92.1865   1.1514487062e+02   5.3125012310e+01     1.287199    0.6737638  84.25  0.005811361    2.734    0.634
       115 -12.2816     41.3069     85.9169   1.1204261429e+02   5.3940488111e+01    0.9988425    0.6624209  31.02  0.005816387    1.763    0.433
       116 -11.5678      9.7224     97.0095   1.2347279641e+02   5.4045252320e+01    0.7130144    0.4746669  68.81  0.004627382    1.527    0.345
       117 -11.9891      7.2443     88.6927   1.2321386318e+02   5.6051025142e+01    0.5006995    0.4100897  51.10  0.001835075    1.402    0.287
       118 -13.3697     25.0584    108.6956   1.2053162305e+02   5.0286612718e+01     1.932168    0.9954168 -63.96   0.01081787    1.602    0.376
       119 -11.5883     18.8482    106.1358   1.2194869405e+02   5.1360339525e+01    0.2167646    0.1776727 -79.26 0.0002642025    1.047    0.045
       120 -11.8637     22.0004     95.1963   1.1960974418e+02   5.3570185038e+01    0.5146531    0.3649556   5.20  0.002425001    1.994    0.499
       121 -12.2468     18.3401     90.2576   1.2002007800e+02   5.4958676488e+01    0.4066198    0.2636007 -52.94  0.000495033    1.443    0.307
       122  -9.0946     87.7402    114.4416   1.0409091813e+02   4.1418969590e+01    0.2594029    0.1248794  45.06  0.001128297    2.122    0.529
       123 -11.2145    170.5807    110.2581   8.2808454296e+01   2.5789545436e+01    0.4854085    0.4145859  29.21  0.001581014    1.191    0.161
       124  -9.3978     94.2038    112.0929   1.0185866703e+02   4.0889059209e+01    0.2345585    0.1579171 -84.82  0.001090909    1.954    0.488
       125  -9.6869     49.0076    112.0582   1.1433102183e+02   4.7185012685e+01    0.2255774    0.1769184  43.01  0.001121936    1.393    0.282
       126 -10.7126     85.6587    104.7304   1.0261471853e+02   4.3906536262e+01    0.6408961    0.4198851 -16.57  0.002327415    2.899    0.655
       127 -10.0407     90.0441    104.4994   1.0133536936e+02   4.3252155677e+01    0.3534136     0.284284  16.04  0.001815168    1.591    0.372
       128 -11.3406     79.6971    108.4171   1.0506823625e+02   4.4000987972e+01    0.5399351    0.4502262  60.94  0.002254763    1.236    0.191
       129  -9.2575     82.4038    102.5178   1.0304987544e+02   4.4908528311e+01    0.1953703    0.1874148  19.34 0.0005066714    1.195    0.163
       130 -10.0296    130.0192    109.2452   9.1899406786e+01   3.4817276719e+01    0.3165919    0.1917687 -46.05  0.001414836    1.663    0.399
       131  -9.9948    120.0159    109.2187   9.4411809315e+01   3.6826349992e+01    0.2564156    0.2080748 -48.70 0.0006714597    1.230    0.187
       132  -9.8805     58.1425    107.7881   1.1103800016e+02   4.7081505080e+01    0.3499578    0.1719334 -76.02 0.0008270702    2.370    0.578
       133  -9.9218     57.7415    102.4193   1.1017043977e+02   4.8349121374e+01    0.2927102    0.2904127 -47.68  0.001979581    1.189    0.159
       134 -11.4799     49.0434    101.9579   1.1263762797e+02   4.9472848649e+01      1.22674    0.3795708 -53.24  0.001701479    2.830    0.647
       135 -10.6990     56.9451     96.9607   1.0935453609e+02   4.9685783043e+01    0.7186566    0.3548798  67.13  0.002607023    4.055    0.753
       136 -10.3341     64.3453     99.2818   1.0761230595e+02   4.8221368972e+01    0.3185804    0.2315341 -17.79  0.000717715    2.035    0.508
       137 -10.7583     68.3531     95.8160   1.0569081241e+02   4.8465325044e+01     0.403894    0.3260444 -29.33   0.00154734    1.478    0.324
       138 -10.9716    157.9792    106.1693   8.4514897157e+01   2.9390253043e+01    0.5135776    0.3463095  19.55   0.00217324    2.075    0.518
       139 -10.9412    143.4297    106.2123   8.7884216640e+01   3.2598357328e+01     0.380402    0.2927739  49.33 0.0009674847    1.286    0.223
       140 -11.7083    146.0824    100.2864   8.5715326606e+01   3.3176823003e+01    0.5374737      0.46393  -7.96  0.001706516    1.318    0.241
       141  -9.4299     66.5712     74.5668   1.0113832030e+02   5.3443084809e+01     0.389587    0.2481162  70.30  0.001402264    2.551    0.608
       142  -9.7408     67.3207     88.1647   1.0428770011e+02   5.0326732558e+01    0.3086416    0.2134104 -30.83  0.001070552    1.790    0.441
       143  -9.8324     60.3416     83.4362   1.0538699521e+02   5.2313468966e+01    0.2246442     0.208666 -73.43 0.0007468943    1.068    0.064
       144 -10.8947     89.4145     90.1952   9.8096668014e+01   4.6505856918e+01    0.5070085    0.2905497 -46.03  0.002140806    1.679    0.404
       145  -9.6990     92.9748     85.6756   9.5866590167e+01   4.6878605674e+01    0.2570595    0.1957808  37.61 0.0003757934    1.411    0.291
       146 -10.7898     66.8602     81.8338   1.0291286290e+02   5.1801894330e+01    0.4689285    0.3452215  25.83  0.002593462    1.611    0.379
       147 -10.7474     79.9845     83.2875   9.9157188814e+01   4.9545885493e+01    0.6597143    0.4857769 -66.14   0.00320846    1.405    0.288
       148 -11.4188     73.2404     78.3304   9.9971942147e+01   5.1659480439e+01    0.5861026    0.4451344 -27.38  0.002794043    1.521    0.343
       149 -11.9188     77.9460     96.9423   1.0309463942e+02   4.6833333625e+01    0.3474733    0.2535208 -67.02  0.001868068    1.341    0.254
       150 -11.2367     82.1291     93.2019   1.0098903859e+02   4.7024672468e+01    0.7250862     0.332826  47.37  0.003029403    2.424    0.588
       151 -10.3274    120.6723    101.4947   9.2335682529e+01   3.8313313598e+01    0.3642807    0.2225129 -21.14  0.001382209    2.818    0.645
       152  -9.8786    210.6644     97.5282   7.1800046424e+01   1.8692141806e+01    0.3932829    0.2696847  24.61  0.001822981    1.704    0.413
       153 -10.6219    139.7041     93.9509   8.5537747288e+01   3.5827551205e+01    0.4879779    0.3788323 -84.35  0.001056002    1.716    0.417
       154  -9.4609    160.9810     93.9582   8.0594658963e+01   3.0975350057e+01    0.2946383    0.2096274  82.29  0.001250185    2.053    0.513
       155 -10.6298    153.0600     91.9920   8.1835062174e+01   3.3180831509e+01     0.597594     0.346802  51.51  0.002521839    1.730    0.422
       156 -10.1949    117.6039     93.2235   9.0981560998e+01   4.0650242821e+01     0.487816    0.2962218  38.32  0.001862041    1.768    0.434
       157 -10.9928    119.9977     85.2878   8.8143338340e+01   4.1790648490e+01    0.4302664    0.3086665  45.78  0.001590639    1.422    0.297
       158 -10.3859    121.9631     89.0323   8.8677657563e+01   4.0621866186e+01     0.416995    0.3061629  41.73  0.001933752    1.399    0.285
       159 -10.5135    126.1835     93.0574   8.8685686012e+01   3.8922126983e+01    0.3663772    0.3314875  49.33 0.0008648108    1.116    0.104
       160 -10.2762    122.4843     93.5108   8.9769948860e+01   3.9598362961e+01    0.2997694    0.2106762 -41.08 0.0006876832    1.424    0.298
       161 -12.1544    101.9753     90.1414   9.4455422827e+01   4.4309829420e+01    0.4374369    0.3884667 -20.56 0.0004769294    1.252    0.201
       162  -9.3233    211.7729     88.1902   6.9176198620e+01   1.9866719588e+01    0.2063158    0.1675217  10.86 0.0004436314    1.340    0.254
       163 -10.3223    183.6857     85.5956   7.3548063774e+01   2.7013140532e+01    0.7514212    0.2602733 -42.02  0.002437395    2.971    0.663
       164  -9.2301    102.6662     80.6826   9.1644528167e+01   4.6178792988e+01    0.2347969    0.1406295 -42.82 0.0007009511    1.617    0.382
       165 -10.2057    104.7401     76.6143   8.9854203103e+01   4.6623179325e+01    0.3736571    0.3373147 -43.64  0.001677878    1.062    0.058
       166 -11.2319    113.5975     84.0587   8.9528437793e+01   4.3348343946e+01    0.6821894    0.3598799 -38.24  0.002261241    1.976    0.494
       167 -10.9231    109.3337     80.5739   8.9710227884e+01   4.4912995154e+01    0.3932301    0.3392539  -7.07  0.001052811    1.334    0.251
       168 -10.4845    165.8530     83.5769   7.6612026176e+01   3.1685730434e+01    0.4119497    0.3486284 -63.25  0.001700622    1.341    0.254
       169 -11.3363    143.1113     83.8122   8.1842240665e+01   3.7015093076e+01    0.4129176    0.3362123 -58.51   0.00117355    1.352    0.260
       170 -10.5021    127.4545     82.9414   8.5500698126e+01   4.0679299929e+01    0.3786021    0.2755221 -42.59  0.001390742    1.355    0.262
       171 -10.2511    232.6582     77.3772   6.3103450808e+01   1.6596460034e+01    0.5175261    0.2296109 -38.60  0.002097563    2.116    0.527
       172 -11.8213     14.1185     74.7091   1.1900780914e+02   5.8733771522e+01    0.4725114    0.3215834 -66.42  0.002395216    1.153    0.133
       173  -9.2902      9.1501     76.3546   1.2093313530e+02   5.8680236544e+01     0.155917    0.1280704 -68.89 0.0002004711    1.064    0.060
       174 -10.4597     14.3752     66.9248   1.1757512539e+02   6.0445552007e+01    0.3032298    0.2158896 -62.11    0.0008062    1.108    0.098
       175 -10.4468     23.1244     37.0631   1.0689168866e+02   6.6222310260e+01     0.398999    0.2649202  54.23  0.001714363    2.224    0.550
       176 -11.9812     25.5763     46.1571   1.0851880277e+02   6.4132769516e+01     1.155514    0.5826294   0.50  0.003473337    3.356    0.702
       177 -10.2450    142.9740    249.3238   1.1167532541e+02   8.4449284016e+00     0.164401    0.1080273  44.17   0.00117176    1.107    0.097
       178 -10.9473     58.1219     61.8836   1.0049592726e+02   5.7323103816e+01    0.4593512    0.3824126 -76.66  0.002053963    1.361    0.265
       179 -12.4270     49.7811     60.3602   1.0307523028e+02   5.8683584115e+01    0.6010906     0.423064  58.54  0.001333615    1.894    0.472
       180 -10.9027     32.8446     58.8449   1.0899649091e+02   6.0782118170e+01    0.4342582    0.2372388 -25.77  0.001076442    2.565    0.610
       181 -11.6824     25.4976     55.7535   1.1105231366e+02   6.2087044477e+01    0.8184616     0.647929   2.04  0.005463976    1.547    0.354
       182 -11.4655     39.8670     55.8609   1.0552772541e+02   6.0742385053e+01    0.5269054    0.3665541  73.56  0.002848266    2.166    0.538
       183  -9.5204    175.0328    246.4891   1.0607648050e+02   4.0255944772e+00     0.179729   0.08127857  41.76  0.001030234    1.619    0.382
       184 -11.9027      1.9015     71.3017   1.2263729209e+02   6.0199915423e+01    0.6693785     0.131571 -70.30  0.002572692    3.477    0.712
       185  -9.2202    156.6631    246.3357   1.0909385767e+02   6.7922122651e+00    0.1093656   0.07070877  60.65 0.0007051774    1.748    0.428
       186 -11.5641     48.3711     30.6707   9.3562706957e+01   6.4828962085e+01    0.9274331    0.3865178  23.85   0.00368269    3.682    0.728
       187  -9.3992    170.5318     77.8349   7.3961140397e+01   3.1539363179e+01    0.2447319    0.2160058 -84.18 0.0007726226    1.305    0.234
       188  -9.9529    199.0789    244.6963   1.0193232520e+02   6.2393215484e-01    0.1665308    0.1070968  36.70  0.001142133    1.137    0.120
       189 -10.2956     93.4364     76.6580   9.3209757502e+01   4.8716527631e+01    0.6092945    0.3200969  32.97  0.002215438    2.300    0.565
       190 -11.6699     85.2876     73.3235   9.4748350476e+01   5.0830293639e+01    0.6834372    0.4698267  41.92  0.003388699    1.565    0.361
       191 -10.9022     79.0930     67.5474   9.5015184459e+01   5.3065170208e+01    0.4713069    0.4064556  83.41  0.002088322    1.412    0.292
       192  -9.6654     32.9214     77.6073   1.1316533050e+02   5.6619833274e+01    0.2276485    0.1928674 -51.69  0.001526239    1.136    0.120
       193 -11.3699     56.7426     31.3005   9.0365206301e+01   6.3576650441e+01     0.364109     0.310149 -12.60  0.001004765    1.108    0.098
       194 -10.1967    134.8383     77.3401   8.1948879379e+01   4.0128408761e+01    0.3866577    0.2099289  56.52  0.001121157    2.042    0.510
       195  -9.7525    126.9570     76.9535   8.3846338453e+01   4.1959030520e+01    0.2229957    0.2195805 -12.27 0.0003029348    1.008    0.008
       196 -12.0126    186.6250     70.6634   6.8724136480e+01   2.8709613204e+01    0.9079477    0.6557993 -32.33  0.003106658    1.365    0.268
       197  -9.7661    184.4766     61.5157   6.6403597425e+01   3.0666827048e+01    0.3520414    0.2671692 -21.90  0.001116683    1.360    0.265
       198  -9.4551    136.7474     86.0167   8.4035567165e+01   3.8033181460e+01     0.420057    0.1423294  44.38  0.001341072    3.051    0.672
       199  -9.7660    128.4315     64.2293   7.9442671293e+01   4.4022239884e+01    0.6086219    0.3970956 -27.67  0.002364242    1.642    0.391
       200 -10.2469    123.3270     72.9618   8.3574759159e+01   4.3522673761e+01    0.3685656    0.3144779 -82.11 0.0004189668    1.414    0.293
       201 -11.1324    123.7743     68.5885   8.2075004809e+01   4.4258011926e+01    0.4281304     0.349102 -68.93  0.001078632    1.475    0.322
       202 -10.6469    120.3103     68.6883   8.3034693289e+01   4.4995833459e+01    0.3132027     0.265523  73.63 0.0006511655    1.383    0.277
       203 -12.0084     40.7621     70.0947   1.0883702418e+02   5.7545472036e+01    0.5412624    0.2555981 -57.63  0.001085301    1.739    0.425
       204 -11.3370     32.2248     71.9438   1.1224480444e+02   5.7950544405e+01    0.4921596    0.2700675  26.70  0.002508687    2.187    0.543
       205  -9.4400    151.7119     73.4747   7.6732179508e+01   3.6888511521e+01    0.3780838    0.1246134  44.75  0.001150952    3.225    0.690
       206 -11.1263     60.7005     36.2583   9.0792035665e+01   6.2098546519e+01    0.3761283     0.219607 -41.53  0.001027456    1.517    0.341
       207  -9.8891    161.9825     70.6136   7.3591171378e+01   3.4876519573e+01    0.3469861    0.2701166  83.37  0.001199154    1.604    0.377
       208 -10.6982    171.7001     66.7790   7.0417113908e+01   3.3084793903e+01    0.6441582     0.343466 -42.78  0.002573621    1.926    0.481
       209 -11.2781    219.6493     66.5949   6.2135052575e+01   2.1152642497e+01    0.6904161    0.3545024  57.62  0.002551858    1.991    0.498
       210  -9.2410    208.0876     68.4790   6.4424728830e+01   2.3698334229e+01    0.2279522     0.144739  55.99  0.001029914    1.598    0.374
       211  -8.9016    114.9875     69.0000   8.4593452522e+01   4.6071834499e+01    0.2405057   0.08474731  47.48  0.000624188    2.920    0.658
       212  -8.6629    111.6142     67.2751   8.4986758771e+01   4.7109493298e+01    0.1483597     0.117527  89.03 0.0006998031    1.718    0.418
       213  -9.3340     53.6212     66.0903   1.0328074698e+02   5.6986357902e+01    0.2726092     0.184483  63.75  0.001406606    2.082    0.520
       214  -9.8062     21.3036     65.2591   1.1475171177e+02   6.0330290686e+01    0.3060513    0.1928398  73.63  0.001158534    2.110    0.526
       215  -8.7542     25.8343     65.1850   1.1308465333e+02   5.9995181939e+01     0.176019    0.1439323 -31.25 0.0003010847    1.335    0.251
       216  -9.6514    192.4807     65.7604   6.6246535592e+01   2.7993224540e+01    0.2873126    0.2301814 -69.64 0.0008761625    1.476    0.323
       217 -10.3434    106.2613     63.6639   8.5348173866e+01   4.8902667535e+01    0.3805571    0.2785083 -29.27  0.001726985    1.407    0.290
       218 -10.0638    101.6386     56.5441   8.4310019960e+01   5.1186843954e+01    0.5665483    0.3286268 -66.09  0.001784051    3.391    0.705
       219 -10.1672     98.2438     62.7762   8.7444599918e+01   5.0653773319e+01     0.448984    0.3107128  -4.92  0.001998364    2.143    0.533
       220  -9.7901     84.6255     62.2427   9.1552534324e+01   5.3236971815e+01    0.4289916    0.2805893 -30.13  0.002069913    1.667    0.400
       221 -10.9705     91.4776     62.8196   8.9551376618e+01   5.1908772109e+01    0.3928427    0.3735184 -17.22  0.001005277    1.045    0.043
       222 -10.8501     87.8056     57.1053   8.8818053811e+01   5.3701424433e+01     0.542313    0.2778674 -48.49  0.001756913    1.922    0.480
       223 -10.4874     91.5010     57.5241   8.7777981194e+01   5.2947560850e+01    0.3252372    0.3098022  64.82  0.001118822    1.187    0.157
       224  -9.4652    198.1290     62.8328   6.4437344218e+01   2.7005564946e+01    0.2420096      0.20081 -59.72 0.0007372257    1.319    0.242
       225 -10.7402    159.4225     61.7158   7.1359548076e+01   3.6997409181e+01    0.5699304    0.4071009  19.41  0.002519795    1.761    0.432
       226 -11.4784    156.0527     41.8886   6.5503404442e+01   4.0904417577e+01    0.4470446    0.3842031 -24.62 0.0009895943    1.176    0.150
       227 -10.8625    153.2696     36.1475   6.4070733765e+01   4.2426629119e+01    0.3305156    0.3043613 -69.20 0.0005975781    1.180    0.153
       228 -11.0345    157.6526     55.2855   6.9658954249e+01   3.8476592715e+01    0.5367251    0.3920273 -32.27  0.002028207    1.367    0.269
       229 -11.3326    155.1417     49.6277   6.8311968955e+01   3.9992623814e+01     0.466772    0.3043647 -16.94 0.0004714824    1.753    0.429
       230 -11.2392    127.9123    243.0288   1.1355695762e+02   1.1458320285e+01    0.3674929    0.1845291 -66.44  0.002145109    2.981    0.665
       231 -10.9322    123.4312     58.0395   7.8676227513e+01   4.6268727144e+01     1.109853    0.5708105  31.84  0.004030984    2.725    0.633
       232 -10.6507    117.5793     56.1399   7.9595345931e+01   4.7911712232e+01     0.778343    0.5141791  17.37  0.003298937    2.153    0.536
       233 -11.4272    113.0541     49.7153   7.8569920327e+01   5.0033996775e+01    0.6224086    0.5359934  18.52  0.003120058    1.211    0.174
       234 -12.7975    116.2443     41.8495   7.4783667697e+01   5.0638484875e+01     1.041623    0.7969849  84.84  0.004996739    1.836    0.455
       235  -8.6319    221.6822    239.6593   9.7634486926e+01  -2.2112349374e+00    0.1138583   0.06601361  18.25   0.00070491    1.711    0.416
       236  -9.4460    147.5037     60.6436   7.3632948268e+01   4.0132732956e+01     0.373809    0.1511218  59.03  0.001246127    2.792    0.642
       237 -10.5366    133.6537     49.6674   7.3174345663e+01   4.5312771281e+01    0.4330924    0.2817723 -56.61  0.001018052    1.958    0.489
       238 -11.1779    140.0857     43.7305   6.9559703378e+01   4.4676940206e+01    0.7473965    0.4786202  29.49   0.00139317    1.865    0.464
       239 -11.4287    146.0708     46.3517   6.9140288770e+01   4.2785353468e+01    0.8410381    0.4208673 -20.86  0.002874148    2.428    0.588
       240  -9.1682      2.1049     56.1119   1.2016943704e+02   6.3513683312e+01    0.1668461    0.1190486 -51.15 0.0004994961    1.226    0.185
       241  -9.6169    187.9549     55.0618   6.3846679760e+01   3.0733182110e+01    0.3018826    0.2090339  57.84  0.001303293    1.439    0.305
       242  -9.8620     66.9877     54.6608   9.5078520148e+01   5.7595824834e+01    0.2601633    0.1825527 -56.13 0.0008168337    1.432    0.302
       243 -10.3399    244.5942     50.8132   5.4705649252e+01   1.7368021921e+01     0.258265    0.2160011 -50.75 0.0008752538    1.173    0.147
       244 -11.0078    240.3292     50.3774   5.5087143633e+01   1.8403721564e+01    0.4497519    0.3432789  -2.22  0.001787951    1.482    0.325
       245  -9.9154    210.7968     52.8718   5.9614136101e+01   2.5223633543e+01    0.2933562    0.1932487  56.78  0.000828265    1.532    0.347
       246 -11.1984    201.6823     46.8833   5.9217186963e+01   2.8341409142e+01    0.8218878    0.4798045 -50.04  0.003520681    1.872    0.466
       247  -9.2021     54.9123     51.1567   9.8366253776e+01   5.9983393653e+01    0.1707416    0.1374591 -16.38 0.0006514807    1.342    0.255
       248 -10.8756    174.1853     48.1173   6.4108202200e+01   3.5304130445e+01    0.5976334    0.4402233  76.39  0.002315009    1.526    0.345
       249  -9.9712    176.2628     43.3698   6.2219750462e+01   3.5430209019e+01     0.439788     0.287987 -80.12  0.001817677    2.150    0.535
       250 -10.7585    136.5387     56.4331   7.4809546772e+01   4.3499129214e+01    0.6967129    0.4685815  11.21  0.002544049    2.144    0.533
       251  -9.8601     90.9502     47.9644   8.4562902684e+01   5.4854722291e+01    0.3204994     0.208114 -48.90  0.001342546    1.609    0.378
       252 -10.2009     13.6871     46.7209   1.1360680545e+02   6.4887241734e+01    0.4776688    0.1760569 -35.80  0.002060734    3.317    0.698
       253  -9.9572     17.8362     41.6913   1.1055771347e+02   6.5668454009e+01    0.3356251    0.1934119 -36.22  0.001961135    1.677    0.404
       254  -9.7535      2.2759     48.8671   1.1875493527e+02   6.5068969372e+01     0.207086    0.1778127 -60.22 0.0009914753    1.123    0.110
       255  -9.6671      2.9849     44.5149   1.1757202188e+02   6.5964197594e+01    0.2113696    0.1349369  -5.08 0.0004163074    2.009    0.502
       256  -9.2089    209.2304     47.1979   5.8217392250e+01   2.6376448088e+01    0.2011716    0.1675977 -70.90  0.000695047    1.305    0.233
       257  -9.7290    194.8958     46.6655   6.0181772315e+01   3.0119088572e+01    0.5287957    0.2718824  89.12  0.001690898    3.714    0.731
       258 -10.3163    234.0849     45.3886   5.4511206384e+01   2.0493349623e+01    0.3182561    0.2365937 -82.45 0.0009736231    1.565    0.361
       259 -10.4860    162.6001     44.1529   6.4980632555e+01   3.8886131430e+01    0.2973152     0.273337  40.39   0.00113241    1.075    0.070
       260 -10.3530    145.5285     52.0181   7.1206704729e+01   4.2035242295e+01    0.3790676    0.3285336 -14.35  0.001443009    1.189    0.159
       261  -9.4690    101.4857     44.5251   8.0001994271e+01   5.3384958136e+01    0.2418447    0.1966003 -73.78 0.0007112449    1.665    0.399
       262 -10.9835     95.1081     41.3377   8.0736535072e+01   5.5223491954e+01    0.6663447    0.3162103  48.98  0.002781446    2.243    0.554
       263 -10.8223    189.1279     41.5243   5.9515270379e+01   3.2308791711e+01    0.5357047     0.249263 -20.68 0.0009969088    2.439    0.590
       264  -9.5941     86.8814     29.2909   7.8478860471e+01   5.8820106254e+01    0.5800702    0.3030933 -12.73   0.00200099    3.216    0.689
       265 -10.8281     81.3868     39.9227   8.4676401073e+01   5.8062774336e+01    0.5607249    0.3466741  42.81   0.00278708    1.726    0.421
       266 -10.8942     77.5881     34.3219   8.3748028986e+01   5.9713734623e+01    0.3754524    0.2859065  39.08  0.000949039    1.396    0.284
       267 -10.1024     81.3387     30.8556   8.1001266066e+01   5.9617650604e+01    0.3801638    0.2310845 -48.20  0.001821396    1.869    0.465
       268 -10.3719    231.5765     39.3865   5.3202070500e+01   2.1831142247e+01    0.3299605     0.223084 -52.38  0.000737876    1.503    0.335
       269  -9.0968    217.8324     38.8292   5.4695474016e+01   2.5278330851e+01    0.2064561    0.1599998 -56.70 0.0006321252    1.326    0.246
       270 -11.3893    176.2225     36.2757   5.9938177481e+01   3.6392629434e+01    0.6840888    0.4785121 -72.40  0.002405917    1.791    0.442
       271 -10.6994    176.7813     29.9105   5.7775784213e+01   3.7050318217e+01    0.5477166    0.2607639  44.46  0.001310014    2.242    0.554
       272 -10.9181    148.9888    237.3705   1.0939086555e+02   9.0757871585e+00    0.3727072    0.1669065  42.97  0.001872628    1.673    0.402
       273 -10.5803    197.1924    231.8381   1.0054107011e+02   2.2985082020e+00    0.2412412    0.1292298  32.93   0.00141011    1.524    0.344
       274  -9.8423    206.8266     37.1553   5.5640574833e+01   2.8276807812e+01    0.2440291    0.2317189 -67.88  0.000665638    1.045    0.043
       275  -9.4739    133.4460     37.2436   6.8735491378e+01   4.7280206546e+01    0.4013472      0.25858 -69.16  0.001607319    2.493    0.599
       276 -10.8607    138.6093     33.0299   6.6006534293e+01   4.6594688754e+01    0.6220136    0.5153858 -41.90  0.002296123    1.266    0.210
       277 -10.1078      4.9502     35.7211   1.1467073181e+02   6.7714466746e+01    0.3051346    0.2692834  -5.95  0.001328931    1.364    0.267
       278  -9.1121      6.8483     30.7602   1.1246374230e+02   6.8633050447e+01    0.4270295    0.2434478   1.12  0.002505128    2.244    0.554
       279 -10.9808     31.2439     28.3186   1.0020081519e+02   6.7225834098e+01    0.3650548    0.2017655 -42.48  0.001186413    1.477    0.323
       280  -9.6784     15.1082    233.6898   1.3142266499e+02   2.6790883738e+01     0.166223    0.1123181  89.42  0.001207181    1.368    0.269
       281  -9.6319     23.4034    231.6674   1.3004099455e+02   2.6295912616e+01    0.1722381   0.07718869  50.57  0.000687039    1.580    0.367
       282  -9.7411    247.3891    231.2649   9.2396409423e+01  -5.1360945192e+00    0.1247614   0.09514176 -22.14 0.0005266286    1.597    0.374
       283 -10.3577    242.2796    230.8867   9.3129518916e+01  -4.3728054153e+00    0.2202013    0.1609609  53.96  0.001484789    2.100    0.524
       284 -10.6076    240.2108     32.6187   5.0480638764e+01   2.0573927873e+01    0.4865768    0.4071119  67.86  0.002834653    1.261    0.207
       285  -8.5212    190.2972    229.6758   1.0140329215e+02   3.6197896873e+00     0.104749   0.08110981  59.41  0.000526002    1.626    0.385
       286 -12.0133    105.7620     33.0317   7.4251118043e+01   5.4347387878e+01    0.5874883    0.3593574  12.80  0.001701097    2.433    0.589
       287  -9.1551      9.5697    227.5124   1.3205461754e+02   2.8304986962e+01   0.09622525   0.06525663  67.96 0.0001106697    1.029    0.028
       288  -9.8442    234.4408    222.7580   9.3130795880e+01  -2.4430921727e+00    0.1400535   0.09376993  -3.56 0.0003906464    1.536    0.349
       289  -9.7637    248.4480     33.0855   4.9779749208e+01   1.8607422836e+01    0.3151729    0.1915192 -41.17   0.00147713    1.477    0.323
       290  -9.2621      9.8359    217.8275   1.3164481311e+02   2.9875590426e+01    0.1418164   0.07753331  65.75 0.0006575458    1.301    0.231
       291 -11.1360    147.6455     31.6606   6.3602512699e+01   4.4481383711e+01    0.3144161    0.2760712 -32.94   0.00167042    1.164    0.141
       292 -10.7881    144.9963     24.9673   6.1687973665e+01   4.6020079996e+01    0.6759838    0.4015103  51.39  0.003024869    1.588    0.370
       293 -10.2433    165.5233    212.8017   1.0341776997e+02   9.7662300908e+00     0.257288    0.1728994  65.51  0.001480596    1.974    0.493
       294  -9.1725    204.6666    208.3254   9.5827427379e+01   3.8473380339e+00    0.1107343   0.09056267  63.54 0.0006917099    1.712    0.416
       295 -10.9968    154.4879     25.3290   6.0010908283e+01   4.3506895390e+01    0.7415379     0.411799  47.22  0.003172793    1.753    0.430
       296 -10.0308    156.9033     20.5961   5.7894656560e+01   4.3429714862e+01    0.5344799    0.2550559  60.87  0.002157224    1.952    0.488
       297 -10.4061     68.5810     32.6470   8.6324314079e+01   6.1528887957e+01    0.4038391     0.274388  37.90  0.002199182    1.586    0.369
       298  -9.6787    153.0103    207.8339   1.0502350972e+02   1.2550184882e+01    0.1907881    0.1426174  55.62  0.001100231    1.276    0.217
       299  -8.9949    216.6172     32.1769   5.2971959797e+01   2.6389634287e+01    0.1949627    0.1353196  -9.32 0.0004128045    1.649    0.394
       300 -10.7733    189.3490     28.8120   5.5536539392e+01   3.3853111689e+01    0.6213303     0.325592 -20.88  0.002562715    2.043    0.511
       301 -10.0308    182.4908     32.1514   5.7606671327e+01   3.5259965852e+01    0.2419407    0.1982161  35.97 0.0005299966    1.285    0.222
       302  -9.0667     21.6977     32.1860   1.0597225083e+02   6.7325532293e+01    0.1655713   0.08135348 -49.28  0.000225288    1.572    0.364
       303  -9.1708     35.9436     31.0360   9.9102205039e+01   6.6220138587e+01    0.1793609    0.1490082  89.29  0.001118269    1.782    0.439
       304  -9.4575    221.3586     29.7209   5.1731838064e+01   2.5488097472e+01    0.2234951    0.1625565 -42.60 0.0007131232    1.306    0.235
       305  -9.1984    210.8278     29.8292   5.3003709048e+01   2.8137656788e+01    0.2065228    0.1604751 -59.88  0.000559208    1.327    0.246
       306 -11.4908     98.5107     27.1923   7.3950087729e+01   5.6778881723e+01    0.3720359    0.2684172 -40.30  0.000503288    1.445    0.308
       307  -9.8747    230.6186     27.6544   5.0160195636e+01   2.3441572463e+01    0.3651956    0.1638152 -24.26  0.001509116    2.196    0.545
       308 -10.0473    250.5426     26.1901   4.7850098766e+01   1.8905918748e+01    0.3364242    0.1184363 -26.49 0.0007622681    2.579    0.612
       309  -8.8490     41.6235     27.1475   9.5048611679e+01   6.6313593676e+01    0.1595928    0.0971465 -36.58 0.0003399602    1.411    0.291
       310  -9.7075    205.5947     17.1751   4.9941739863e+01   3.0905393140e+01    0.3447596    0.2253028 -89.25  0.001635301    1.679    0.404
       311 -10.5390    214.2943     23.7650   5.0859415389e+01   2.7948950403e+01    0.4334674    0.3292905  -9.98    0.0019989    1.461    0.315
       312 -10.4115    211.3385     18.7666   4.9761837000e+01   2.9253548843e+01    0.3141543    0.2274142  55.75 0.0002538728    1.399    0.285
       313  -9.3844    169.5787     23.8628   5.6916348943e+01   3.9689782170e+01    0.2678697    0.1913875  52.84  0.001039866    1.345    0.256
       314  -9.0260     61.1534    207.1803   1.2213005055e+02   2.6213922502e+01    0.1572696   0.09708433  63.04 0.0004746075    1.316    0.240
       315  -9.9645     81.3642     19.2268   7.5856487278e+01   6.1395548725e+01     0.368113    0.2042975  40.88 0.0007897618    1.815    0.449
       316 -11.0730      4.7744    203.1731   1.3190348487e+02   3.2848534368e+01    0.7437626   0.07557668 -72.25    0.0028954    5.992    0.833
       317 -12.1933      4.5979    184.5822   1.3113211579e+02   3.6232286994e+01    0.6322096    0.3469111  75.33  0.003944305    1.397    0.284
       318  -9.6058     16.6542    204.6939   1.2993030143e+02   3.1496462897e+01   0.08499382   0.07464431 -62.20 0.0007042451    1.695    0.410
       319 -10.3563     47.0578     19.1211   8.9144561370e+01   6.7041307343e+01    0.3074969    0.2356851 -29.91  0.001290749    1.104    0.094
       320 -10.0531     38.7528     21.6620   9.4029752313e+01   6.7646513582e+01    0.2894136    0.1875718 -34.44  0.001196563    1.304    0.233
       321 -10.6057    245.5937    200.9202   8.7804399536e+01  -1.9132085823e+00    0.2070809    0.1287813  27.77 0.0006219841    1.309    0.236
       322  -8.6570    207.3408    201.3094   9.4241217038e+01   4.2623732752e+00    0.1275185   0.08062936  18.01 0.0007044412    1.691    0.409
       323  -9.4799    223.2408     22.2983   4.9476453732e+01   2.5858709002e+01    0.2397112    0.1628072  67.56 0.0007101609    1.481    0.325
       324  -8.6475      1.3141    200.2985   1.3237994230e+02   3.3654383643e+01   0.08320391    0.0691333 -70.71 0.0004214081    1.607    0.378
       325 -10.1507    233.8070    196.9942   8.9036774326e+01   3.8655187323e-01    0.2950068    0.1947851  -8.90  0.001415092    1.575    0.365
       326 -10.0554    169.7484    191.4152   9.9464927198e+01   1.2138751665e+01    0.3339443    0.1612993  33.81  0.001101381    2.092    0.522
       327  -9.7547    239.8476    184.6958   8.5863286207e+01   7.9671597920e-01    0.2019789    0.1459622  -1.11 0.0006058512    1.301    0.231
       328 -10.0159    213.1990    180.8004   8.9672593039e+01   5.8712529038e+00    0.2209169    0.1302752  13.99  0.001067407    2.183    0.542
       329  -9.4699    249.8789    179.6971   8.3325158732e+01  -2.8672828604e-01    0.2360361    0.1258994 -12.00  0.001217068    2.096    0.523
       330  -9.8093    100.9820    176.0036   1.1101871234e+02   2.6452583903e+01    0.1764376    0.1498739  63.71            0    1.005    0.005
       331  -9.9479     51.9660    173.6126   1.2107467176e+02   3.3615093154e+01    0.3422824    0.1512356 -88.62  0.001616067    2.719    0.632
       332  -9.2025     28.1409    175.9044   1.2612229704e+02   3.5738487318e+01    0.1789464    0.1155297  69.90  0.001227502    1.246    0.198
       333  -9.3078    115.5002     17.4808   6.5226368674e+01   5.4257920318e+01    0.2681365     0.109333  47.07   0.00103147    2.298    0.565
       334  -8.9967    230.4516    175.4971   8.5713046525e+01   3.5015145795e+00    0.1275712    0.1048867  16.29 5.307733e-05    1.005    0.005
       335  -9.1661     57.2649    175.0058   1.2010290250e+02   3.2705630391e+01    0.1593381     0.128107  79.00 0.0004177057    1.042    0.040
       336 -10.1630    238.7410    204.0624   8.9435471995e+01  -1.1752443884e+00     0.207576    0.1346196 -15.13  0.001315159    1.590    0.371
       337  -9.7827    219.3866     12.8607   4.7261491419e+01   2.7829088546e+01    0.3770937    0.1700365  61.76  0.001608566    2.122    0.529
       338  -9.7191    247.3014    174.0310   8.2666325898e+01   7.8896202885e-01    0.3767128    0.1266928  31.27  0.001353464    3.902    0.744
       339  -9.8238     39.5114    173.5027   1.2364026236e+02   3.5037187311e+01    0.1933311    0.1485792 -86.94 0.0007280134    1.164    0.141
       340 -10.2900     35.9599    170.1719   1.2410274318e+02   3.6076837811e+01     0.317964    0.1591385  88.21  0.001724156    1.919    0.479
       341  -8.5489    170.6446    172.2635   9.6067614954e+01   1.4963034738e+01    0.1306607   0.09896211  66.60 0.0003478196    1.624    0.384
       342 -11.7571      9.8955    166.4759   1.2917088726e+02   3.9265913960e+01    0.5011186    0.3157369 -79.38  0.002765285    1.363    0.266
       343 -10.8106     13.9457    158.0184   1.2780751137e+02   4.0618354239e+01    0.3806597    0.1692906 -81.15  0.002189309    1.872    0.466
       344  -8.7531    228.3200    168.6788   8.4766814943e+01   4.7437135667e+00    0.1140133    0.1049255 -85.78  0.000704417    1.670    0.401
       345  -8.7608    116.6435     10.2002   6.1866938888e+01   5.4817118870e+01    0.1307034    0.1065359 -88.07  0.000218129    1.541    0.351
       346  -8.8052    201.7686    168.5866   8.9449644787e+01   9.6528462750e+00    0.1749695    0.1173501  49.74 0.0006090907    1.509    0.337
       347  -9.0289    197.8387    167.8803   9.0041432190e+01   1.0498020137e+01    0.1644796    0.1590321  75.13 0.0007149797    1.303    0.232
       348  -9.8843     40.5683    165.6219   1.2275228699e+02   3.6505133086e+01    0.2904712    0.1313234 -72.65  0.001578376    1.993    0.498
       349 -10.4355     27.5411    163.4922   1.2533575278e+02   3.8269808221e+01    0.4290379    0.1758771  74.21   0.00204706    2.763    0.638
       350 -10.0566     18.8287    165.2317   1.2727559139e+02   3.8734776282e+01    0.2379493    0.2027056  44.97   0.00186996    1.404    0.288
       351  -9.9471    188.8624    164.1708   9.1023282720e+01   1.2774044726e+01    0.2657492    0.1918846 -24.14 0.0009259828    1.549    0.354
       352  -9.7891    204.9606    163.0127   8.7781652724e+01   9.8555977948e+00    0.2077631    0.1760902  24.38 0.0006273344    1.035    0.033
       353 -10.1246    246.4949    158.9968   7.9843634058e+01   2.7275619121e+00    0.1921948     0.115248 -24.58  0.001040209    1.612    0.380
       354  -9.6361    215.6433    158.3169   8.4914281752e+01   8.4883681843e+00    0.2669546    0.1541225  -7.97  0.001179271    2.454    0.592
       355 -10.4665    104.8663    154.4712   1.0703839765e+02   3.0079866544e+01    0.4113221    0.2917016 -74.99  0.002264427    1.526    0.345
       356 -10.0732      8.7955    155.9812   1.2876016056e+02   4.1458991803e+01    0.2322022    0.1141982 -68.20  0.001423263    1.830    0.454
       357  -8.8064    223.6854    156.6859   8.3171333180e+01   7.1897147788e+00    0.1385353   0.09228519  13.75 0.0007034428    1.641    0.391
       358 -10.9553     31.4251    153.0070   1.2362916545e+02   4.0049623158e+01    0.4320903    0.2489797  89.68  0.002612102    1.534    0.348
       359 -10.8366     10.8220    127.1402   1.2618298454e+02   4.7348923133e+01    0.5002961    0.2097753 -67.56  0.002409607    1.929    0.482
       360 -12.1609     22.5448    149.5257   1.2531301874e+02   4.1615699938e+01    0.5421313    0.3466222 -46.95  0.002181252    2.112    0.526
       361 -10.5337     15.2952    147.8161   1.2679310252e+02   4.2603803689e+01    0.3196784    0.1817772  53.63  0.001258304    1.602    0.376
       362 -11.7468     12.5704    139.6005   1.2678256886e+02   4.4551487482e+01    0.7516112    0.3655164 -88.64  0.004318466    1.759    0.432
       363 -10.2006     72.2085    152.2240   1.1423480993e+02   3.5452629703e+01    0.4357507    0.2125822  52.59  0.002138983    2.004    0.501
