#   1 NUMBER                 Running object number                                     
#   2 MAG_AUTO               Kron-like elliptical aperture magnitude                    [mag]
#   3 X_IMAGE                Object position along x                                    [pixel]
#   4 Y_IMAGE                Object position along y                                    [pixel]
#   5 X_WORLD                Barycenter position along world x axis                     [deg]
#   6 Y_WORLD                Barycenter position along world y axis                     [deg]
#   7 A_WORLD                Profile RMS along major axis (world units)                 [deg]
#   8 B_WORLD                Profile RMS along minor axis (world units)                 [deg]
#   9 THETA_WORLD            Position angle (CCW/world-x)                               [deg]
#  10 FWHM_WORLD             FWHM assuming a gaussian core                              [deg]
#  11 ELONGATION             A_IMAGE/B_IMAGE                                           
#  12 ELLIPTICITY            1 - B_IMAGE/A_IMAGE                                       
         1  -8.5746     96.9847     14.7968   5.3954955896e+01   5.7791153627e+01    0.2241027    0.1640953 -41.73 0.0006794746    1.617    0.381
         2  -7.9118     83.4067     11.2110   5.6001498347e+01   6.1297128187e+01    0.1696112    0.1219531 -34.78 0.0005110893    1.632    0.387
         3  -8.6752     55.8062     10.2399   6.4971771541e+01   6.7311332034e+01    0.2063488    0.1902553  65.39 0.0007091328    1.458    0.314
         4  -7.9673     47.5393     10.0494   6.8475373829e+01   6.8910328932e+01    0.1796222    0.1192058 -23.59  0.001020171    1.576    0.366
         5  -8.2942     90.9502      9.0265   5.3047934638e+01   5.9742923390e+01    0.1986647     0.154933 -69.82 0.0006826717    1.692    0.409
         6  -8.0257    101.5743      7.8247   5.0095906654e+01   5.7313353592e+01    0.1603709    0.1238989 -37.40 0.0004363562    1.508    0.337
         7  -8.5689     33.5003      5.0648   7.2708093977e+01   7.1926073265e+01    0.2857455    0.1850862 -48.00  0.001287599    2.634    0.620
         8  -8.5418     79.0627      4.1906   5.4039964069e+01   6.2898797996e+01    0.2660317    0.1525749 -40.92 0.0009694377    2.222    0.550
         9  -7.5831    194.3279      4.2669   3.6961768649e+01   3.5381605788e+01    0.1129876   0.08358945  52.49  0.000194631    1.574    0.365
        10  -7.7666     44.6967      3.3212   6.6003218458e+01   7.0157080891e+01    0.1073865    0.1022592 -78.25 0.0004817455    1.632    0.387
        11  -7.9483    115.2275      2.4152   4.5442981633e+01   5.4412287965e+01    0.1842413    0.1129331  81.48 0.0008639925    1.642    0.391
        12  -8.4542     62.3361      1.5176   5.7924994009e+01   6.6799336879e+01    0.2191897    0.1151378  59.66 0.0005794519    1.865    0.464
        13  -7.5619     39.4202      1.4724   6.7440550554e+01   7.1306241419e+01    0.1257928    0.0994212  19.84 8.661268e-05    1.019    0.019
        14  -8.5578     67.4633    244.7963   1.1682108870e+02   1.4586354166e+01    0.1990667    0.1201741 -79.92   0.00112136    2.035    0.509
        15  -9.0153    247.8268    234.4929   7.8206324327e+01  -6.6758467235e+00    0.2473687    0.1417211 -22.02  0.000987567    1.404    0.288
        16  -9.5728    246.6407    228.8720   7.7483542251e+01  -5.8476154428e+00    0.4179684    0.1598281 -30.92  0.001939643    2.246    0.555
        17  -8.6077    249.1989    249.6005   8.0377068371e+01  -8.6208302299e+00    0.2151569    0.1314404  -1.66   0.00149666    1.221    0.181
        18  -9.8644    248.5727    242.1785   7.9316249836e+01  -7.6859140546e+00    0.4323016    0.1808214 -35.96  0.001804592    2.335    0.572
        19  -9.5084    243.1094    246.3294   8.0888993967e+01  -7.6229101099e+00    0.4029354    0.1476416 -28.19  0.002090886    2.468    0.595
        20  -8.8765    232.7024    247.8284   8.2917028576e+01  -6.7134780031e+00    0.2455627    0.1875146 -38.96  0.001700958    2.012    0.503
        21  -8.4191    191.6290    249.9513   9.0870312059e+01  -2.2696138534e+00    0.1976152    0.1454203  35.05  0.001061519    1.613    0.380
        22  -8.3060    183.9984    250.4686   9.2451954074e+01  -1.4003645724e+00    0.1874194   0.09661901  26.44  0.001023108    1.583    0.368
        23  -8.4596     93.8719    249.6926   1.1149275794e+02   1.0445577247e+01    0.2224817     0.137787  61.73  0.001205074    2.035    0.509
        24  -8.2093     50.3605    244.5741   1.2050923329e+02   1.6581995363e+01    0.2139889   0.09636934  84.94 0.0009473919    3.307    0.698
        25  -8.9453    201.9654    243.3273   8.7862256071e+01  -2.6189661995e+00    0.2234206    0.1531209 -38.26 0.0008603699    1.759    0.432
        26  -8.8489    168.9700    243.4621   9.4484642644e+01   1.5485434494e+00     0.183201    0.1769131  -7.14 0.0005568445    1.454    0.312
        27  -9.4527     77.8904    243.2700   1.1439057042e+02   1.3616111837e+01    0.3014686    0.1660455  65.83     0.001483    2.441    0.590
        28  -7.9299     58.3283    244.6560   1.1879804620e+02   1.5673571238e+01    0.1313708    0.0724187  55.53 0.0007050788    1.747    0.428
        29  -8.6202     34.4924    244.0207   1.2383677811e+02   1.8370229333e+01    0.1591411    0.1075651 -85.57  0.001023665    1.565    0.361
        30  -8.1144    214.0991    242.2182   8.5396419904e+01  -3.9163609027e+00    0.2460546    0.1408001 -41.79  0.001420557    2.196    0.545
        31  -9.1046    197.4606    243.1305   8.8702472631e+01  -2.0408518724e+00    0.2716475    0.1424273  24.10 0.0004930906    1.599    0.375
        32  -9.1303    194.0924    239.8345   8.8851898975e+01  -1.1564640935e+00    0.2017502    0.1795795  -0.85 0.0004520841    1.363    0.266
        33  -9.6217    160.3562    240.7685   9.5900875513e+01   3.1121345182e+00    0.3518322    0.2701039  86.79  0.001719362    2.972    0.664
        34  -8.7571     88.3019    242.4134   1.1199086788e+02   1.2474600930e+01     0.200546    0.1563168 -77.50 0.0006984552    1.578    0.366
        35  -9.1873    183.0458    240.3176   9.1130755016e+01   1.8306146083e-01    0.3329011    0.2162861  49.73  0.001581661    2.586    0.613
        36  -7.9880    153.4275    242.2560   9.7587989977e+01   3.8084478968e+00    0.1464468     0.126302 -57.75  0.000835739    1.658    0.397
        37  -9.2749    241.3865    238.6548   7.9964419173e+01  -6.5101806344e+00    0.4420345    0.1648932 -21.49  0.001987798    3.138    0.681
        38  -8.5899    146.3773    239.9294   9.8783318739e+01   5.1436181405e+00    0.2532031    0.1993813  62.73  0.001158333    1.948    0.487
        39  -9.3132    231.1768    237.2537   8.1510434875e+01  -5.2213101077e+00    0.2545877    0.2477206 -80.85  0.001557265    2.326    0.570
        40  -9.1699    135.4398    239.0299   1.0105759980e+02   6.7928139610e+00    0.2046666     0.155234  39.32 0.0007164702    1.310    0.237
        41  -8.1175    209.0451    238.3398   8.5730953775e+01  -2.7922765277e+00     0.166377    0.1259801   5.65  0.000504287    1.069    0.065
        42  -8.4420    170.7245    236.7534   9.3124103675e+01   2.3485976935e+00    0.2420901    0.1775818 -72.48  0.001234081    3.050    0.672
        43  -8.1836    128.8575    238.5921   1.0246001091e+02   7.7715504301e+00    0.1883181   0.09872248  38.68 0.0006611044    1.690    0.408
        44  -9.9263    215.0310    233.4359   8.3819797277e+01  -2.8414145284e+00    0.4402696    0.3685265 -82.79  0.002375128    3.676    0.728
        45  -8.0164     58.2236    237.2053   1.1823280745e+02   1.7124053173e+01    0.2082924   0.06241658  37.77 0.0008751782    2.470    0.595
        46  -8.5604     25.6362    236.8142   1.2528800628e+02   2.0654529736e+01    0.2609006    0.1022811  68.82  0.001159261    3.026    0.670
        47  -8.8171    203.2773    234.8915   8.6282093663e+01  -1.6037883871e+00    0.2474015    0.2025751 -57.14  0.001257654    2.281    0.562
        48  -9.8218    175.7634    233.6070   9.1592531383e+01   2.1613328350e+00    0.4367522    0.2284941 -51.23  0.002114421    2.755    0.637
        49  -8.3485    122.9955    234.2919   1.0321625689e+02   9.3414682499e+00    0.2180779    0.1714801  62.23 0.0008337697    1.657    0.397
        50  -9.3947    108.7506    234.3531   1.0646803537e+02   1.1284923181e+01    0.3982546    0.2479086  53.28  0.001452168    1.859    0.462
        51  -8.3222     99.8115    234.6729   1.0855235694e+02   1.2427391805e+01    0.2333647    0.1546362  68.07  0.001049609    2.089    0.521
        52  -9.1252     78.6464    234.5182   1.1338316490e+02   1.5196797930e+01    0.3032154    0.1907821  65.78 0.0009805403    1.915    0.478
        53  -9.4585      8.2358    235.0474   1.2882096183e+02   2.2597763325e+01    0.1599386    0.1259981  68.00   0.00115814    1.079    0.074
        54  -9.8138     68.2482    231.8423   1.1550605448e+02   1.7005055668e+01    0.5343047    0.2906537  76.31  0.002506316    2.658    0.624
        55  -8.6948    194.7576    233.0205   8.7646593119e+01  -2.5411803739e-01    0.1734091    0.1513879   7.95  0.000680881    1.303    0.232
        56  -8.3818    144.8161    233.2126   9.8179269430e+01   6.4889196914e+00    0.2566763    0.1582881  50.62  0.001278866    2.168    0.539
        57  -8.4703    140.2259    230.3190   9.8786927213e+01   7.6357879006e+00    0.3167439    0.1617282  43.91 0.0009905652    2.104    0.525
        58  -8.4644    132.5428    232.3229   1.0079484044e+02   8.3634474094e+00    0.2120436    0.1345034 -58.14   0.00075266    2.067    0.516
        59  -9.0207    236.1311    230.7179   7.9578057347e+01  -4.9309642344e+00    0.2868461    0.1517832 -33.91  0.001314723    1.798    0.444
        60  -9.2321    186.3896    230.6862   8.8950260921e+01   1.1898170503e+00    0.2890973    0.2433872 -73.12  0.001343241    2.369    0.578
        61  -8.6004    157.7680    232.1927   9.5195323212e+01   4.8535703635e+00    0.1937543    0.1330602  60.42  0.000939893    2.712    0.631
        62  -8.6924     92.5704    231.7981   1.0989486232e+02   1.3936676689e+01     0.254039    0.1675138  58.00 0.0009846713    1.719    0.418
        63  -9.4008    151.3197    228.9933   9.6125988224e+01   6.2965446383e+00    0.3173499    0.2392792  77.40  0.001077196    2.659    0.624
        64  -9.4732    148.7521    224.7417   9.6056221255e+01   7.3998119477e+00    0.3764823    0.2771883  67.81  0.001506163    2.432    0.589
        65  -9.1938      1.8136    230.9325   1.2996746530e+02   2.3955988817e+01     0.214124    0.1151376  65.98   0.00082204    1.594    0.373
        66  -8.2178    229.7841    228.9677   8.0402908579e+01  -3.9788091732e+00    0.1595763    0.1341081 -44.34  0.001043826    2.012    0.503
        67  -8.5513    162.0904    227.7880   9.3589705927e+01   4.9807941518e+00    0.2402843    0.2000648  65.51  0.001151067    1.964    0.491
        68  -8.8629    127.9425    227.4397   1.0116716252e+02   9.8947977998e+00    0.2817236    0.1916319  50.67  0.001185677    1.724    0.420
        69  -8.5982    120.0780    228.0035   1.0305492530e+02   1.0902513166e+01     0.202769    0.1478088  56.91 0.0006744644    1.695    0.410
        70  -9.0234      8.2316    228.2502   1.2852820261e+02   2.3958569296e+01    0.1783735   0.07576279  81.73 0.0008842136    2.422    0.587
        71  -8.2595    223.4853    227.0539   8.1215073342e+01  -2.9799921800e+00      0.22604    0.0976317 -30.88  0.001038485    2.122    0.529
        72  -9.3063    225.4067    221.7814   7.9981177692e+01  -2.4834263512e+00    0.2314502    0.1714676 -24.89 0.0007539958    1.315    0.239
        73  -8.5909    206.0116    226.2636   8.4348342610e+01  -7.0949845177e-01    0.1849664    0.1685462 -27.56 0.0007523396    1.565    0.361
        74  -8.0606    110.9766    228.0000   1.0516543865e+02   1.2175419629e+01    0.2305065   0.06551173  31.26 0.0008101794    2.996    0.666
        75  -8.3235     49.4072    226.7222   1.1938018409e+02   2.0231773007e+01     0.273952    0.1240359  61.63  0.001220114    2.604    0.616
        76  -8.0461    200.3915    226.2996   8.5444466535e+01   8.6650620619e-03     0.152408    0.1120471 -37.29 0.0004061955    1.586    0.369
        77  -8.7782    180.8116    224.4943   8.9095898729e+01   2.9085943593e+00    0.2345708     0.197778  47.50  0.001063611    1.709    0.415
        78  -9.1022    104.8514    223.8423   1.0607469371e+02   1.3829764104e+01    0.3622719    0.2422322  73.88  0.001727703    2.293    0.564
        79  -9.0775     94.0189    224.3541   1.0870249853e+02   1.5208895973e+01    0.3744369    0.2030131  54.39  0.001569855    2.190    0.543
        80  -8.3643     38.7455    224.9874   1.2167587169e+02   2.1738838982e+01    0.2139352    0.1083703  62.66  0.001071366    2.045    0.511
        81  -9.0992    216.3501    223.5304   8.1935357541e+01  -1.6188267154e+00    0.2150513      0.19259 -21.47 0.0009024583    1.518    0.341
        82  -8.6907    173.0831    222.8834   9.0456154351e+01   4.2453054286e+00    0.2380125    0.1892502 -58.05 0.0007474402    1.913    0.477
        83  -8.4747    113.9944    223.8521   1.0392006617e+02   1.2547987864e+01    0.2179635    0.1780111 -89.27  0.001260257    1.659    0.397
        84  -8.6234     59.7910    223.9459   1.1674352328e+02   1.9622210456e+01    0.2126927    0.1224469  65.38  0.000882979    1.981    0.495
        85  -9.3710    192.4819    221.5134   8.6217694666e+01   1.7827678679e+00    0.2565173    0.2428124 -60.14  0.001089225    1.740    0.425
        86  -8.4204    140.4821    222.9996   9.7660133558e+01   8.9046548556e+00    0.1733928    0.1341527 -48.03  0.000501978    1.523    0.343
        87  -9.0403    239.1021    221.4488   7.7517610545e+01  -4.0485220963e+00    0.2973333    0.1644843 -29.01  0.001322184    1.552    0.356
        88  -8.9792    160.0640    221.1397   9.2988250228e+01   6.3959486295e+00    0.4670155     0.226189  47.83  0.001783559    3.035    0.671
        89  -8.8055    209.6532    220.0853   8.2612498759e+01  -2.7244423173e-01    0.2919515    0.1702877 -14.50  0.001114941    1.685    0.407
        90  -9.1568    120.4211    219.3088   1.0178328132e+02   1.2507568277e+01    0.4412194    0.2451099  56.61  0.001864691    2.756    0.637
        91  -8.8255     82.9275    220.7605   1.1093384758e+02   1.7410657847e+01    0.2860323    0.1579193  58.45  0.001271781    2.212    0.548
        92  -8.3098     72.9671    220.7634   1.1331916581e+02   1.8685711587e+01     0.224639    0.1175833  52.11 0.0007877236    1.964    0.491
        93  -8.2126     27.5143    221.0548   1.2394855785e+02   2.3693292645e+01    0.1759831    0.1108952 -78.15  0.001034977    1.608    0.378
        94  -8.4034    202.8436    220.1852   8.3941520547e+01   6.0092854367e-01    0.1783045    0.1505151   2.05 0.0005169841    1.188    0.158
        95  -8.9255    248.8416    218.1589   7.5322692202e+01  -4.7106825130e+00    0.2890647    0.2179961  55.18  0.001611431    3.558    0.719
        96  -8.2956    179.4671    217.9565   8.8296698492e+01   4.1527026859e+00     0.177512    0.1234489 -37.90  0.001003862    1.544    0.353
        97  -9.3285    132.8618    216.2045   9.8400910267e+01   1.1282419394e+01    0.4604183    0.2933502  66.38  0.001850359    3.086    0.676
        98  -8.2980    112.1736    217.7409   1.0352886842e+02   1.4003002978e+01    0.2209317    0.1281135  60.51 0.0009369735    2.684    0.627
        99  -8.6489     62.3243    217.4964   1.1554203319e+02   2.0679918817e+01    0.3736289    0.1453554  49.32   0.00153628    2.599    0.615
       100  -8.9108     51.3606    217.3665   1.1814879026e+02   2.1981702030e+01    0.2855999    0.1901729  73.35  0.001041931    1.601    0.375
       101  -8.7379    169.4390    216.1990   9.0139903362e+01   5.8853029369e+00    0.2533389    0.2178263 -76.78 0.0008542291    1.964    0.491
       102  -8.6114    143.0845    216.6703   9.6100407730e+01   9.6806862345e+00    0.2560727    0.2078022  66.19  0.001384404    1.808    0.447
       103 -10.2421    229.7067    214.9986   7.8049881767e+01  -2.0583153325e+00    0.3633181    0.2032262  25.96 0.0004921745    1.697    0.411
       104  -8.1512    224.5749    212.5033   7.8533359033e+01  -1.0690329929e+00    0.1896036    0.1368727 -27.59 0.0005343818    1.320    0.243
       105  -8.1614     18.5335    216.0993   1.2567308349e+02   2.5586830717e+01    0.1768084    0.1079794 -84.79 0.0007153898    1.595    0.373
       106  -8.4310    185.5486    214.2724   8.6405443037e+01   3.8938227717e+00    0.2184095    0.1237945 -43.74 0.0009549603    1.982    0.496
       107  -8.3406    154.0780    215.0272   9.3338349134e+01   8.3486563080e+00    0.1966426    0.1641892  59.00 0.0007833329    1.693    0.409
       108  -9.1333     93.0926    214.0897   1.0767655792e+02   1.7432919578e+01    0.3692522    0.1876406  50.65  0.001621684    2.190    0.543
       109  -7.7667     41.3951    215.2039   1.2033049868e+02   2.3537453473e+01     0.177609    0.1086783  83.92 0.0009495395    1.766    0.434
       110  -9.4080     73.2970    212.2359   1.1232814798e+02   2.0453731640e+01    0.6514687    0.2318812  52.57  0.002180977    3.931    0.746
       111  -9.3509    213.7917    212.2017   8.0467260897e+01   3.5860203012e-01    0.2781354    0.2380581  41.85  0.001609802    1.768    0.434
       112  -8.7457    198.1839    211.6674   8.3391520398e+01   2.5425756089e+00    0.2793123    0.1557929 -30.48 0.0004943488    1.704    0.413
       113  -8.4072    161.6955    212.3813   9.1200387058e+01   7.6885084224e+00    0.2037387    0.1740548 -56.89 0.0006690728    1.600    0.375
       114  -8.1721    106.1973    212.9074   1.0431377463e+02   1.5835647027e+01    0.2072554    0.1702067  54.00 0.0007506387    1.310    0.237
       115  -8.9859    204.2233    210.9601   8.2079659200e+01   1.8249199461e+00    0.2480625    0.2074665 -47.34 0.0008344434    1.734    0.423
       116  -9.4342    175.6208    210.1155   8.7779093817e+01   6.0211811665e+00    0.3846002    0.2967592  69.60  0.001385339    2.628    0.619
       117  -8.1192    192.4827    210.9261   8.4406159732e+01   3.4565019625e+00    0.1826466    0.1203749 -37.58  0.001011267    1.577    0.366
       118  -8.7871    147.9840    210.6461   9.4013405103e+01   1.0064074747e+01     0.272736    0.2130277  58.76  0.001200186    1.800    0.445
       119  -9.1168    116.3411    210.5051   1.0150060636e+02   1.4848542677e+01    0.3436998    0.2236869  59.67  0.001168025    2.111    0.526
       120  -9.2565      6.5369    208.9292   1.2799364259e+02   2.8159148331e+01    0.4690185    0.1543562  71.95  0.001804357    3.732    0.732
       121  -8.4779     85.5188    209.5271   1.0898118878e+02   1.9433405347e+01    0.3067146    0.1733051  61.94  0.001342493    2.386    0.581
       122  -8.2626     46.4665    209.4796   1.1863993140e+02   2.4243685082e+01    0.2106046    0.1159966  88.21  0.001014467    2.131    0.531
       123  -8.3591     31.8796    210.0580   1.2219336289e+02   2.5637305550e+01    0.2197007    0.1126004  65.93  0.001060198    2.059    0.514
       124  -9.0671    236.4529    208.3950   7.5718429154e+01  -1.9524538579e+00    0.2347588    0.1840663 -32.57 0.0007993215    1.492    0.330
       125  -9.8714    124.3400    206.3350   9.8926903937e+01   1.4494914497e+01    0.3287015    0.2346103  64.51            0    2.023    0.506
       126  -9.3719    246.4195    207.2737   7.3842685346e+01  -2.9834241229e+00    0.2462798    0.1628564 -29.16 0.0007505899    1.347    0.258
       127  -7.9824    156.4190    208.2062   9.1682905421e+01   9.2351411942e+00    0.1685182    0.1345088 -55.57 0.0006596519    1.636    0.389
       128  -8.4480    138.9840    207.9968   9.5680449288e+01   1.1935240170e+01    0.2062699    0.1655086  60.11 0.0005472925    1.669    0.401
       129  -9.2560     99.5279    206.4023   1.0507160879e+02   1.8151748791e+01     0.394228    0.2551487  70.07  0.001211561    2.291    0.564
       130  -8.4126     11.7457    206.9780   1.2670583832e+02   2.8157289874e+01     0.152674   0.09334531 -82.90 0.0008816605    1.547    0.354
       131  -9.3347    195.1479    203.5777   8.2562801918e+01   4.2707912113e+00    0.4074974    0.3550119 -39.39  0.001934067    1.473    0.321
       132  -9.2849    192.3522    197.3535   8.1994590317e+01   5.7134627539e+00    0.3642904    0.2178268 -44.78  0.001212008    1.887    0.470
       133  -8.6760     56.3631    205.3646   1.1581338941e+02   2.4039257280e+01    0.3532586    0.1952192  61.73  0.001665281    2.046    0.511
       134  -8.9421    183.8390    204.1167   8.4984056675e+01   5.8315807078e+00    0.2941565    0.2264826  55.85  0.001047316    2.080    0.519
       135  -8.2595    109.0582    205.3381   1.0254055131e+02   1.6990209047e+01    0.1999992    0.1667178  36.77 0.0006747958    1.115    0.103
       136  -8.0671     25.3140    205.6247   1.2344178294e+02   2.7253093134e+01    0.1395775   0.07467912  60.01  0.000703047    1.794    0.442
       137  -9.5455    163.7105    203.0000   8.9146507296e+01   9.0710001749e+00    0.3764848    0.2559269  49.86  0.001074221    1.952    0.488
       138  -8.7017    131.1311    203.7325   9.6868366643e+01   1.3979663185e+01    0.2659113    0.2132645  69.20 0.0008257137    1.749    0.428
       139  -9.4480    249.9228    201.6096   7.2272333006e+01  -2.6191233118e+00    0.4649726    0.1758695 -40.84  0.002185433    2.721    0.632
       140  -9.4505    245.3552    193.4227   7.1544950555e+01  -9.2726004020e-01    0.2169679    0.1762075 -32.54  0.000307603    1.446    0.309
       141  -8.0678    222.0153    201.8995   7.7110747440e+01   8.1957926387e-01    0.1664627    0.1556318 -47.55  0.001086234    1.726    0.421
       142  -8.4163    210.8783    202.0904   7.9214556077e+01   2.2926016624e+00    0.1798191    0.1620832 -16.01 0.0004730991    1.342    0.255
       143  -9.0550    140.5826    201.0607   9.4157900155e+01   1.3040785551e+01    0.3682878    0.2615005  66.22  0.001591165    2.342    0.573
       144  -8.8925     79.8232    201.1890   1.0938601014e+02   2.2028986793e+01    0.3634849    0.2007175  65.69  0.001500101    2.651    0.623
       145  -7.9313     73.1516    202.2075   1.1121961376e+02   2.2679392850e+01    0.1928914    0.1452444  58.39 0.0006075092    1.354    0.262
       146  -8.3037     48.4285    202.2369   1.1749946187e+02   2.5650575641e+01    0.1826937    0.1167819  85.09 0.0009422678    1.727    0.421
       147  -8.5396     10.2235    202.6221   1.2681817161e+02   2.9247408595e+01    0.1554728     0.113632  10.71 0.0008525297    1.679    0.404
       148  -9.3133    237.0457    198.6974   7.3886474698e+01  -6.4704868082e-01    0.2982813    0.1464393 -38.92  0.001006984    1.968    0.492
       149  -9.5217    149.4921    198.4760   9.1608677944e+01   1.2142287527e+01    0.4032265    0.3005684 -76.63  0.001351906    2.308    0.567
       150  -8.9481    123.9454    199.2657   9.7906818086e+01   1.6002050338e+01    0.2918985    0.2249483 -89.50  0.001130006    1.952    0.488
       151  -9.3625    112.8873    198.5163   1.0055544889e+02   1.7860131864e+01    0.4815504    0.2765388  59.56  0.001937981    2.711    0.631
       152  -9.1954     88.6954    198.3290   1.0672489170e+02   2.1450627762e+01    0.4463122    0.2781753  88.68  0.001673852    2.449    0.592
       153  -8.6244    177.0301    198.8826   8.5487010453e+01   7.7634804840e+00    0.2275774    0.1848842 -32.03 0.0006027278    1.279    0.218
       154  -8.0909    202.3236    197.8128   8.0083848012e+01   4.1781071398e+00    0.1720748    0.1489258   7.42 0.0004634277    1.179    0.152
       155  -9.2840     61.5220    196.8537   1.1360115242e+02   2.5358181048e+01    0.4933454    0.2870675  73.76  0.002030846    2.232    0.552
       156  -9.3346     12.9464    197.6302   1.2588506587e+02   3.0145706110e+01    0.3322702    0.1429249  66.87  0.001504384    2.454    0.592
       157  -8.7238    215.9466    195.7943   7.7108434520e+01   2.5746602685e+00    0.2539676    0.1716808 -42.44 0.0008347835    1.699    0.411
       158  -8.1574     53.6318    196.5233   1.1560960547e+02   2.6370629937e+01    0.2621541    0.1403504  69.75  0.001135166    2.404    0.584
       159  -8.1620     36.4561    196.9822   1.2004305568e+02   2.8129095303e+01    0.1886659   0.09257682  72.45 0.0008078645    2.495    0.599
       160  -7.7960     29.3254    197.6549   1.2188372990e+02   2.8677855285e+01    0.1412697   0.07921789  59.35 0.0007050409    1.742    0.426
       161  -8.4057    133.0255    196.0302   9.5133883101e+01   1.5242870421e+01    0.2095861    0.1707914  64.36 0.0005559098    1.631    0.387
       162  -8.8414    224.4118    194.0183   7.5235972927e+01   1.6912740139e+00    0.2785858    0.1584407 -39.04  0.001076754    1.739    0.425
       163  -7.3126    209.2951    195.6520   7.8334423525e+01   3.5294928933e+00    0.1126505    0.1059933 -57.05   0.00037325    1.675    0.403
       164  -8.8445    185.1194    194.8224   8.3021527413e+01   7.2374199570e+00    0.2364399    0.2125378 -42.70  0.000737882    1.426    0.299
       165  -9.1317    161.0211    194.3873   8.8214717647e+01   1.1091277259e+01    0.3008612    0.2515036  81.39 0.0009238481    1.981    0.495
       166  -9.0722     43.6502    193.3520   1.1787602187e+02   2.8221683706e+01    0.4207367    0.2087901  67.14  0.001795122    2.516    0.603
       167  -8.0608    230.6301    194.2436   7.4179178515e+01   8.2957085072e-01    0.1750089   0.09658592 -26.42 0.0006848492    1.567    0.362
       168  -8.6523     76.8324    194.0884   1.0926046860e+02   2.4038679885e+01    0.2123553    0.1759202  59.80 0.0005204796    1.229    0.187
       169  -8.0735    205.3533    191.7752   7.8367825284e+01   4.7233931084e+00    0.1804701    0.1070041 -27.45 0.0004281733    1.553    0.356
       170  -8.3763    198.8420    192.0503   7.9698117553e+01   5.6381079277e+00    0.1904325    0.1730915 -17.93 0.0006579972    1.270    0.213
       171  -8.5581    179.3863    191.6855   8.3651203719e+01   8.6789611547e+00    0.2387334     0.128139 -45.02 0.0005796428    2.010    0.502
       172  -8.5197    172.3217    191.7814   8.5203533637e+01   9.7765275643e+00    0.2320427    0.2141263 -75.89 0.0008412051    1.593    0.372
       173  -9.1564    139.4460    190.5605   9.2613536998e+01   1.5329408851e+01    0.3598872    0.2808462 -86.95  0.001034844    2.065    0.516
       174  -8.9513      6.8310    191.4025   1.2699546583e+02   3.2055479557e+01    0.2884648    0.1140797  78.63  0.001220726    2.792    0.642
       175 -10.5310     92.3260    188.8816   1.0442839528e+02   2.3066876389e+01     1.089412    0.2709315  42.60  0.003179675    4.099    0.756
       176  -8.8932     22.0613    191.4694   1.2323432853e+02   3.0781231108e+01    0.3704441   0.05497438  42.84  0.001169267    4.539    0.780
       177  -8.6341    148.5857    189.5605   9.0230550734e+01   1.4039478578e+01    0.2585272    0.2070349  75.64 0.0008731558    1.991    0.498
       178  -9.0271    129.4411    188.7632   9.4770907124e+01   1.7328796484e+01     0.340628    0.2436126  63.34  0.001104908    2.019    0.505
       179  -8.4442    237.0928    188.6076   7.2030098388e+01   8.1969764154e-01    0.2040002    0.1404931 -32.03 0.0005116808    1.327    0.246
       180  -8.9093    216.5525    188.0896   7.5553798491e+01   3.7023788983e+00     0.265131    0.2066474 -37.14 0.0008719307    1.413    0.292
       181  -9.3039    156.0130    187.6578   8.8128304117e+01   1.3196911870e+01    0.3545309    0.2314308 -56.27 0.0009971615    1.986    0.497
       182  -9.8356    120.9259    186.7340   9.6579935207e+01   1.9139727663e+01    0.5384827     0.326951 -74.84   0.00212848    2.881    0.653
       183  -9.1977    243.0375    200.8004   7.3256627843e+01  -1.6858642546e+00    0.2917752    0.1466101 -35.85 0.0009647554    1.784    0.440
       184  -8.7343    191.4891    187.4907   8.0316633877e+01   7.5318066409e+00    0.2537184    0.2311522  85.17 0.0008707445    1.797    0.444
       185  -8.9388    188.2727    186.1118   8.0715079680e+01   8.2744530576e+00    0.2443115    0.1895166 -18.23  0.000303768    1.164    0.141
       186  -9.2423     54.6147    186.8528   1.1430478751e+02   2.8528642228e+01    0.4318369    0.2351793  68.62  0.001511943    2.380    0.580
       187  -8.1509    230.5120    187.1042   7.2872918918e+01   1.9186611484e+00    0.1873648    0.1059354 -34.24  0.001016661    1.555    0.357
       188  -8.6906    164.8097    186.7540   8.5934758164e+01   1.1928046492e+01    0.2532635    0.1989292 -53.89 0.0008599432    1.597    0.374
       189  -9.1674    109.5728    186.2031   9.9440094489e+01   2.1060827443e+01    0.3795781    0.2757173  67.40  0.001209464    1.865    0.464
       190  -8.6808    249.1948    185.5727   6.9491621884e+01  -2.8489576086e-01     0.210009    0.1628948 -35.89 0.0007204779    1.449    0.310
       191  -8.6541    182.9587    185.2032   8.1654737765e+01   9.2773935796e+00     0.222813    0.1841421 -41.59 0.0006354292    1.378    0.274
       192  -8.6850    210.2213    184.5312   7.6056848580e+01   5.1941492009e+00    0.2169092    0.1874273 -38.11 0.0005977117    1.409    0.290
       193  -8.7576    202.5812    184.5606   7.7531740097e+01   6.3325097916e+00    0.2279205     0.212488 -47.63 0.0008297549    1.495    0.331
       194  -9.0175    174.4336    183.9030   8.3241767599e+01   1.0891229013e+01    0.2874812    0.2429377 -74.71  0.001051558    1.875    0.467
       195  -9.2317     66.8740    184.7187   1.1072482529e+02   2.7537470064e+01      0.43492     0.223989  47.35  0.001277161    1.961    0.490
       196  -8.4108    224.1386    183.7101   7.3348399476e+01   3.3193124086e+00    0.2131103    0.1494179 -34.98 0.0006562987    1.371    0.271
       197  -8.2214    197.2422    183.8078   7.8441702392e+01   7.2775198522e+00    0.1891004    0.1525466 -89.59 0.0007613421    2.640    0.621
       198  -8.9578     44.3789    182.3693   1.1658234989e+02   3.0756560173e+01    0.3537456    0.2160141  64.18  0.001020379    1.780    0.438
       199  -7.8811      1.7764    183.6127   1.2779838702e+02   3.4230421953e+01    0.1714542   0.09514385  39.57 0.0009397509    1.678    0.404
       200  -9.2323    147.4824    180.5486   8.8811952212e+01   1.6044002508e+01    0.3304905    0.2774141  89.28  0.001041735    1.789    0.441
       201  -8.0001     83.1622    182.1652   1.0591168217e+02   2.5948216068e+01    0.2034809    0.1621239  63.51 0.0006227993    1.378    0.274
       202  -8.2197     91.1897    181.4891   1.0361124259e+02   2.4945075184e+01    0.2802471    0.1418465  23.77   0.00112285    2.123    0.529
       203  -9.5067     25.5594    178.9156   1.2133255337e+02   3.3453422290e+01    0.6489745    0.2581136  73.15    0.0022734    3.794    0.736
       204  -8.1480    240.4823    180.4996   6.9950675970e+01   1.5764479724e+00    0.1256351   0.09774686 -15.44  0.000810331    1.022    0.021
       205  -8.5699    137.6526    179.4373   9.1018160220e+01   1.7939769089e+01    0.2650322    0.2221119  82.61 0.0008650568    1.709    0.415
       206  -8.8171    205.0100    177.6746   7.5715947757e+01   7.1226006734e+00    0.2794096    0.1688598 -43.12 0.0007527139    1.734    0.423
       207  -9.1915    191.4241    178.4543   7.8569280606e+01   9.1276573941e+00    0.2426866    0.2364625 -31.16 0.0006030313    1.358    0.264
       208  -8.0119    169.4482    178.8931   8.3367933089e+01   1.2660446358e+01    0.2062698    0.1354103 -40.53 0.0007222843    1.532    0.347
       209  -8.6687     34.3031    188.1420   1.1982572602e+02   3.0414570290e+01    0.3474785    0.1698142  67.23  0.001153393    2.433    0.589
       210  -9.1737     35.8732    176.6939   1.1832578829e+02   3.3019647474e+01    0.5254785    0.2189292  74.50  0.001723837    4.177    0.761
       211  -9.5007    248.2911    176.3878   6.7925986917e+01   1.1579942945e+00    0.4070367    0.2380826 -44.13  0.001840372    1.918    0.479
       212  -8.6808    250.5191    172.8894   6.6921910669e+01   1.3790990401e+00    0.2355632    0.1210053 -36.85 0.0006655974    1.659    0.397
       213  -8.4629    231.2076    177.1259   7.0857575409e+01   3.3514122047e+00     0.249411    0.1471973 -35.38 0.0007176578    1.497    0.332
       214  -8.5131    217.3676    177.1768   7.3304197522e+01   5.3359103581e+00    0.2217778    0.1863546 -50.78 0.0007002761    1.634    0.388
       215  -8.9551    129.1435    177.3052   9.2773822663e+01   1.9835847638e+01    0.3198114    0.2391887  87.96  0.000935539    2.181    0.541
       216  -8.2439     97.0643    177.7856   1.0140924008e+02   2.4927538071e+01     0.244648    0.1671282  -4.44  0.001076123    1.979    0.495
       217  -9.0887    183.0951    176.1327   7.9842361132e+01   1.0903007637e+01    0.2820734    0.2218771 -48.61 0.0006497605    1.515    0.340
       218  -9.4744    104.4716    174.9304   9.8895446789e+01   2.4435261607e+01     0.595916     0.319263  58.37  0.001784973    2.986    0.665
       219  -8.7591     89.0019    176.7857   1.0347490001e+02   2.6378194279e+01    0.2916739    0.2323456  76.83  0.001035234    1.505    0.335
       220  -9.9164     57.3471    173.3323   1.1191627740e+02   3.1488319802e+01    0.8647419    0.4058197  74.20  0.002676882    4.504    0.778
       221  -9.0324     12.6601    176.3892   1.2456176032e+02   3.5142032259e+01     0.327105     0.147618  71.02  0.001369361    2.470    0.595
       222  -9.1870    159.0230    175.2937   8.5040194009e+01   1.5135417827e+01    0.3568481    0.2678545  66.53  0.001034779    2.149    0.535
       223 -10.7844     75.9383    169.3824   1.0601561905e+02   3.0047690870e+01     1.454956     0.584744 -70.14  0.004791534    3.351    0.702
       224  -8.5074    224.4852    174.4771   7.1505679866e+01   4.7252976457e+00    0.2157756     0.109581 -44.71 0.0009570583    2.154    0.536
       225  -9.4483    175.8462    172.3264   8.0635791762e+01   1.2828764905e+01    0.3574228    0.2499195 -43.89  0.001037246    1.503    0.335
       226  -8.1989    143.0334    172.7890   8.8394564283e+01   1.8420577690e+01    0.2497587    0.1967078 -64.24 0.0006272771    1.639    0.390
       227  -8.8166    134.9592    171.9978   9.0269880550e+01   1.9992829678e+01    0.2831684    0.2307194  69.11   0.00095926    1.675    0.403
       228  -9.5912    121.4950    170.5477   9.3497412276e+01   2.2629361574e+01    0.4190105    0.3068529 -82.33  0.001172676    2.071    0.517
       229  -9.1343     45.2176    171.3101   1.1512627844e+02   3.3378796211e+01    0.3493102    0.2152271  75.56  0.001088577    1.903    0.475
       230  -8.3235    205.9193    170.7265   7.4156395188e+01   8.1616230317e+00    0.2329918    0.1714799 -58.63 0.0008946343    2.074    0.518
       231  -8.2959    237.1861    169.7321   6.8431714879e+01   3.6528382873e+00    0.2122766    0.1446314 -37.55 0.0006969331    1.395    0.283
       232  -8.6690    230.3175    169.8614   6.9598490856e+01   4.6095977008e+00    0.2284137    0.1335699 -35.02 0.0008218174    1.484    0.326
       233  -8.2917    198.5076    170.1698   7.5481892644e+01   9.4456312193e+00    0.1954976      0.19113 -11.94 0.0006494112    1.322    0.243
       234  -9.1006    167.1049    168.7886   8.1859881641e+01   1.5020411646e+01    0.3278367    0.2687452  79.59 0.0009119639    1.980    0.495
       235  -8.4848    149.7966    169.7098   8.6117516622e+01   1.7879963146e+01    0.2554548    0.2005935 -78.98 0.0008243723    1.988    0.497
       236  -8.2429    244.3995    169.2129   6.7174972745e+01   2.7363380549e+00    0.1696482    0.0987892 -40.26 0.0005240493    1.634    0.388
       237  -8.7009    111.9701    167.8873   9.5565909439e+01   2.4845261447e+01    0.3765126    0.2313481  63.41  0.001442022    2.632    0.620
       238  -8.5179     88.6494    168.5779   1.0223209303e+02   2.8400449751e+01    0.2363693     0.178476  88.37 0.0007588915    1.682    0.405
       239  -8.3961    218.7829    168.2014   7.1274460243e+01   6.5865702204e+00    0.1906867    0.1601645 -30.89 0.0005744114    1.220    0.180
       240  -8.2602    211.2986    167.9496   7.2585141601e+01   7.7851266917e+00    0.2107547    0.1532521 -44.46  0.001105648    1.525    0.344
       241  -8.8826    191.8969    166.4223   7.6037784585e+01   1.1204141900e+01    0.3180562    0.1868848 -43.79  0.000934811    1.741    0.426
       242  -8.8268    184.9628    166.5512   7.7495788974e+01   1.2354901782e+01    0.2507147     0.193737 -52.18 0.0006446417    1.590    0.371
       243 -10.1004     95.1066    163.0916   9.9420351267e+01   2.8731203081e+01    0.8921152    0.4891067  68.66  0.002730443    4.271    0.766
       244  -9.0970     20.4381    166.0972   1.2162292740e+02   3.7041020599e+01     0.414408    0.1896226  62.37  0.001743255    2.535    0.606
       245  -8.1451    140.6368    166.2963   8.7691697946e+01   2.0224779107e+01    0.2989941    0.1983157  56.46  0.001283818    2.052    0.513
       246  -9.6344    135.8401    163.9417   8.8432634733e+01   2.1590817571e+01    0.3512034    0.2756595  53.98 0.0008693396    1.510    0.338
       247  -7.9328    251.0000    165.0190   6.5355342030e+01   2.4700696397e+00    0.2007043   0.05688122 -36.74 0.0005677189    2.881    0.653
       248  -8.1156    233.9151    165.1071   6.8064395641e+01   4.8340593703e+00    0.1836361    0.1526539 -35.40 0.0005272579    1.296    0.229
       249  -8.6319    159.5841    164.5650   8.2718949070e+01   1.7194852901e+01    0.2689631    0.2245888 -59.24 0.0007269647    1.494    0.331
       250  -9.6547     33.5096    163.4935   1.1762176373e+02   3.6531769400e+01     0.588689    0.2286504  50.79  0.002222081    2.928    0.659
       251  -9.0283    246.0562    163.1217   6.5743734979e+01   3.4233978854e+00    0.2176195    0.1449553 -29.10 0.0004801249    1.209    0.173
       252  -8.2735    239.8778    164.1544   6.6912031881e+01   4.1289530983e+00    0.1802713     0.155213 -33.17 0.0005847193    1.297    0.229
       253  -8.6084    212.9886    163.7474   7.1421696621e+01   8.2256622809e+00    0.2347717    0.1693439 -33.69 0.0006690935    1.260    0.206
       254  -8.4333     57.2548    163.8748   1.1067471638e+02   3.3859798274e+01    0.3569703    0.1966584   3.57  0.001382207    2.800    0.643
       255  -8.5349    204.8225    162.9352   7.2776478663e+01   9.6783385749e+00    0.2350896    0.1765687 -47.11  0.000749606    1.529    0.346
       256  -9.3846      3.1712    162.3659   1.2613398269e+02   3.9227427863e+01    0.4129768    0.1734137  51.89  0.001860282    2.393    0.582
       257  -9.0486    177.5915    160.8315   7.7866168808e+01   1.4714443891e+01    0.3182617    0.2650864 -71.95  0.001024797    1.774    0.436
       258  -8.9268    151.5899    161.1292   8.3904561484e+01   1.9346199824e+01    0.2988712    0.2493504 -76.90 0.0008240717    1.692    0.409
       259  -7.8400    221.7330    161.6765   6.9441632217e+01   7.2023336705e+00     0.133819   0.08937533 -10.31 0.0002316609    1.566    0.361
       260  -8.8361     60.6668    160.2675   1.0913744910e+02   3.4349732031e+01    0.3780742    0.2275446  68.30  0.001257762    2.218    0.549
       261  -8.5523    242.2894    160.2782   6.5773944697e+01   4.3802961673e+00    0.3632178    0.1620851  19.36  0.001224431    5.352    0.813
       262  -9.8454    250.1598    157.8438   6.4101304481e+01   3.6477004107e+00    0.3268071    0.1960728 -33.84 0.0007921297    1.356    0.262
       263  -9.2112    246.5727    155.5407   6.4189763296e+01   4.4936968376e+00    0.3215601    0.1518201 -26.81  0.001556444    1.992    0.498
       264  -8.5287    227.2418    158.9515   6.7948068270e+01   6.7999993613e+00    0.2551418    0.1547034 -44.15 0.0009166984    1.704    0.413
       265  -8.4637    236.8765    158.8110   6.6339478605e+01   5.3851701818e+00    0.1669406    0.1317943 -37.88 0.0005358829    1.297    0.229
       266  -8.4893    127.9931    158.8110   8.9428722674e+01   2.4136669365e+01    0.2566856    0.2060561 -69.80  0.000689095    1.577    0.366
       267  -9.7045    105.7239    157.3555   9.5287114224e+01   2.8372291191e+01    0.6080526    0.4054603 -59.99  0.001451322    1.655    0.396
       268  -8.3917    196.3826    157.9465   7.3367512427e+01   1.1970030033e+01    0.2170691    0.2005257  87.11 0.0007004895    1.558    0.358
       269  -8.2841    188.3056    158.0161   7.5006895365e+01   1.3355197560e+01    0.2037259    0.1665041 -31.12 0.0005510099    1.156    0.135
       270  -9.0731    167.4692    157.2113   7.9333512986e+01   1.7243668413e+01    0.2931445    0.2527385 -71.80 0.0007731254    1.591    0.371
       271  -8.4635    217.9014    156.6095   6.9077565084e+01   8.6393722319e+00    0.2525417    0.1582675 -48.96 0.0008127446    1.878    0.468
       272  -9.0197    157.6762    156.3286   8.1413909857e+01   1.9223822068e+01    0.2887206      0.24764  88.88 0.0008622046    1.679    0.405
       273  -9.3267    119.5953    155.3158   9.0977174216e+01   2.6438907076e+01    0.4207277    0.3082787 -79.05   0.00142261    1.998    0.499
       274  -9.4508     82.0283    155.2933   1.0186910009e+02   3.2663300255e+01    0.5012181    0.2919177  61.51  0.001446979    2.494    0.599
       275  -9.4159     49.9029    155.5389   1.1172770162e+02   3.6842662504e+01    0.5045984    0.2455328  56.01  0.001805141    2.630    0.620
       276  -8.8425     23.2500    156.2974   1.1988409534e+02   3.9269227017e+01    0.3343997     0.128419 -38.46  0.001144034    3.911    0.744
       277  -9.2845    242.8463    155.0995   6.4669596413e+01   5.0922807390e+00    0.1845072    0.1479934 -36.47 0.0004871735    1.256    0.204
       278  -7.7550    204.6118    155.5252   7.1270628716e+01   1.1002348125e+01     0.137459    0.1183144 -21.60 0.0001465393    1.060    0.056
       279  -8.6402    144.7754    154.8861   8.4248860849e+01   2.1923490228e+01    0.3183321    0.2462121  69.25 0.0009867785    1.884    0.469
       280  -9.2360     68.0195    154.0167   1.0592037534e+02   3.4978444609e+01     0.447342    0.2712479  65.96  0.001207545    2.288    0.563
       281  -8.0125    232.6066    153.8192   6.6026993093e+01   6.8048171970e+00    0.1803075      0.10482 -42.07  0.000461272    1.640    0.390
       282  -9.6079    132.8783    153.0482   8.6911548294e+01   2.4536196517e+01    0.4322443    0.3501948  72.45  0.001283511    1.694    0.410
       283  -9.3612    133.5838    148.2140   8.5664997009e+01   2.5481878716e+01     0.387954    0.2303077 -32.10  0.001253544    1.898    0.473
       284  -8.9002    151.9296    152.7419   8.2010849946e+01   2.1040701270e+01    0.2652817    0.1980511 -56.66 0.0009347913    1.595    0.373
       285  -8.8414     20.0487    152.5160   1.2046037361e+02   4.0489032292e+01     0.206569    0.1644796 -82.50 0.0005861983    1.148    0.129
       286  -8.1661    182.3477    151.4713   7.4830142513e+01   1.5641951071e+01    0.2319052    0.1700908 -56.12 0.0008434232    1.726    0.421
       287  -8.9454     98.2958    150.9321   9.6171059019e+01   3.1167274984e+01    0.3230031    0.2688818  82.23 0.0009538411    1.491    0.329
       288  -9.6666     29.1978    150.3165   1.1743784108e+02   4.0284263312e+01    0.5768209    0.2721604  71.63  0.002165886    3.054    0.673
       289  -8.8394      3.0199    151.4493   1.2539687934e+02   4.1940555907e+01    0.2808718    0.1520294 -77.83  0.001428683    1.610    0.379
       290  -9.5775    248.7575    149.3882   6.2658050144e+01   5.1119202597e+00    0.2957961    0.1607243 -35.35 0.0008523119    1.496    0.332
       291  -8.8481    247.0242    143.8440   6.1813853989e+01   6.2018958483e+00    0.2411497    0.1458239 -37.40 0.0005540316    1.385    0.278
       292  -9.9077    242.5438    149.7391   6.3652617009e+01   5.9588078192e+00     0.307691    0.2355156  43.41  0.001856666    1.639    0.390
       293  -8.8658    189.3528    150.3102   7.3130938578e+01   1.4593296133e+01    0.2984839    0.2200575 -48.94 0.0007872475    1.513    0.339
       294  -8.4434    162.4911    150.5258   7.9008885296e+01   1.9510267288e+01    0.2574408    0.1413113 -53.09 0.0008129068    2.225    0.550
       295  -8.1278    212.8930    149.8513   6.8555145005e+01   1.0593764665e+01    0.1718927    0.1525033 -41.93 0.0003451244    1.274    0.215
       296  -8.2020    228.9786    148.9507   6.5624745727e+01   8.1418936456e+00    0.1620063    0.1277325 -25.15 0.0003966128    1.055    0.052
       297  -8.4393    198.8603    149.0818   7.0988528182e+01   1.3128897760e+01    0.2031766    0.1823709 -44.93 0.0005141554    1.273    0.215
       298 -10.1462     89.1216    146.2752   9.8004596973e+01   3.3812715279e+01    0.6949209    0.4284607  88.91  0.002473643    3.068    0.674
       299  -9.0657     78.5379    147.4313   1.0150100983e+02   3.5157380671e+01    0.4651429    0.3031478  72.25  0.001549842    2.276    0.561
       300 -10.3944     55.0314    145.0444   1.0854238835e+02   3.8942831929e+01    0.8265595    0.4117495  63.00  0.002610157    3.328    0.700
       301  -7.8202     53.3597    137.3201   1.0781299743e+02   4.1145523563e+01     0.229567    0.1287517   7.42 0.0009119633    2.393    0.582
       302  -9.1213     57.3345    135.4174   1.0615479781e+02   4.1151942222e+01    0.3384325    0.1880878  17.61  0.001408207    2.074    0.518
       303  -9.8021     39.7948    147.9829   1.1383684524e+02   3.9876599814e+01    0.4987906    0.2732472  62.19  0.001783102    2.302    0.566
       304  -9.1439    233.2577    147.6361   6.4668014880e+01   7.6866068616e+00    0.2514681    0.1503716 -33.99 0.0007687644    1.406    0.289
       305 -10.3921    106.5263    143.9603   9.2288145798e+01   3.1440113064e+01    0.7984593    0.5559406 -87.52   0.00212011    2.349    0.574
       306  -8.3472    223.3389    146.9780   6.6147754897e+01   9.3598141826e+00     0.193834    0.1443013 -31.25 0.0004699957    1.155    0.134
       307 -10.2302    148.8756    144.9073   8.1004089137e+01   2.3278019247e+01      0.59379    0.4084733 -69.62  0.001457049    2.314    0.568
       308  -8.8116    151.5638    135.8322   7.8229500383e+01   2.4666257731e+01    0.4118599    0.2386942  18.83  0.001519407    2.557    0.609
       309 -10.4520    138.9040    144.7251   8.3487668320e+01   2.5240280146e+01     0.775275    0.3752375 -58.02  0.002634541    2.986    0.665
       310  -9.3929     12.9886    146.0907   1.2197505920e+02   4.2648074273e+01    0.3409117    0.2131722  67.67  0.001080722    1.684    0.406
       311  -8.0208    206.7531    146.5686   6.8965306803e+01   1.2199372869e+01     0.165842    0.1345232  51.27 0.0005016559    1.540    0.351
       312  -8.2040    175.3290    146.1166   7.5140822224e+01   1.7967268918e+01    0.2048239    0.1798258 -34.62 0.0007526192    1.137    0.120
       313  -8.7769    240.2036    145.2218   6.3101593418e+01   7.0054036666e+00    0.1996089    0.1464768 -39.12 0.0005260584    1.271    0.213
       314 -10.0195    242.7345    143.0056   6.2275706330e+01   6.9671922085e+00    0.4024635    0.1551329 -28.97  0.001653484    2.676    0.626
       315  -7.8305    194.2203    143.9632   7.0768274006e+01   1.4878996383e+01     0.187807    0.1074497 -38.37 0.0005386443    1.616    0.381
       316  -8.8097    165.3880    144.1006   7.6894988833e+01   2.0256779665e+01    0.2580226    0.2161208  42.02 0.0004363461    1.272    0.214
       317 -10.0901     73.3770    129.3187   9.9581274470e+01   4.0520984579e+01    0.5725638    0.4073097 -78.84  0.001602543    1.747    0.427
       318 -10.4964     69.5809    141.5289   1.0324239969e+02   3.7950932563e+01    0.5033717    0.4203026 -80.56  0.001498075    1.305    0.234
       319  -9.9051     69.3479    134.7836   1.0203330529e+02   3.9711110819e+01     0.495858    0.2928506 -20.49   0.00188831    2.547    0.607
       320  -9.6070      2.7888    141.7828   1.2470736034e+02   4.4383663163e+01    0.4513769    0.2072098  72.58  0.001844653    2.502    0.600
       321  -7.9442    235.4816    142.5010   6.3270826399e+01   8.1549157025e+00    0.1298561    0.1066864 -25.51 -9.183603e-05    1.026    0.025
       322  -8.5157    182.0119    141.6025   7.2702198988e+01   1.7575150769e+01    0.2739986    0.1959472 -53.15 0.0006320933    1.638    0.390
       323  -8.1176    250.4820    140.9880   6.0751900590e+01   6.1277149457e+00     0.189464    0.0998472 -35.21 0.0004878815    1.528    0.346
       324  -9.7659     23.4440    138.1356   1.1782351277e+02   4.3914163124e+01    0.5890604    0.3020179  66.72  0.002394793    2.520    0.603
       325  -8.5706    172.0944    138.4311   7.4093009668e+01   2.0085839706e+01     0.272194    0.2013575 -54.88  0.000608134    1.592    0.372
       326  -8.4359    207.6527    138.1053   6.6965524718e+01   1.3512519868e+01    0.2156444     0.157026 -48.76 0.0007398601    1.489    0.328
       327  -8.5757    197.5860    137.4047   6.8662875415e+01   1.5450144931e+01     0.260648    0.1901535 -54.86 0.0007663321    1.656    0.396
       328  -9.8014    125.2213    142.8446   8.6714659166e+01   2.8272762625e+01    0.5705017    0.4049925 -88.11   0.00165372    2.496    0.599
       329  -8.4262    162.7060    136.3840   7.5721216527e+01   2.2335956997e+01    0.2617202    0.1812518 -51.37 0.0006274847    1.597    0.374
       330 -10.4235     83.3925    132.8617   9.7034341154e+01   3.8080594442e+01     0.696403    0.4139018 -61.37  0.001499951    1.807    0.447
       331  -8.7507     84.3122    123.3097   9.4596881480e+01   4.0313236222e+01    0.5509564    0.3098001   5.77  0.001829898    3.215    0.689
       332  -9.3931     39.1323    135.9668   1.1234821819e+02   4.3064609843e+01    0.3449112     0.233633  76.64 0.0009618639    1.755    0.430
       333  -8.8696    248.3090    135.3119   5.9926254967e+01   7.3053897609e+00    0.2714317    0.1636146 -43.53 0.0009154592    1.540    0.350
       334  -8.6312    246.9342    130.3437   5.9117463530e+01   8.2672400648e+00    0.2363405    0.1433885 -44.79 0.0006656186    1.556    0.357
       335  -9.6125    192.8172    132.5121   6.8467614767e+01   1.7221987669e+01    0.4762966    0.1986663 -39.47  0.001064353    2.214    0.548
       336  -8.6736    179.5356    134.0283   7.1480241177e+01   1.9489464612e+01    0.2838706    0.2236193 -57.33 0.0007827633    1.519    0.342
       337  -8.1032    237.5021    133.9171   6.1200788036e+01   9.1877177322e+00    0.1969271    0.1064292 -37.76  0.001010733    1.551    0.355
       338  -7.9381    231.4903    133.9800   6.2122154124e+01   1.0144138910e+01    0.1966039    0.1103259 -34.90 0.0003887941    1.507    0.336
       339  -9.0840    112.9226    133.3988   8.8025655871e+01   3.2782810840e+01    0.3605632    0.2588334  64.12  0.001211275    1.905    0.475
       340 -10.1803    132.1096    130.6617   8.1971192990e+01   2.9677924877e+01    0.7049053    0.3775033 -56.79  0.001584594    2.368    0.578
       341 -10.4976     98.1616    129.1329   9.1492622918e+01   3.6505218641e+01     1.156132    0.3078012 -50.22  0.003294284    3.608    0.723
       342  -9.1578    143.0601    131.7243   7.9362044595e+01   2.7245008917e+01    0.2995794    0.2511761 -67.40 0.0008145802    1.471    0.320
       343  -9.3041    250.6173    129.7982   5.8503135124e+01   7.7890193633e+00     0.404112   0.09689608 -37.10  0.001432735    3.343    0.701
       344 -10.1958     12.8590    129.1088   1.2026786880e+02   4.7015042944e+01    0.5857927     0.295967  76.02  0.002146276    2.462    0.594
       345  -7.8573    220.4769    130.4084   6.3102613417e+01   1.2572748416e+01    0.1326471    0.1155216 -26.31   0.00014152    1.029    0.028
       346  -8.2069    204.7075    130.3995   6.5785084883e+01   1.5382716000e+01    0.1972266     0.163071 -71.19 0.0006084539    1.646    0.393
       347  -9.1107    168.2839    129.4993   7.2826735426e+01   2.2595519186e+01    0.2925959    0.2401582 -64.86  0.000831544    1.526    0.345
       348  -9.3492    152.9378    129.0769   7.6268979918e+01   2.5797047318e+01     0.413598    0.2825212 -59.80  0.001056486    1.879    0.468
       349  -7.8080      1.6605    130.3250   1.2407675824e+02   4.7352109567e+01    0.1380111   0.08571298  60.86 0.0007051275    1.726    0.421
       350  -7.8311    211.4151    129.1912   6.4345162513e+01   1.4373405522e+01    0.1940807    0.1154391 -45.91 0.0005517321    1.672    0.402
       351 -10.7131     45.0830    123.9322   1.0832580594e+02   4.5577897786e+01     1.108338    0.5747088  69.85  0.003733118    3.690    0.729
       352 -10.4249     60.0935    125.2724   1.0329356769e+02   4.3420024637e+01    0.7418877    0.4497679  68.91   0.00248762    2.624    0.619
       353 -10.1923    118.0633    124.9138   8.4474220413e+01   3.3763592029e+01    0.6843697    0.4920693 -62.17  0.001677438    1.681    0.405
       354  -7.4956    228.5060    125.5149   6.0789876802e+01   1.1996002473e+01    0.1318841    0.1117154 -34.71 0.0008093618    1.075    0.070
       355  -8.8640    179.2623    124.7364   6.9345169896e+01   2.1305051596e+01    0.2682601    0.2400713 -42.04 0.0006521924    1.134    0.118
       356 -10.1511     28.6050    122.5762   1.1396722775e+02   4.7535578540e+01    0.8219542    0.4052612  67.38  0.003012595    3.263    0.694
       357  -9.3704     27.7244    113.7618   1.1290236827e+02   4.9900167239e+01    0.4934339    0.1816159  17.38  0.001839402    3.066    0.674
       358  -8.1475    188.5238    123.9622   6.7314879683e+01   1.9608340519e+01    0.2225788    0.1330579 -39.13 0.0008898856    1.557    0.358
       359 -10.0319    130.9447    118.7656   7.9299337496e+01   3.2531730402e+01     0.658967    0.4494645 -84.86  0.002394417    2.951    0.661
       360  -9.6335    158.7462    121.8739   7.3118139653e+01   2.6067795547e+01    0.3795013    0.2896088 -81.90  0.001087392    2.019    0.505
       361  -8.1260    194.9150    122.1654   6.5684037865e+01   1.8683335287e+01    0.2121803    0.1844603 -54.58   0.00050535    1.269    0.212
       362  -8.6119    172.0155    121.5585   7.0092728562e+01   2.3381235886e+01    0.2737722    0.1973882 -53.02 0.0006235436    1.545    0.353
       363  -9.6967     71.1406    119.7724   9.8269670090e+01   4.3272441513e+01     0.473935    0.2771989 -69.49  0.001619024    2.119    0.528
       364  -9.9083    141.5075    118.1335   7.6357319912e+01   3.0457096638e+01    0.5859866    0.3075965 -52.03  0.001884339    2.196    0.545
       365  -9.8507      3.2162    117.6266   1.2230989839e+02   5.0515586364e+01    0.5286782    0.2575721  64.61  0.002290776    2.582    0.613
       366  -7.8293    231.4763    117.5196   5.8641914809e+01   1.2761637269e+01    0.1309915    0.1096959 -39.86 0.0008078665    1.102    0.093
       367  -8.2921    185.7372    116.3247   6.6034997759e+01   2.1556283080e+01     0.265687    0.1609486 -46.02 0.0005370338    1.646    0.392
       368 -10.0997    109.2955    114.1677   8.4325393586e+01   3.7954484997e+01    0.5651205    0.3833964 -72.03  0.001541306    2.246    0.555
       369  -9.2873    109.3272    107.6730   8.2572747535e+01   3.9421754833e+01    0.4028142    0.2651215  13.44  0.001602512    2.078    0.519
       370  -8.7975     58.7932    115.8769   1.0180336674e+02   4.6000838435e+01    0.4825135    0.2460367 -26.69  0.001673592    3.018    0.669
       371  -8.1339    193.0063    115.3267   6.4427876263e+01   2.0274291688e+01    0.1886188    0.1810786 -34.15 0.0004855189    1.078    0.072
       372  -7.9004    203.1964    122.2255   6.4203540863e+01   1.7085856227e+01    0.2209068   0.09215327 -45.71 0.0005049705    2.431    0.589
       373 -10.1129     92.7641    112.5031   8.9137555779e+01   4.1477144963e+01    0.5399362    0.4047084 -79.20  0.001337534    1.871    0.466
       374  -8.8208     92.9987    105.0247   8.7071018646e+01   4.3193998957e+01    0.3214504    0.1964993 -24.65  0.001242505    2.162    0.537
       375  -9.9917     78.8674    112.5218   9.3859887047e+01   4.3870487859e+01    0.5910897    0.4146277  89.31  0.001662296    2.287    0.563
       376  -8.5956     77.8719    105.7222   9.2481963102e+01   4.5689856793e+01    0.3264638    0.2328121  -7.40  0.001297792    1.751    0.429
       377  -7.8513    167.4721    114.5048   6.9317709242e+01   2.5682410914e+01    0.1490746    0.1424776 -26.05 0.0008097725    1.034    0.033
       378 -10.1211    133.5883    109.2037   7.6061863496e+01   3.4020946386e+01    0.6681719    0.3374217 -48.09  0.002061651    2.092    0.522
       379 -10.0982    121.9647    112.0555   8.0028487902e+01   3.5863236250e+01    0.4909033    0.3021584 -47.52  0.001000241    1.665    0.400
       380  -9.8090     14.4383    111.5202   1.1751458454e+02   5.1454485377e+01    0.4272218    0.2497128  69.15  0.001335699    2.167    0.539
       381  -8.4690    174.8432    112.0767   6.7158368952e+01   2.4587763719e+01    0.2263763    0.1938989 -61.03 0.0006092235    1.319    0.242
       382  -8.5059    159.1643    111.6960   7.0439775523e+01   2.7997297170e+01    0.2575443    0.1982471 -48.05 0.0005677527    1.339    0.253
       383 -10.1602     66.4579    109.9394   9.7659342971e+01   4.6433016827e+01    0.6534507    0.3729315 -56.85  0.002354478    1.732    0.423
       384 -10.4538    245.0589    100.4425   5.3227862954e+01   1.3057961096e+01    0.4412369    0.2504359 -64.24  0.002075479    2.786    0.641
       385 -10.8046    249.0181    107.4827   5.4189900598e+01   1.1366512349e+01    0.4640683    0.2776102 -35.33   0.00228096    1.364    0.267
       386  -8.3092    189.2627    107.8419   6.3316993215e+01   2.2354188749e+01    0.2571052    0.1591847 -40.42 0.0007262402    1.506    0.336
       387  -9.4642    139.8774    104.2185   7.3074166472e+01   3.3684798728e+01    0.5133074    0.2932136 -49.88  0.001518897    1.915    0.478
       388  -9.7909    118.9546    105.6519   7.9148615478e+01   3.7889008753e+01    0.4248523    0.3182788 -71.46  0.001854247    1.853    0.460
       389 -10.6078    108.8256     98.8272   8.0243281567e+01   4.1479450020e+01    0.8606745    0.4915747  63.02   0.00113108    3.087    0.676
       390  -8.9689    107.6204     92.7072   7.8822222791e+01   4.3043454188e+01    0.6768224    0.2964934  29.34  0.002064691    3.401    0.706
       391 -10.5531     45.6625    102.5538   1.0384117060e+02   5.1007971736e+01    0.7927639    0.4607078  68.11  0.002954258    3.144    0.682
       392 -10.6358     22.8590    102.5734   1.1288351141e+02   5.3168974143e+01    0.7833088    0.4188409  70.68  0.002491953    3.028    0.670
       393  -8.5852    166.6848    104.3131   6.6880617135e+01   2.7781241382e+01    0.2695705     0.170167 -48.57  0.000640568    1.655    0.396
       394  -9.4569    150.7561    103.3386   7.0177889311e+01   3.1463710642e+01    0.4505484    0.3106404 -68.26  0.001375531    2.133    0.531
       395  -9.2390      7.0346    103.3221   1.1919241353e+02   5.3978277782e+01    0.2902984    0.1950933  75.35  0.000986228    1.712    0.416
       396  -9.5252    128.4416    102.2272   7.5527942540e+01   3.6591171129e+01     0.321019    0.2747243 -67.25 0.0008166062    1.388    0.280
       397  -9.0193     42.7701    109.4195   1.0641928331e+02   4.9582047006e+01    0.3197345    0.1453865   9.37  0.001137005    3.098    0.677
       398  -8.0915    175.4346    102.1886   6.4543491518e+01   2.6275561000e+01    0.2109676    0.1305302 -49.11 0.0005442207    1.692    0.409
       399  -8.2191    159.8007    101.1014   6.7521387883e+01   2.9893465342e+01    0.2288776    0.1988827 -60.32  0.000507414    1.265    0.210
       400  -9.4721     82.1385    100.2294   8.9490511889e+01   4.6273339382e+01    0.3683667    0.2782961 -65.37 0.0009178257    1.583    0.368
       401 -10.2900     63.8577     95.9307   9.5092790589e+01   5.0254226557e+01    0.7428037      0.45635 -77.37  0.001622535    2.720    0.632
       402  -8.7304     65.1532     87.6743   9.2286588047e+01   5.2011277453e+01    0.5036546    0.2212377  18.05  0.001564993    3.701    0.730
       403  -9.5564     94.9985     96.9350   8.4128337548e+01   4.4662859493e+01    0.4429474    0.2509682 -52.32 0.0007252622    1.912    0.477
       404  -8.7029    151.3091     95.6503   6.7954225981e+01   3.2817364671e+01    0.3196406    0.2199193  11.00  0.001327666    2.142    0.533
       405  -8.2114    164.8493     94.0865   6.4571785137e+01   3.0063632671e+01    0.2265121    0.1945978 -62.61 0.0004586147    1.278    0.218
       406  -9.2719    139.0109     92.3923   6.9981270382e+01   3.6217726255e+01    0.3799357    0.2779703 -77.75  0.000720969    2.058    0.514
       407  -8.1251    176.3277     93.0690   6.2024986019e+01   2.7696851730e+01    0.2102539    0.1759066 -43.35 0.0006134217    1.155    0.134
       408 -10.3728    123.6042     91.3346   7.3724688152e+01   3.9879834827e+01    0.7221987    0.4288486  39.98   0.00163276    1.684    0.406
       409  -9.3946      4.9708     92.1621   1.1843465069e+02   5.6900005571e+01    0.3408844    0.2017014  63.16  0.001255728    2.209    0.547
       410  -8.0602    157.6468     91.8043   6.5481495529e+01   3.2098847944e+01       0.2148    0.1332584 -47.06 0.0003190524    1.666    0.400
       411  -9.6905     34.7475     89.7881   1.0540630225e+02   5.5361819507e+01     0.498447    0.2995363  89.54   0.00168698    2.728    0.633
       412  -8.9793     23.0837     89.9676   1.1042383652e+02   5.6339530193e+01    0.3093292     0.229242  16.74  0.001323767    1.459    0.315
       413  -8.1629    150.8593     89.1630   6.6251395180e+01   3.4126785174e+01    0.2279503    0.2020401 -64.02 0.0005644488    1.239    0.193
       414 -10.1987     86.6943     86.1938   8.3769978349e+01   4.8625471107e+01    0.7030061    0.4696724 -53.81  0.002246152    1.673    0.402
       415  -9.7613     48.4336     83.9068   9.8075077629e+01   5.5251082140e+01    0.6027879    0.4186805 -78.62  0.002210656    2.039    0.510
       416  -8.8028    196.7891     85.5663   5.6581106203e+01   2.4526940390e+01    0.2701769    0.1807076 -15.61 0.0008251221    1.919    0.479
       417  -9.6559    100.3287     85.3989   7.8904459527e+01   4.6093685018e+01    0.2736598    0.2653228  15.61 0.0003563416    1.060    0.057
       418  -9.8426    104.6981     83.2541   7.6839612492e+01   4.5620099326e+01    0.4834902     0.368706 -65.11  0.001037034    1.721    0.419
       419  -7.5195    179.2946     85.6833   5.9559735653e+01   2.8299898787e+01    0.1450783    0.1084646 -67.62 0.0003635088    1.604    0.377
       420  -8.5192    157.9865     84.0617   6.3268576754e+01   3.3404027110e+01    0.2238885     0.215752 -41.19 0.0004887753    1.032    0.031
       421  -9.1994    140.8905     82.6857   6.6705854769e+01   3.7606097654e+01    0.3318482    0.2127191 -42.29 0.0009692592    1.583    0.368
       422  -8.8919     46.5562     92.7790   1.0118325865e+02   5.3339330051e+01    0.4858056    0.2103938  13.30  0.001680759    3.230    0.690
       423  -8.5152     63.8741     82.5482   9.1279316548e+01   5.3387595584e+01    0.2366269    0.1744013 -53.81 0.0005272347    1.426    0.299
       424  -9.2948     10.1469     81.2786   1.1438878861e+02   5.9343798658e+01    0.4183668    0.2189642  49.91  0.001834202    2.655    0.623
       425  -9.2724    249.8036     81.3966   4.8760872985e+01   1.4979649417e+01    0.2422725   0.07325934 -37.95  0.001018767    2.570    0.611
       426  -8.3525    150.3035     80.6692   6.3960543855e+01   3.5777713907e+01    0.2702698    0.1745861 -49.27 0.0007520601    1.660    0.398
       427  -8.7018    119.1990     80.4240   7.1641343892e+01   4.3000495193e+01    0.2936425      0.20005 -57.58 0.0007000013    1.843    0.458
       428  -8.7446     74.7916     80.7622   8.6444109624e+01   5.1980078189e+01    0.2889398    0.2120266 -60.70  0.001053919    1.662    0.398
       429  -8.3430    166.8547     79.6611   6.0269641971e+01   3.2115363467e+01    0.2410532    0.1895712 -27.35 0.0005177947    1.323    0.244
       430  -8.3250    184.2065     78.3111   5.6800538748e+01   2.8411045729e+01    0.2215511    0.0935953 -44.14 0.0005400007    2.298    0.565
       431  -9.3673    128.1736     75.4285   6.7666727340e+01   4.1871540970e+01    0.3949101    0.2628616 -59.00 0.0006836042    1.952    0.488
       432  -8.4994    140.5667     75.6112   6.4681469401e+01   3.8940405339e+01    0.2863747    0.2075691 -74.20 0.0007320833    1.938    0.484
       433 -10.0390     62.9719     73.5211   8.8812069092e+01   5.5534555389e+01    0.4969876     0.300943 -57.34  0.001130997    1.966    0.491
       434  -8.2628    163.2974     73.5356   5.9262062518e+01   3.3947597731e+01    0.2662103    0.1614996 -45.86 0.0009193831    1.674    0.403
       435  -9.6451     82.4520     72.7813   8.0964519660e+01   5.2256418961e+01    0.4022325    0.3046761 -66.74 0.0009961745    1.852    0.460
       436  -7.9634    175.3988     72.7636   5.6842871844e+01   3.1274005516e+01    0.1850639    0.1351286 -24.34 0.0004157769    1.496    0.332
       437  -8.4796    151.4271     73.2577   6.1573543971e+01   3.6780790208e+01    0.2057627    0.1352735 -47.26 0.0007187353    1.590    0.371
       438  -8.4015    115.7900     73.1220   7.0282654248e+01   4.5136408700e+01    0.2258299    0.2078682 -74.61 0.0005880473    1.266    0.210
       439  -9.1639    106.0378     72.0139   7.2790224153e+01   4.7522870674e+01    0.3266301    0.2402345 -61.25 0.0008167623    1.784    0.439
       440  -9.2822     95.2362     71.2850   7.5991831370e+01   4.9982987625e+01    0.3681375    0.2484975 -54.82 0.0008352085    1.837    0.456
       441  -8.6669     42.7391     72.9406   9.7429050438e+01   5.8506862048e+01    0.2467246    0.1980461 -69.85 0.0007317709    1.525    0.344
       442  -9.5815     51.3506     69.7201   9.2554049868e+01   5.8104548029e+01    0.4413202    0.2948867 -73.25  0.001423073    2.409    0.585
       443  -9.1383     30.0141     70.1083   1.0254005169e+02   6.0539653556e+01    0.5249906    0.2314841 -17.47  0.001738539    3.948    0.747
       444  -8.9899     16.7621     70.0740   1.0891867866e+02   6.1641424385e+01    0.3252534    0.1885965 -79.72  0.001271504    2.240    0.554
       445  -8.6256    146.9886     68.4415   6.1098482192e+01   3.8626762831e+01    0.2636942    0.1989369 -54.44   0.00052609    1.452    0.312
       446  -8.5164    138.4309     66.1770   6.2301768230e+01   4.1038234361e+01    0.2755747     0.208806 -65.91 0.0007715221    1.624    0.384
       447  -8.6880    121.6782     66.1972   6.6418547746e+01   4.5003070145e+01    0.3224833    0.2405869 -65.73 0.0008688289    1.770    0.435
       448  -8.6523     84.1263     64.8726   7.7613267393e+01   5.3481889781e+01    0.4842584    0.2587703  11.11  0.001318668    5.240    0.809
       449  -8.8557     64.3512     63.6048   8.4851057811e+01   5.7383379001e+01    0.5169522    0.3033394  -0.21  0.001954859    2.812    0.644
       450  -8.7127     37.3506     64.3450   9.7299808843e+01   6.1072061746e+01    0.2644816    0.2249692  67.96 0.0008773371    1.670    0.401
       451  -9.6253     24.7096     80.6704   1.0769609830e+02   5.8501596896e+01    0.4447282    0.2860445  81.76  0.001273436    2.416    0.586
       452  -8.8844    110.1087     63.7589   6.8800132448e+01   4.8095495029e+01    0.2838084     0.235251 -59.19 0.0006320673    1.445    0.308
       453  -9.4144     97.6211     60.6866   7.1527739277e+01   5.1419428881e+01    0.3305882     0.301846  61.20 0.0009339257    1.233    0.189
       454  -8.0412    158.0392     61.9656   5.6975762561e+01   3.7006441899e+01    0.1673756    0.1622875  85.58 0.0002971384    1.004    0.004
       455  -8.0546     51.7609     62.2483   8.9851151817e+01   5.9644273553e+01     0.225461    0.1140578  17.54 0.0006293114    2.452    0.592
       456  -9.7073     73.3302     59.5333   7.9732172100e+01   5.6579597350e+01    0.4131927    0.2637903 -52.03  0.001144786    1.920    0.479
       457  -8.5395    147.1276     59.6889   5.8439287995e+01   3.9971609451e+01    0.2653219    0.1813639 -43.09  0.001280851    1.506    0.336
       458  -7.8188    164.6470     59.7007   5.5130656790e+01   3.5772613710e+01    0.1454892    0.1071168  28.64 0.0007036797    1.696    0.410
       459  -7.8948     89.0190     59.5283   7.3963263235e+01   5.3464665642e+01    0.2166422    0.1400977  44.74 0.0005285507    1.495    0.331
       460  -9.8414     23.4899     56.5438   1.0180309816e+02   6.4204792621e+01    0.4599601    0.3140484  83.40  0.002129954    2.766    0.638
       461  -8.2890    130.6893     57.9257   6.1482484617e+01   4.4209148665e+01    0.2012092    0.1857585 -42.84 0.0004536308    1.141    0.124
       462  -9.4510      7.4208     57.1422   1.1048236795e+02   6.5216910695e+01    0.2826574    0.2194092  76.76  0.001051509    1.790    0.441
       463  -9.3894    119.1208     55.9459   6.3672252896e+01   4.7283523528e+01    0.3617696    0.2300961 -49.60 0.0009849459    1.842    0.457
       464  -7.9581    140.1223     56.1503   5.8810352289e+01   4.2199884585e+01    0.1987233    0.1662315 -64.88 0.0003904076    1.331    0.249
       465  -9.1994     54.1647     55.1470   8.6177423345e+01   6.0717964243e+01    0.3084385    0.2360364 -59.83  0.000965429    1.736    0.424
       466  -8.8246     43.9848     55.0538   9.0915298351e+01   6.2219055212e+01    0.3568324    0.1935914 -54.81  0.001378173    2.134    0.531
       467  -8.4470    105.8161     53.2997   6.6386183336e+01   5.0811039945e+01    0.2391625    0.1988501 -49.25 0.0006174571    1.373    0.272
       468  -9.5324     92.3674     50.6433   6.9538644889e+01   5.4255104547e+01     0.385927    0.2460824 -44.76  0.001208222    1.793    0.442
       469  -8.3920     75.0802     51.7064   7.6075169522e+01   5.7665152718e+01    0.3242991    0.1651052  22.22  0.001155261    2.973    0.664
       470  -8.6161    144.8614     49.1185   5.5657672355e+01   4.2061111238e+01    0.2166129    0.1867795 -69.62 0.0004885953    1.244    0.196
       471  -8.0480    129.9293     49.2976   5.8837634620e+01   4.5679662216e+01    0.2015817    0.1821675  54.06 0.0003841106    1.038    0.037
       472  -8.8728    120.9600     47.6781   6.0386180162e+01   4.8084236103e+01    0.2341902    0.2061574 -27.55 0.0005446332    1.213    0.175
       473  -8.3825    112.1807     46.7799   6.2291407242e+01   5.0313476284e+01    0.2450308    0.1890332 -42.93 0.0007432371    1.429    0.300
       474  -9.0417     82.0792     46.5649   7.1461338944e+01   5.7109713079e+01    0.2719322    0.2364775 -44.78 0.0006283015    1.349    0.259
       475  -8.3734     44.9504     44.7566   8.6455046711e+01   6.4090657931e+01    0.2332498    0.1799083 -33.61 0.0005790742    1.257    0.204
       476  -8.6905     16.5962     44.8160   1.0175460103e+02   6.7305628610e+01    0.2137922    0.1911301  83.29 0.0006764763    1.623    0.384
       477  -8.9080    132.7540     43.4486   5.6298692604e+01   4.5799575399e+01    0.2687959    0.2104864 -68.34 0.0008357202    1.503    0.335
       478  -8.6465     92.9130     43.1386   6.6483470652e+01   5.5293294135e+01    0.2808182    0.1823777   6.57  0.001232844    2.117    0.528
       479  -9.0894     58.1713     42.6860   7.9386802599e+01   6.2345102057e+01    0.3199942    0.2254324 -58.52  0.001222524    2.183    0.542
       480  -9.2211     69.6745     41.6177   7.4102702478e+01   6.0402216869e+01    0.3491775    0.2406964 -53.59 0.0009637923    2.042    0.510
       481  -9.7034      5.2066     42.0346   1.0753090488e+02   6.8670455709e+01    0.3338509    0.2187616 -78.11  0.001460638    2.074    0.518
       482  -8.5763    106.0164     41.4070   6.1985015933e+01   5.2531804492e+01    0.2567144    0.1950237 -49.63 0.0006300831    1.554    0.357
       483  -7.7336    140.2771     41.6503   5.4205164114e+01   4.4189184571e+01    0.1440164    0.1042924 -65.86 0.0004229847    1.639    0.390
       484  -8.5682     36.7159     40.8337   8.9047626301e+01   6.5961329285e+01    0.2195808    0.1825768 -54.25 0.0006260643    1.552    0.355
       485  -8.7570     95.6044     38.0932   6.3686706428e+01   5.5404207525e+01    0.2267897     0.193639  62.75 0.0007068703    1.264    0.209
       486  -8.1101     80.7102     36.9803   6.8043174990e+01   5.8853441127e+01    0.1924348    0.1755886  -7.00 0.0004769502    1.133    0.117
       487  -9.4556     26.1741     35.4528   9.2626736728e+01   6.8247694521e+01    0.3142318    0.2430794 -58.85 0.0009342898    1.732    0.423
       488  -8.0091    125.8062     35.7883   5.5200929890e+01   4.8492926370e+01    0.1796533     0.158862 -76.50 0.0003511339    1.248    0.199
       489  -8.8480    111.8951     34.4113   5.7883297131e+01   5.2052796403e+01     0.307771    0.1750528 -39.18  0.001372159    1.936    0.483
       490  -9.0552     48.4677     33.3615   7.9784484017e+01   6.5530698518e+01    0.2634942    0.2299968 -39.21 0.0007880076    1.406    0.289
       491  -8.3845    119.0143     33.1874   5.5777316011e+01   5.0475597176e+01    0.2081897    0.1820215 -86.04 0.0005058836    1.276    0.216
       492  -8.7358     60.4242     32.6714   7.4012693095e+01   6.3545369698e+01    0.2419499    0.2212176  85.77 0.0007191027    1.640    0.390
       493  -9.0203     71.9747     30.9671   6.8614554979e+01   6.1525279883e+01    0.2817416    0.1905175 -45.12 0.0008970578    1.863    0.463
       494  -7.5465    139.3112     31.6539   5.1196007594e+01   4.5658232136e+01    0.1442763    0.1006062 -67.83 0.0007045809    1.709    0.415
       495  -8.9497     12.9092     30.1704   9.8500256020e+01   7.0545216443e+01    0.2985106    0.1803982 -62.97  0.001220316    2.221    0.550
       496  -8.4261    101.4888     29.5177   5.8675619737e+01   5.5137546729e+01     0.214419    0.1259458 -40.43  0.000632211    1.945    0.486
       497  -7.8168     42.2846     29.6975   8.1167138956e+01   6.7102669028e+01    0.1129778    0.1088314  62.48 0.0002760607    1.557    0.358
       498  -9.0276     81.4176     27.6263   6.3828833093e+01   5.9956075145e+01    0.2695207    0.2181066 -74.61 0.0008511467    1.841    0.457
       499  -8.7992      3.5635     27.5267   1.0358892957e+02   7.1737684620e+01    0.2533193    0.1857906 -76.21  0.001024302    2.024    0.506
       500  -9.0565    128.2575     26.5579   5.1559611400e+01   4.8968036802e+01    0.2626418    0.2132151 -89.48 0.0008707878    1.318    0.241
       501  -7.6286     88.6844     34.3394   6.4306146403e+01   5.7477382499e+01    0.1358774    0.1124717 -76.69 0.0007048014    1.703    0.413
       502  -9.2156     91.7775     26.3088   6.0072740760e+01   5.7785325760e+01    0.3349296    0.1881988 -38.39   0.00113786    2.032    0.508
       503  -8.3487    104.2072     23.1400   5.5506434983e+01   5.5216909591e+01    0.1839057    0.1603395 -85.59 0.0005145514    1.340    0.254
       504  -8.0574     34.9213     23.4412   8.2055527305e+01   6.9192568305e+01    0.1653905    0.1078706  51.59  0.000806622    2.476    0.596
       505  -8.9668     63.6003     21.1227   6.7296224658e+01   6.4509275977e+01    0.2852737    0.2183894 -55.06   0.00100043    1.970    0.492
       506  -8.9362     48.4645     21.7851   7.4216203683e+01   6.7267865723e+01    0.2122306    0.2023125  37.84 0.0006502877    1.406    0.289
       507  -7.5736    120.7175     21.3477   5.1220251725e+01   5.1383433898e+01    0.1365173    0.1002846 -66.30 0.0006058837    1.646    0.392
       508  -8.0220     19.4486     21.3168   9.0280933160e+01   7.1514363485e+01    0.1545442    0.1157346 -45.55 0.0009347701    1.564    0.361
       509  -8.9752     73.9975     19.3997   6.2653867902e+01   6.2548803452e+01     0.260316    0.1810808 -43.40 0.0008837085    1.825    0.452
       510  -8.4567     87.9744     17.5047   5.7459132077e+01   5.9632527501e+01     0.230971    0.1823061 -44.44 0.0004939523    1.546    0.353
       511  -7.7555     38.5555     18.5170   7.7535329522e+01   6.9373689869e+01    0.1312822    0.1060383   7.45 0.0001354058    1.007    0.007
       512  -8.2496    233.5479     17.5237   3.7056441629e+01   2.5903235966e+01    0.1136864   0.09158185 -62.84 0.0001837574    1.019    0.019
       513  -7.8807    112.9939     16.9547   5.1190493687e+01   5.3718190793e+01    0.1609564    0.1440294  53.60 0.0003892647    1.029    0.029
       514  -7.7683      1.7670     17.0207   1.0047502440e+02   7.3842006798e+01    0.1528421   0.08669101 -48.22 0.0006591526    1.605    0.377
       515  -8.3586     30.0320     16.0223   8.0977704737e+01   7.1013221924e+01    0.1662101      0.16093  49.14 0.0007101366    1.652    0.395
       516  -8.5303    218.6441    247.5143   8.5384306887e+01  -5.1288510695e+00    0.2978455     0.126704 -39.71  0.001556616    2.625    0.619
       517  -7.8751      7.3983     15.6929   9.5728189813e+01   7.3651652151e+01    0.1105793   0.09128067  41.95 0.0002722452    1.840    0.457
       518  -8.0322     17.1806     14.2025   8.8102240252e+01   7.2933229177e+01    0.1528239    0.1376124   2.72  0.000495155    1.355    0.262
       519  -7.5641    245.7123     11.7161   3.5157388001e+01   2.4206587155e+01   0.08956963   0.08395321  44.67 0.0002947402    1.528    0.345
       520  -7.8345    120.0480     11.5332   4.7870212311e+01   5.2484800679e+01    0.1746094    0.1057665 -81.47 0.0003540543    2.169    0.539
       521  -9.0627    175.5702    247.6437   9.3736484499e+01   6.8478182692e-02    0.2549061    0.2298487  63.29  0.001302748    1.909    0.476
       522  -9.0541    156.2247    247.7596   9.7758827662e+01   2.5687669152e+00    0.2941419    0.2184303 -29.45  0.001115069    1.470    0.320
       523  -8.7949    132.3539    248.3584   1.0294091287e+02   5.6440856777e+00    0.2524903    0.1614569  56.00 0.0006946345    2.250    0.556
       524  -8.3087    113.1775    248.7382   1.0716474710e+02   8.1191834994e+00    0.2035628    0.1470464 -84.96 0.0009786309    2.137    0.532
       525  -9.3008    103.8008    246.8512   1.0901537674e+02   9.6744097692e+00     0.393948    0.2396573 -83.27  0.001983147    2.802    0.643
       526 -10.0419    223.9364    244.4082   8.3940154222e+01  -5.3275832262e+00    0.4535426    0.2169532 -42.55  0.002420238    2.724    0.633
       527  -9.0355    210.9376    246.6759   8.6679135214e+01  -4.1359465913e+00    0.1714778    0.1558818 -10.43 0.0007294196    1.594    0.373
       528  -9.0515    147.3607    246.1560   9.9422175366e+01   3.9983519513e+00    0.3132264    0.2159488  62.33  0.001625967    2.636    0.621
       529  -8.6894    139.4659    244.4454   1.0089559700e+02   5.3360740898e+00    0.2168262     0.187275  79.11  0.001108637    1.763    0.433
       530  -9.5032    120.2329    245.1942   1.0519991602e+02   7.7950524523e+00     0.395579    0.2865475 -85.92  0.001928713    2.254    0.556
       531  -8.4154     10.2326    245.9537   1.2887103528e+02   2.0314470322e+01    0.1376769   0.08219179 -89.07 0.0008840177    1.655    0.396
