#   1 NUMBER                 Running object number                                     
#   2 MAG_AUTO               Kron-like elliptical aperture magnitude                    [mag]
#   3 X_IMAGE                Object position along x                                    [pixel]
#   4 Y_IMAGE                Object position along y                                    [pixel]
#   5 X_WORLD                Barycenter position along world x axis                     [deg]
#   6 Y_WORLD                Barycenter position along world y axis                     [deg]
#   7 A_WORLD                Profile RMS along major axis (world units)                 [deg]
#   8 B_WORLD                Profile RMS along minor axis (world units)                 [deg]
#   9 THETA_WORLD            Position angle (CCW/world-x)                               [deg]
#  10 FWHM_WORLD             FWHM assuming a gaussian core                              [deg]
#  11 ELONGATION             A_IMAGE/B_IMAGE                                           
#  12 ELLIPTICITY            1 - B_IMAGE/A_IMAGE                                       
         1 -11.6762    225.2392      6.5040   1.7702173825e+01   2.7395180784e+01     1.316017    0.3373029  59.61  0.002879787    3.313    0.698
         2 -13.3853    201.1701     24.7879   2.5625763945e+01   3.1555290275e+01     1.316717    0.4700146 -41.07  0.004689222    2.729    0.634
         3 -14.0452    212.2643     26.6031   2.4656542688e+01   2.8408101006e+01    0.8535811    0.6461962 -54.83  0.002305042    1.321    0.243
         4 -14.2464    216.9184     36.6500   2.6847990881e+01   2.5889291625e+01     1.508839    0.5031288 -26.95  0.004974089    3.206    0.688
         5 -16.0177    232.1263     33.5029   2.4051848695e+01   2.2416333259e+01     2.599286     1.264023 -15.26  0.009628668    2.997    0.666
         6 -18.1496    242.7149     48.2797   2.6601757384e+01   1.7792060355e+01     10.27475      6.68189 -20.95   0.03639618    1.697    0.411
         7 -14.9448    247.9708      6.2999   1.5550735018e+01   2.1792996322e+01     1.132516    0.5515239 -51.54  0.005254095    1.926    0.481
         8 -12.7380    135.2327     15.7515   3.3976920871e+01   4.9710492204e+01    0.3640357    0.2001211   1.05  0.001460296    2.581    0.613
         9 -11.9448    157.9785      5.9415   2.6181207273e+01   4.5039527735e+01    0.3470069    0.2951336  20.03  0.001184037    1.241    0.194
        10 -12.0592    144.3533     11.9033   3.0712746933e+01   4.7891544660e+01    0.2508799    0.1945131  73.37 0.0009657822    1.366    0.268
        11 -12.6840    127.9953     11.0161   3.3742556758e+01   5.1963696250e+01    0.3013507    0.2011098  -8.70 0.0006050862    1.622    0.383
        12 -13.1098    119.9614      7.9489   3.4339186964e+01   5.4154838986e+01    0.4086072    0.2961408 -77.93  0.001724037    2.091    0.522
        13 -11.2736    210.8072      2.4863   1.8109541675e+01   3.1526594459e+01     0.228793    0.1916271  -0.23 0.0008266415    1.454    0.312
        14 -14.6046    225.0105     70.1049   3.4822664755e+01   1.8923989545e+01     1.019529    0.5475823  55.37  0.002959824    1.880    0.468
        15 -12.4876    232.4639    186.2818   6.0603479792e+01  -9.2382677509e-01    0.3820522    0.1888472  53.23  0.001602353    2.380    0.580
        16 -12.7281    192.3029    194.0225   6.9279173170e+01   5.5369737561e+00    0.8500755    0.4256701 -62.72  0.002710422    5.958    0.832
        17 -14.7852    193.5425     83.1694   4.3880433591e+01   2.4696258652e+01     2.282303     0.936932  39.03  0.006966866    3.399    0.706
        18 -14.6983      8.3893    166.9052   1.0184063660e+02   3.8756560216e+01    0.7711102    0.5325264  86.78  0.003817578    1.028    0.027
        19 -11.5439    136.0000    128.6497   6.8249774253e+01   2.9116859412e+01    0.7149673   0.08328366 -47.87  0.001400633    8.630    0.884
        20 -11.2521    135.0154    120.4909   6.6631270181e+01   3.1059127958e+01    0.4462289    0.1816557 -47.56  0.001505059    2.444    0.591
        21 -12.1085    224.2379    129.0845   4.9928823435e+01   9.4110320876e+00    0.3763551    0.2817047 -66.40  0.001786171    1.868    0.465
        22 -11.8338    218.9069    128.6863   5.0805076427e+01   1.0660868027e+01    0.2859667    0.2574491 -49.99 0.0007335954    1.218    0.179
        23 -12.4638    160.8713    128.6454   6.2582172789e+01   2.3814858426e+01     0.419416    0.3432185 -58.09  0.001743512    1.288    0.223
        24 -12.0158    214.6304    127.3520   5.1280629892e+01   1.1846986701e+01    0.2969888    0.2320905 -47.49  0.001490244    1.381    0.276
        25 -12.7016    228.4303    122.8180   4.7695776867e+01   9.5132548688e+00    0.3442084    0.2935935  46.08  0.000927628    1.194    0.162
        26 -11.5787    218.7198    171.1091   6.0104432443e+01   3.8728917700e+00    0.2349402    0.1774967  50.65 0.0005269314    1.358    0.264
        27 -11.9085    218.0726    122.2943   4.9431582304e+01   1.1929611321e+01    0.2779016    0.2141584 -43.00 0.0005351517    1.339    0.253
        28 -12.1325    198.9828    162.5309   6.2079235026e+01   9.2552904561e+00    0.4241067    0.2769904 -78.92  0.001614475    3.465    0.711
        29 -14.2324    206.0027    110.5303   4.8776943957e+01   1.6780733957e+01     1.040332    0.6393769  31.52  0.003862323    1.991    0.498
        30 -12.7628    167.8655    115.2505   5.7804664399e+01   2.4913255130e+01    0.5003231    0.4173076   9.48  0.001990384    1.461    0.315
        31 -11.7776    135.0000    110.9466   6.4346139133e+01   3.3098370766e+01    0.7212338     0.215086 -42.74  0.002165924    3.527    0.716
        32 -11.4290    134.6042    104.1916   6.2738852753e+01   3.4614215547e+01    0.5171875    0.1769764 -40.38  0.001621463    3.201    0.688
        33 -11.4572    134.2848     99.4227   6.1572042027e+01   3.5685713649e+01    0.3746414    0.2606631 -62.04 0.0007762812    1.633    0.388
        34 -11.1639    160.9704    113.0380   5.8782609572e+01   2.6942090379e+01    0.2235018    0.2185775  71.08            0    1.008    0.007
        35 -13.1442    191.2324    151.4821   6.1291643922e+01   1.2803213077e+01    0.7326756    0.3186714 -56.08  0.002246466    4.375    0.771
        36 -12.9866    127.1660    105.6135   6.4950040116e+01   3.5861007567e+01    0.6137184     0.388933 -71.25   0.00250961    2.226    0.551
        37 -13.6847     67.6089    142.8246   8.7005490170e+01   3.7537559390e+01     1.010428     0.788234  65.77  0.004879509    1.232    0.188
        38 -13.4210     39.8531    153.2308   9.4428108496e+01   3.8582080334e+01    0.3621928    0.3137498  14.67   0.00149431    1.781    0.439
        39 -11.4082    148.0899    104.0424   5.9442925482e+01   3.1697704831e+01    0.3279359    0.2898622  26.00 0.0006610156    1.248    0.199
        40 -13.1123    159.3455     98.8518   5.5443770405e+01   3.0161090093e+01    0.8248771    0.5185969  28.46  0.003272983    2.157    0.536
        41 -12.8490    197.3625     97.8065   4.7134109479e+01   2.1142289704e+01    0.4718181    0.3021414 -42.83  0.001288962    1.567    0.362
        42 -13.5122    172.8437     93.0643   5.0863713706e+01   2.8048261988e+01    0.9072047    0.6501103  29.44  0.003996739    1.662    0.398
        43 -11.6977    141.6375     94.2853   5.8373807421e+01   3.5142638392e+01    0.3119445    0.2718062  75.40 0.0006793595    1.255    0.203
        44 -12.0428    113.4193     94.9171   6.5742728655e+01   4.0883583028e+01    0.2706058    0.2204172  34.95 0.0004989993    1.349    0.259
        45 -12.8702    156.4055     90.7147   5.3873533103e+01   3.2460266878e+01    0.3630696    0.2876801 -35.53  0.001514904    1.278    0.217
        46 -11.2559    140.4034     85.8126   5.6291973380e+01   3.7131332742e+01    0.2187665    0.1456898 -30.33 0.0008464321    1.649    0.393
        47 -12.6346    130.2401     66.0240   5.2851902210e+01   4.3235867937e+01    0.3625501    0.3506097  -0.68  0.001013866    1.027    0.026
        48 -12.0648    138.9286     63.1303   4.9739010779e+01   4.1789295602e+01     0.336425     0.231067 -74.38  0.001375429    2.286    0.563
        49 -14.1539     47.5223    149.4218   9.2360793580e+01   3.8556494907e+01    0.7197632    0.5413675 -86.54  0.002604952    1.070    0.065
        50 -13.5887     54.3933    146.8745   9.0540208091e+01   3.8310632392e+01    0.6337959    0.3665724 -81.60   0.00167157    1.596    0.374
        51 -12.3629    205.9872     48.7473   3.1869608170e+01   2.7043949152e+01    0.4219537    0.4020632   3.83  0.001289857    1.138    0.121
        52 -12.1233    191.9578     45.4024   3.3167264114e+01   3.1225700790e+01     0.454249    0.2648392 -41.39    0.0010744    1.716    0.417
        53 -12.1290    172.9892    150.4684   6.4794093382e+01   1.6909233472e+01     0.283439    0.2102016 -63.83  0.001383259    1.625    0.385
        54 -11.2962    205.2723     37.4377   2.8717929797e+01   2.8829412214e+01    0.3185961    0.2291899  85.66  0.001298874    1.516    0.340
        55 -11.2445    134.0000    147.0412   7.2531652643e+01   2.5633841009e+01    0.6745546    0.1634321 -52.79  0.001911735    4.632    0.784
        56 -11.2233    133.0000    140.9960   7.1556223879e+01   2.7098980228e+01    0.6589076    0.1636274 -51.91   0.00189812    4.326    0.769
        57 -11.6092    190.0507     35.4877   3.0484621466e+01   3.3123928983e+01    0.2635104    0.2155498 -29.89 0.0005183959    1.262    0.208
        58 -10.9773    166.1152     33.8269   3.4129359341e+01   3.9661567260e+01    0.2210338    0.2017649 -76.89  0.000376372    1.173    0.148
        59 -12.1739    158.6828     28.7081   3.3835634163e+01   4.2265275908e+01    0.4746176    0.2793969  61.62  0.002091719    1.651    0.394
        60 -12.9467    134.1137     27.9031   3.8724608943e+01   4.8479582929e+01    0.3592431    0.2444942 -19.76 0.0009558161    1.536    0.349
        61 -12.9476    209.6322    186.9346   6.4813174644e+01   3.2827240026e+00    0.4815111    0.3532806 -72.60  0.002437131    2.375    0.579
        62 -10.4254    218.2270     20.0289   2.2090580287e+01   2.7659721570e+01    0.1883509    0.1668098 -48.00 0.0003294709    1.116    0.104
        63 -10.3028    150.3184     19.3280   3.2210973400e+01   4.5560207713e+01    0.1554743    0.1026318  29.71  0.000704669    1.682    0.405
        64 -11.6684    119.2442     18.4198   3.8656420943e+01   5.3137771891e+01    0.1896349    0.1347293  67.08  0.000951059    1.649    0.394
        65 -10.6981    206.1871     13.6370   2.1755011371e+01   3.1543456901e+01    0.1855123    0.1670205  69.39  0.000391318    1.078    0.072
        66 -15.0533    172.6562     79.8973   4.7168440082e+01   3.0546111272e+01     1.598397     1.273272  -8.11  0.001895839    1.499    0.333
        67 -13.3714    217.2775    188.6351   6.3739357629e+01   1.5831118779e+00    0.4311439    0.3306181  32.14  0.002420463    1.137    0.120
        68 -10.4376     79.4496     12.5157   4.7466100221e+01   6.1888145178e+01     0.129577    0.1083061   0.57 0.0001114501    1.016    0.016
        69 -15.6839    208.6534     76.1274   3.9154550119e+01   2.2067087494e+01     2.352568     1.616547 -73.72  0.009973394    1.987    0.497
        70 -13.3204    247.4283    184.9640   5.7780317889e+01  -3.4573669817e+00    0.5151851    0.4093137  75.38  0.002874437    2.198    0.545
