#   1 NUMBER                 Running object number                                     
#   2 MAG_AUTO               Kron-like elliptical aperture magnitude                    [mag]
#   3 X_IMAGE                Object position along x                                    [pixel]
#   4 Y_IMAGE                Object position along y                                    [pixel]
#   5 X_WORLD                Barycenter position along world x axis                     [deg]
#   6 Y_WORLD                Barycenter position along world y axis                     [deg]
#   7 A_WORLD                Profile RMS along major axis (world units)                 [deg]
#   8 B_WORLD                Profile RMS along minor axis (world units)                 [deg]
#   9 THETA_WORLD            Position angle (CCW/world-x)                               [deg]
#  10 FWHM_WORLD             FWHM assuming a gaussian core                              [deg]
#  11 ELONGATION             A_IMAGE/B_IMAGE                                           
#  12 ELLIPTICITY            1 - B_IMAGE/A_IMAGE                                       
         1 -14.4128    157.3345     49.1545   8.6429018491e+01   3.9484280022e+01     1.688504     1.198923  14.74  0.005697011    1.788    0.441
         2 -14.3532    169.2854     33.2089   7.8807037247e+01   3.8702046397e+01     1.090919    0.9470385 -14.15  0.003431099    1.152    0.132
         3 -13.3079    172.8255     26.2218   7.5822169459e+01   3.8655624993e+01    0.6004024    0.4397548   1.08  0.001325498    1.533    0.348
         4 -11.9706    189.5942     14.8029   6.9553989704e+01   3.5496223333e+01    0.2861715    0.2410668 -69.13  0.000883504    1.270    0.213
         5 -13.3053    184.6984      2.8172   6.6152787226e+01   3.7976436987e+01    0.8722972    0.4118131  69.15  0.003339535    2.068    0.516
         6 -11.3554      1.4579    228.9969   1.4715687369e+02   3.0260445311e+01    0.1098083   0.06565685 -88.19 0.0009697252    1.517    0.341
         7 -19.2586     65.2920    241.8953   1.3839005273e+02   2.1924520888e+01     5.314129     3.236547  49.76    0.0405293    1.243    0.195
         8 -14.0257    196.2505    195.7594   1.1263064559e+02   9.0567535613e+00     0.637059    0.5092368  51.65  0.001636286    1.286    0.222
         9 -12.6818    207.6543    185.4967   1.0918068421e+02   8.3293694925e+00    0.3499486    0.2557811  19.46  0.001224823    1.339    0.253
        10 -12.4228    212.0728    181.5600   1.0781962885e+02   8.0272822186e+00    0.2934937    0.2303016  -4.37  0.001133292    1.363    0.266
        11 -10.9651    157.8007    185.0760   1.1756646412e+02   1.6902601267e+01    0.1784988     0.145318  66.19 0.0008048911    1.292    0.226
        12 -10.5117    123.9004    185.1500   1.2366041895e+02   2.2413586274e+01    0.1797316    0.1313628  64.63 0.0005895564    1.274    0.215
        13 -10.8511    223.9940    184.0080   1.0633391436e+02   5.7287247504e+00    0.1806601    0.1151193  20.87            0    1.548    0.354
        14 -11.9912    198.9091    178.3759   1.0944977445e+02   1.0693362995e+01    0.2691385    0.2580497 -58.51 0.0009041702    1.358    0.263
        15 -10.7360     17.7856    180.5133   1.4264677167e+02   3.6569088580e+01    0.1196772   0.08166194  50.66 0.0004763452    1.354    0.262
        16  -9.8997      1.2145    179.3310   1.4549546383e+02   3.8223543576e+01   0.08368592   0.05883708 -76.11 0.0002645981    1.507    0.337
        17 -11.6098    179.1927    174.8580   1.1223821778e+02   1.4631940574e+01    0.2184677    0.1862785  38.23  0.001367361    1.017    0.017
        18 -11.9284    138.2788    172.0236   1.1921834051e+02   2.2167170212e+01    0.4496911    0.2784939  83.10  0.002194577    2.746    0.636
        19 -12.5398    188.8942    186.8700   1.1248799358e+02   1.1369549468e+01    0.4729948    0.3534125 -52.41  0.002156439    1.792    0.442
        20  -9.8201    211.4310    203.4373   1.1136171089e+02   5.7282867507e+00    0.1119315   0.08735389  33.42 8.410958e-05    1.029    0.028
        21 -11.0968    228.3935    171.1911   1.0342653378e+02   6.3760176096e+00     0.155779    0.1081444 -37.55 0.0009517595    1.757    0.431
        22 -11.7803    144.9828    168.7137   1.1746463194e+02   2.1552576097e+01    0.3640268    0.2247928  53.19  0.001619463    1.468    0.319
        23 -11.3412    165.3190    208.2634   1.1942996847e+02   1.2574380472e+01    0.2170945    0.1730207  49.27 0.0006231055    1.085    0.078
        24 -11.1040    225.4658    166.9315   1.0311985098e+02   7.3683117661e+00    0.1674985    0.1150826 -25.47 0.0006803419    1.563    0.360
        25 -10.1076     25.4002    165.4187   1.4034929523e+02   3.8569376682e+01    0.1670704   0.09689685  32.87  0.001116109    2.066    0.516
        26 -11.7880    104.0548    161.8645   1.2441617913e+02   2.9425677453e+01    0.2050617    0.1815767  78.59 0.0003444394    1.079    0.073
        27 -10.2267     32.8362    161.3728   1.3862158286e+02   3.8591486317e+01     0.127501   0.09742525  33.44 0.0006175542    1.688    0.407
        28 -12.2450     25.1829    156.6651   1.3978879461e+02   4.0230400325e+01    0.4111942    0.1797021  42.04  0.002511903    2.090    0.522
        29 -13.2522    108.1642    154.2892   1.2252119876e+02   3.0158588627e+01     0.556567    0.4279943 -31.57  0.003332206    1.924    0.480
        30 -19.1522     55.5956    100.3733   1.2629051239e+02   4.8564913991e+01     15.81166    0.8618236 -62.60   0.02632188   16.938    0.941
        31 -12.1351    133.8372    145.0412   1.1577010845e+02   2.7495045669e+01     0.865871    0.2267293 -54.82  0.002609633    5.589    0.821
        32 -10.5393    174.5453    148.9769   1.0853579575e+02   1.9241795996e+01    0.2152213    0.1592976  46.58 0.0006507898    1.220    0.181
        33 -10.9108    176.9414    195.8875   1.1583085703e+02   1.2247802130e+01    0.2408721    0.1622204 -74.76  0.001325866    2.853    0.649
        34 -12.4079    115.1831    139.6668   1.1874713050e+02   3.1727170977e+01    0.3934067    0.2628521 -38.27  0.002105164    1.952    0.488
        35 -11.9202     32.9178    141.7622   1.3698998853e+02   4.2377652496e+01    0.3097642    0.1545074  29.20  0.001660298    2.585    0.613
        36 -12.6271    105.1385    139.9246   1.2095250030e+02   3.3335847466e+01    0.2663993    0.2192781  63.77 0.0005919907    1.107    0.097
        37 -12.0026    105.9077    130.6750   1.1922902293e+02   3.5005329228e+01    0.3419147    0.2802907 -69.49   0.00116479    1.199    0.166
        38 -11.5186    108.4769    126.3468   1.1787589306e+02   3.5427438367e+01    0.2409615    0.2159125 -46.02   0.00107537    1.273    0.215
        39 -11.8566    119.6490    130.1094   1.1608181026e+02   3.2770116843e+01    0.3044832    0.2730328 -65.43 0.0009528801    1.138    0.121
        40 -12.8727     92.7817    123.9960   1.2106473841e+02   3.8441052692e+01    0.4141245    0.2738542 -75.88  0.001286828    1.606    0.377
        41 -12.0591    125.8440    127.2961   1.1419030432e+02   3.2194965484e+01    0.5234007    0.2939457  74.07   0.00200569    3.379    0.704
        42 -11.4296    160.4580    127.8358   1.0703882481e+02   2.5428792338e+01    0.2686051    0.2185522  82.22  0.001481771    1.489    0.328
        43 -12.5392     32.3241    126.4456   1.3564457729e+02   4.5540957469e+01    0.3611676       0.2259  64.84  0.001595176    1.472    0.321
        44 -11.6199     25.0098    127.2060   1.3741134493e+02   4.6071984184e+01    0.2600442    0.2184841 -66.39 0.0008364488    1.356    0.263
        45 -10.4917    143.8505    128.3333   1.1054371924e+02   2.8620144393e+01    0.2027135    0.1778479 -70.95 0.0002857047    1.218    0.179
        46 -11.8152    135.5569    123.0327   1.1122273046e+02   3.1182266173e+01    0.3861544    0.1664287 -53.25   0.00155663    2.612    0.617
        47 -11.1315    113.7846    119.0279   1.1526683313e+02   3.5956024197e+01    0.2209809    0.1831626  54.72 0.0003660115    1.172    0.147
        48 -10.6955     25.0404    119.0745   1.3660736539e+02   4.7750935705e+01    0.1711099    0.1330301  86.88 0.0004539115    1.020    0.020
        49 -11.3178    171.7417    117.3783   1.0250474210e+02   2.4856526337e+01    0.4395574    0.2842831  84.43  0.001763172    2.981    0.665
        50 -12.0651    250.0384    108.9962   8.7320435126e+01   9.5290959147e+00    0.6046204    0.1974726 -26.04  0.002303659    2.909    0.656
        51 -11.4082      8.0257    111.5852   1.4002533347e+02   5.0696264350e+01    0.2819938    0.1598652  26.01   0.00182307    2.288    0.563
        52 -11.4593     96.4671    110.3447   1.1764282707e+02   4.0649671077e+01    0.2495252    0.2088619   1.06  0.001045368    1.746    0.427
        53 -12.1871    180.3047    194.0763   1.1500785407e+02   1.1916817238e+01    0.3717169    0.2875686 -88.77  0.001889136    2.034    0.508
        54 -10.8770    205.4268    110.1507   9.4593428602e+01   1.8723693528e+01    0.3111942    0.1896426  41.34  0.001129329    1.598    0.374
        55 -12.0157    135.2176    195.7683   1.2296196885e+02   1.9028645105e+01     0.262838     0.185242  77.80 0.0008435983    1.706    0.414
        56 -10.7947    134.4963    102.9608   1.0699573826e+02   3.5170883900e+01    0.2170549    0.1367716 -45.42  0.001034984    1.596    0.373
        57 -11.9747    249.6908     87.3751   8.2222875857e+01   1.2171602414e+01    0.3756636    0.2618811 -29.20  0.001533814    1.339    0.253
        58 -10.4860    123.9492    196.4951   1.2502129922e+02   2.0660241420e+01    0.1574144    0.1365533  73.56 0.0004634453    1.152    0.132
        59 -12.2988    249.0437     70.8324   7.8165913069e+01   1.4280103669e+01     0.405515    0.3459514 -30.61  0.001374933    1.136    0.120
        60 -11.0640     14.1565     59.0474   1.3155425396e+02   6.1527567994e+01      0.25732    0.1623154 -49.15   0.00164835    1.497    0.332
        61 -10.5573      1.9700    247.0140   1.4757318190e+02   2.7669318774e+01    0.1013942   0.08112594  85.12 0.0008827923    1.531    0.347
        62 -10.9377    203.0435    245.0411   1.1810337750e+02   2.9624032525e+00    0.1411075    0.1060936  57.90 0.0006955007    1.644    0.392
        63 -11.3128    130.4165    206.0165   1.2499319773e+02   1.8292242092e+01    0.1990277     0.168015  78.73 0.0007328281    1.251    0.201
        64 -10.4515    138.5950     31.7227   8.4175293589e+01   4.6684538234e+01    0.2496886      0.18425 -89.61 0.0009095502    1.797    0.443
        65 -12.8886    181.7996    234.3408   1.2000205429e+02   7.0775352505e+00    0.2653812     0.205065   4.40  0.001496046    1.660    0.398
