#   1 NUMBER                 Running object number                                     
#   2 MAG_AUTO               Kron-like elliptical aperture magnitude                    [mag]
#   3 X_IMAGE                Object position along x                                    [pixel]
#   4 Y_IMAGE                Object position along y                                    [pixel]
#   5 X_WORLD                Barycenter position along world x axis                     [deg]
#   6 Y_WORLD                Barycenter position along world y axis                     [deg]
#   7 A_WORLD                Profile RMS along major axis (world units)                 [deg]
#   8 B_WORLD                Profile RMS along minor axis (world units)                 [deg]
#   9 THETA_WORLD            Position angle (CCW/world-x)                               [deg]
#  10 FWHM_WORLD             FWHM assuming a gaussian core                              [deg]
#  11 ELONGATION             A_IMAGE/B_IMAGE                                           
#  12 ELLIPTICITY            1 - B_IMAGE/A_IMAGE                                       
         1 -16.7216    236.7119    114.2962   8.6725363972e+01   1.0099513212e+01     2.560241      2.16533 -65.67   0.01414247    1.389    0.280
         2 -14.7297    245.9007      7.1403   5.9474055235e+01   2.3135439877e+01     2.635239     1.427487 -42.03   0.01388412    1.592    0.372
         3 -16.2104    204.7839     94.0257   8.6962788445e+01   2.0739543325e+01     2.360106     1.586167 -21.99   0.01055102    1.681    0.405
         4 -16.4843    244.6275     63.0460   7.3083329527e+01   1.6299894104e+01     1.532197    0.8715453 -57.01  0.005426261    1.903    0.474
         5 -16.2393    247.6940     50.1158   6.9567422410e+01   1.7427922031e+01     1.629037    0.5737031 -35.86  0.006435344    2.377    0.579
         6 -15.7095    213.0486     83.1794   8.2692947000e+01   2.0590559329e+01     1.725041    0.8522349 -37.97  0.005570637    1.879    0.468
         7 -16.4059     11.6291     22.6359   1.2122235614e+02   7.0388959379e+01     6.597273     1.597537 -52.12    0.0281239    3.086    0.676
         8 -15.3756     89.0985     40.7485   9.6976970730e+01   5.7029421943e+01     1.847563     1.522128  16.91   0.00850897    1.231    0.188
         9 -18.0202     68.5085     17.6267   9.3987802774e+01   6.4156075678e+01     5.751518     2.129267  43.76   0.02488453    2.679    0.627
        10 -17.7647    137.7763     49.0463   8.6844191324e+01   4.5037831247e+01     4.503962     3.473273  32.66   0.01763118    1.392    0.281
        11 -17.3137    131.4253     13.7400   7.5369907005e+01   5.1173375983e+01      2.10949     1.688941  86.01  0.009671254    1.406    0.289
        12 -15.6659    100.9670     96.8413   1.1176746310e+02   4.3783761556e+01     4.534525     3.241808  -2.65   0.01988473    2.272    0.560
        13 -16.2089    233.2547     75.9940   7.7795127683e+01   1.6965552360e+01     1.557016     1.156322 -21.80  0.005552031    1.425    0.298
        14 -16.7735    140.7046     29.5371   7.9326150236e+01   4.7070983834e+01     2.510068     1.056505  65.01  0.009376317    2.523    0.604
        15 -11.9822    221.3064     36.9039   6.9179247713e+01   2.5456530989e+01    0.9827121     0.433687 -56.65  0.003712703    2.694    0.629
        16 -11.7157    216.1910     24.7404   6.6526151875e+01   2.8251317848e+01    0.5227505    0.3567906 -19.11  0.000617897    1.697    0.411
        17 -15.9535    194.8075     11.3915   6.5193846116e+01   3.5177806651e+01     1.321536     1.088029 -18.29  0.006560422    1.383    0.277
        18 -15.1702    203.0507      3.6118   6.2171400312e+01   3.3862795566e+01    0.9338815    0.4869787  72.65  0.004427767    1.757    0.431
        19 -12.1854    221.4941     14.0782   6.3196330905e+01   2.8168260025e+01    0.3579033    0.2264406 -57.81 0.0009968744    1.497    0.332
        20  -9.4975    221.4130      7.4226   6.1499104806e+01   2.8906312357e+01    0.1351607    0.1122016 -69.08 0.0001130993    1.060    0.057
        21 -15.0826    156.0370    196.4922   1.1927996735e+02   1.2154530817e+01      1.19373     0.965003 -76.53  0.004490869    1.500    0.333
        22 -11.7628    218.8375    250.1389   1.1602819847e+02  -6.0037990152e+00    0.4981832    0.1538498  42.60  0.002308302    2.666    0.625
        23 -14.4865    205.9717    242.6278   1.1710937771e+02  -3.1908391326e+00     1.354351     0.467052  35.54  0.005310885    2.578    0.612
        24 -13.4338    220.1181    238.4584   1.1409793550e+02  -4.8831819122e+00     1.078213    0.4218006  40.73  0.004020715    2.095    0.523
        25 -11.3771    183.3857    250.3410   1.2202989471e+02  -6.0922903695e-01     0.422019    0.1198063  44.32  0.001808607    2.823    0.646
        26 -14.4267    135.1592    244.0836   1.2968129359e+02   7.8755643867e+00     1.711406    0.8989705  43.93  0.009895206    1.498    0.333
        27 -16.2905    168.5163    179.6908   1.1385470215e+02   1.2824058125e+01      2.13403     1.661688 -39.73  0.008034837    1.408    0.290
        28 -14.2701     48.2216    194.8517   1.4101308336e+02   2.9415239677e+01    0.6462857    0.5891278  85.65  0.001926896    1.324    0.245
        29 -13.8444     58.3131    184.2088   1.3795044891e+02   3.0381811310e+01    0.8302236    0.6471927  75.41  0.002522881    1.042    0.040
        30 -10.7296     74.9330    191.1574   1.3524250932e+02   2.6679744205e+01    0.2090169    0.1835612  23.29  0.001355862    1.609    0.379
        31 -13.9909      3.4342    118.1371   1.4390193340e+02   5.0559597689e+01     1.380434     0.439779 -78.72  0.006090053    2.635    0.621
        32 -15.4298      5.0367    169.9428   1.4774992009e+02   3.9049099589e+01     1.755603    0.9767967 -80.07  0.007197835    1.405    0.288
        33 -15.0513     10.3937    142.1701   1.4447202851e+02   4.4659585487e+01     1.649774     0.677946 -72.19  0.006622435    1.868    0.465
        34 -11.6784     83.7946    185.0026   1.3265687539e+02   2.6680451197e+01    0.5449736    0.2662103  44.25   0.00223955    1.882    0.469
        35 -11.6929     95.6383    184.6987   1.3008804677e+02   2.4927071787e+01    0.6470924    0.2400335  36.35  0.002539282    3.002    0.667
        36 -10.0370     37.8285    182.3877   1.4201696807e+02   3.3223184688e+01    0.1356122    0.1112349  34.84 0.0002783724    1.582    0.368
        37 -11.8981     23.9543    177.2992   1.4443253477e+02   3.5765593303e+01    0.2175279    0.1395244 -76.72 0.0007250151    1.332    0.249
        38 -15.6472    135.2353    160.2312   1.1735065417e+02   2.3130568730e+01     1.551513      1.17426  61.90  0.004647085    1.341    0.254
        39 -15.1723    125.9935    152.4639   1.1798160866e+02   2.6564164772e+01     1.190462     1.062094 -13.42  0.004031301    1.428    0.300
        40 -11.4057    157.1111    164.2923   1.1331776566e+02   1.7989700181e+01    0.3845524    0.2461588  57.50  0.001786206    1.672    0.402
        41 -14.6685    248.6332    144.6210   9.1747589191e+01   2.9759887050e+00     1.172312    0.4046852 -33.92  0.004351634    2.666    0.625
        42 -12.2039     67.6892    144.2249   1.3073393690e+02   3.8081717588e+01    0.6486538    0.3586455  64.33  0.002833084    2.135    0.532
        43 -10.8077    181.1353    140.0689   1.0305608573e+02   1.7676799347e+01    0.3820506    0.2174601  44.43  0.001634071    1.739    0.425
        44 -10.9340    207.9882    167.1791   1.0364927849e+02   7.2531228923e+00    0.4138127    0.3072985  15.48  0.001557645    1.494    0.331
        45 -10.8964    183.4057    134.7424   1.0135171702e+02   1.8197541666e+01    0.2834989    0.1832227  58.94 0.0009239676    1.737    0.424
        46 -10.0253    236.8024    233.8224   1.1060170317e+02  -6.8757696139e+00    0.1750325    0.1255964  14.56 0.0007332694    1.188    0.158
        47 -10.2811    108.2982    233.3209   1.3333004967e+02   1.3764402592e+01     0.102805   0.09162893  16.37 0.0002658356    1.621    0.383
        48 -11.3748    160.7805    215.6566   1.2130737395e+02   8.0705837042e+00    0.9088735    0.3845318  38.51  0.004090437    2.159    0.537
        49 -13.6909    154.8224    216.1700   1.2251393536e+02   9.0194752681e+00     1.446342    0.8667032 -18.46    0.0059695    4.020    0.751
        50 -13.5136     22.5121    221.9926   1.4761640797e+02   2.7018641764e+01    0.6961391    0.3562069 -71.23  0.004548903    1.907    0.476
        51 -11.9823    182.6766    129.6645   1.0029547174e+02   1.9332951941e+01    0.3868741    0.2400685  35.41  0.001652109    1.812    0.448
        52 -14.2248    149.2126    123.8007   1.0622383971e+02   2.7988246216e+01     1.322342    0.9891971  36.46  0.006268532    1.442    0.307
        53 -12.8917    161.2346    125.0628   1.0378434145e+02   2.5062580404e+01      1.07159    0.6678674 -20.48  0.004128279    2.466    0.595
        54 -12.3538    172.2047    124.0753   1.0113783506e+02   2.2788424644e+01    0.4435322     0.416794 -75.28  0.001866157    1.115    0.103
        55 -13.2199    172.8500    118.5474   9.9620650821e+01   2.3735181250e+01    0.6995569    0.5955335  68.49  0.003522577    1.269    0.212
        56 -11.8581    134.7159    121.3029   1.0908716228e+02   3.1642640185e+01     0.440166    0.1336658 -47.99  0.001336325    3.281    0.695
        57 -11.7720    127.2943    128.0461   1.1251030703e+02   3.1689304625e+01    0.3459703    0.3107347 -44.54  0.001372271    1.155    0.134
        58 -11.2572    188.7087    122.9306   9.7429392702e+01   1.9251082977e+01    0.2847331    0.2293552  61.48 0.0006551746    1.337    0.252
        59 -12.2826     18.1528    116.3753   1.3976550612e+02   4.9911162897e+01    0.6873586    0.3262241  66.97  0.003250332    2.711    0.631
        60 -13.4980     16.7660    220.4252   1.4850282319e+02   2.7903984438e+01    0.6776893    0.3050187 -72.14  0.004232641    2.068    0.516
        61 -11.5343    134.4829    105.9936   1.0524738915e+02   3.5002527202e+01    0.5721781    0.1493394 -44.64  0.001602405    3.753    0.734
        62 -13.9099    183.2117    218.6740   1.1756966542e+02   3.7234903495e+00     1.234402    0.5662448  42.33  0.006041125    1.837    0.455
        63 -13.9968    243.5614    209.9573   1.0549752936e+02  -5.1294300903e+00     1.455805    0.7906092  16.43  0.007450915    2.186    0.542
        64 -13.8825    219.8088    216.0961   1.1059259595e+02  -2.0921003635e+00    0.9544463    0.7164305  36.48   0.00402112    1.195    0.163
        65 -15.7845    200.6987    209.1733   1.1283498410e+02   2.0833445478e+00     2.477117    0.8480967  41.45   0.01027761    2.542    0.607
        66 -15.0503    220.0199    194.6861   1.0679729268e+02   7.8790726052e-01     1.816475    0.9524097  28.87  0.008006337    2.022    0.505
        67 -15.7038    214.5383    183.7990   1.0573873668e+02   3.3752781358e+00     1.521451     1.098009  25.38  0.006333649    1.342    0.255
        68 -10.2436    177.9435     95.5801   9.2479450429e+01   2.6962611106e+01     0.304906    0.2213485 -19.14  0.001215303    1.641    0.391
        69 -10.2352    146.3115     94.7002   9.9234149431e+01   3.4693252071e+01    0.2950397    0.2196652   3.28 0.0009893008    1.957    0.489
        70 -15.2524    122.8766    181.2157   1.2372041201e+02   2.1073917251e+01     2.243869      1.33643  71.26  0.009068158    2.269    0.559
        71  -9.7144    133.1542     92.6907   1.0190079438e+02   3.8093670598e+01     0.238225    0.1910412  81.85 0.0007578863    1.517    0.341
        72 -10.1111     82.9540     88.6603   1.1489083027e+02   4.8731198558e+01    0.2546631    0.1808497 -42.49 0.0008774935    1.343    0.255
        73 -15.1553    132.1495    205.1665   1.2536465743e+02   1.4838649750e+01     1.596748    0.8281498  41.16  0.005741973    1.739    0.425
        74 -11.4328    181.3207     82.7059   8.8197175398e+01   2.8482411476e+01    0.5727372    0.4568101   6.46  0.002690077    1.593    0.372
        75 -11.9807    153.1572     73.2203   9.1257521527e+01   3.7182401034e+01    0.3216244    0.2331684 -30.64 0.0006705162    1.425    0.298
        76 -10.7969    170.8102     70.0659   8.6563439351e+01   3.3331591850e+01     0.276533    0.2391542  30.89  0.000534491    1.270    0.213
        77 -11.8636     77.2135     65.3626   1.0979572100e+02   5.4617018739e+01     0.685591     0.558069 -63.17  0.002724758    1.379    0.275
        78 -10.6882    176.6302     63.8984   8.3582401751e+01   3.2882225235e+01    0.2230745    0.2017284  45.17  0.000340486    1.146    0.128
        79 -10.8399    185.2259     55.2675   7.9465493952e+01   3.2035252917e+01    0.3034168    0.2182812  32.41  0.001392715    1.690    0.408
        80 -10.6826    190.2403     50.5403   7.7243134810e+01   3.1448102472e+01      0.38445    0.2371867  26.14  0.001526308    2.475    0.596
        81 -12.8108    168.4191     52.8164   8.1714168556e+01   3.6744919496e+01    0.5241211     0.325744  -7.44  0.002075776    2.381    0.580
        82 -10.2346     42.0112     51.0033   1.1787468002e+02   6.2280855936e+01    0.1946074    0.1647972 -43.37 0.0008396019    1.072    0.067
        83 -11.0750    232.7036     43.0609   6.9469627002e+01   2.1873253249e+01    0.2623904     0.202311  57.53   0.00142956    1.404    0.288
        84 -14.9977    109.5199    195.2317   1.2858545359e+02   2.0544492717e+01      1.32604     1.062228  77.13  0.006605802    1.177    0.150
        85 -11.9830    213.3201     27.3171   6.7535515456e+01   2.8657829547e+01    0.3325261    0.2657421 -41.85 0.0004620856    1.208    0.172
        86 -15.2203     97.0054    201.0253   1.3187948512e+02   2.1403065981e+01     1.546409    0.8896703  64.51  0.006381317    1.767    0.434
        87 -12.2183    204.5767     36.5517   7.1143562988e+01   2.9703068757e+01    0.5939851    0.5617166 -32.53  0.002323274    1.136    0.120
        88 -11.2421    225.1440     31.1673   6.7247686328e+01   2.5249776999e+01    0.3140605    0.2127573 -60.31 0.0007262556    1.432    0.302
        89  -9.5456    220.9942     28.4551   6.6988388455e+01   2.6607076034e+01    0.2758828    0.1700258 -75.90  0.001298493    1.788    0.441
        90 -11.2909    233.5137     24.9965   6.4823355942e+01   2.3988398499e+01    0.5645926    0.2467833 -64.19  0.001976637    2.939    0.660
        91 -13.6736    183.2143    185.2117   1.1193281045e+02   9.0285153696e+00     1.077027    0.8362458  64.39  0.004067525    1.528    0.346
        92 -12.3682    198.2204    167.2786   1.0552711529e+02   9.1640921325e+00    0.9139389    0.5807561   3.51  0.003840374    2.597    0.615
        93  -9.6611    228.4677     22.4945   6.4681451068e+01   2.5501135980e+01    0.1355885    0.1211404 -68.66 2.823671e-05    1.027    0.027
        94 -10.3093    225.0250     19.5946   6.4276317844e+01   2.6678071292e+01    0.2628252    0.1993717  19.56 0.0007682235    1.859    0.462
        95 -14.1459    185.1642    169.6445   1.0856682585e+02   1.1353820622e+01    0.7607043    0.7037089 -72.60  0.002441195    1.255    0.203
