#   1 NUMBER                 Running object number                                     
#   2 MAG_AUTO               Kron-like elliptical aperture magnitude                    [mag]
#   3 X_IMAGE                Object position along x                                    [pixel]
#   4 Y_IMAGE                Object position along y                                    [pixel]
#   5 X_WORLD                Barycenter position along world x axis                     [deg]
#   6 Y_WORLD                Barycenter position along world y axis                     [deg]
#   7 A_WORLD                Profile RMS along major axis (world units)                 [deg]
#   8 B_WORLD                Profile RMS along minor axis (world units)                 [deg]
#   9 THETA_WORLD            Position angle (CCW/world-x)                               [deg]
#  10 FWHM_WORLD             FWHM assuming a gaussian core                              [deg]
#  11 ELONGATION             A_IMAGE/B_IMAGE                                           
#  12 ELLIPTICITY            1 - B_IMAGE/A_IMAGE                                       
         1 -10.8786     36.2892     10.0028   2.9154226756e+02   7.4285469159e+00   0.05184789   0.03445829 -56.41  0.002543024    1.504    0.335
         2 -10.8841     23.7232     32.4422   2.9183082629e+02   7.2516833712e+00   0.07806624   0.02826817 -48.32  0.003353384    2.789    0.641
         3 -10.3871     10.2114     18.9173   2.9190440304e+02   7.4888628026e+00   0.07333366   0.03507813 -20.47  0.004061173    6.300    0.841
         4  -9.5567      2.2027     14.6395   2.9197153486e+02   7.5869567728e+00   0.02771345   0.01564147 -80.70     0.001907    2.562    0.610
         5 -10.3356      5.1614      4.7360   2.9187454513e+02   7.6810517301e+00   0.02880516   0.02417039  20.02  0.001430923    1.189    0.159
         6 -10.3106      4.4830     41.9512   2.9211632651e+02   7.2627681978e+00   0.04743609   0.02127448 -65.13  0.003913268    2.458    0.593
         7 -10.2297      7.1569     28.4327   2.9200004616e+02   7.3997361595e+00   0.02179944   0.01611919  57.27 0.0009064161    1.534    0.348
         8 -10.1758     69.4344     40.9751   2.9134829102e+02   6.8713425494e+00   0.04693396   0.02176126 -60.07  0.002069428    2.169    0.539
         9  -8.0566     71.9972      8.6397   2.9111472680e+02   7.2224455027e+00    0.0092025  0.008680077  26.11  0.001123464    1.040    0.038
        10  -9.2397     78.2239      4.2605   2.9101410958e+02   7.2334428833e+00   0.03176092   0.01231998 -49.15  0.001576845    2.566    0.610
        11  -9.9509     73.4504     17.2735   2.9115204630e+02   7.1154486037e+00   0.04933949   0.01223746 -60.47  0.003046528    3.982    0.749
        12  -7.8662     67.7764      8.9956   2.9116647838e+02   7.2446230708e+00   0.01036767  0.008730654 -25.78 0.0004241318    1.264    0.209
        13  -9.9823     64.1993     13.2658   2.9123532535e+02   7.2183797850e+00   0.02829819   0.01663749 -49.81  0.002455779    1.699    0.411
        14  -9.5651     63.3474     21.6796   2.9129827670e+02   7.1281822102e+00   0.02219929   0.01541056  88.01  0.001018007    1.912    0.477
        15  -8.7660     57.1725      8.2303   2.9128606205e+02   7.3191381217e+00    0.0190023  0.009030539 -34.23   0.00145345    3.014    0.668
        16 -10.0889     46.1845     29.5066   2.9154884233e+02   7.1458234158e+00   0.02536945   0.01516937 -78.14  0.001025359    2.179    0.541
        17 -10.2143     50.4515     15.5107   2.9141073845e+02   7.2782240573e+00   0.05429141   0.02973605 -27.29  0.004503748    2.684    0.627
        18  -9.1968     96.1284     14.6739   2.9086975005e+02   7.0039815643e+00   0.04121344   0.01238593 -50.49  0.002943926    3.179    0.685
        19  -8.2039     97.4783      6.0377   2.9079951147e+02   7.0935652541e+00   0.01343339  0.009368881 -27.46 0.0006685898    1.682    0.405
        20  -8.2759     95.5401      2.5623   2.9080033617e+02   7.1450451973e+00   0.01619565   0.01345113  14.95 0.0007104431    1.229    0.186
        21  -8.8089    128.3841     24.7048   2.9055492771e+02   6.6893769013e+00   0.02538311   0.01157083 -55.53  0.001636785    2.131    0.531
        22 -10.0011    131.9838     16.9095   2.9046362602e+02   6.7553903122e+00   0.02305477   0.01777941 -29.44   0.00200139    1.422    0.297
        23  -8.9890    139.5459     22.4068   2.9040969606e+02   6.6458951885e+00    0.0158453   0.01071658  44.03  0.001062744    1.510    0.338
        24  -8.6388    125.0393     13.0800   2.9052085059e+02   6.8421011510e+00   0.01329948   0.01093626 -24.31 0.0005143936    1.317    0.241
        25  -8.7714    126.7984      9.1553   2.9047549743e+02   6.8756616589e+00   0.01207055  0.009483261 -12.21 0.0006663658    1.452    0.311
        26  -8.9778    125.2670      5.0771   2.9046772901e+02   6.9314591727e+00   0.02547031   0.01202323 -47.67  0.002217552    2.156    0.536
        27  -8.5729    121.1532      6.3661   2.9052406424e+02   6.9424659856e+00   0.01296637  0.009240814  34.52  0.001319006    1.364    0.267
        28  -9.0268    112.3626     15.4663   2.9068444573e+02   6.8939719263e+00   0.01592334   0.01125613 -70.17 0.0008455483    1.548    0.354
        29  -9.1125    113.9450     10.1158   2.9063218003e+02   6.9448211369e+00   0.01631364   0.01125397 -29.39 0.0003293267    1.685    0.407
        30  -8.6561    104.4424     14.9374   2.9077394570e+02   6.9492690234e+00   0.02107999  0.008658334 -39.39  0.001532359    3.237    0.691
        31  -9.3655    119.1398     20.1295   2.9063440793e+02   6.7988680946e+00   0.03003403   0.01133993 -50.82  0.002241012    2.571    0.611
        32  -9.4695     85.1007     13.0609   2.9098889241e+02   7.0908556767e+00   0.02131434   0.01464396  65.16  0.001471079    1.853    0.460
        33  -7.5461     80.5221     12.9883   2.9104212761e+02   7.1201375420e+00   0.01302287  0.006601534 -81.53  0.000947671    3.472    0.712
        34  -9.0818    132.1617      5.8529   2.9039183272e+02   6.8796975106e+00   0.02792344    0.0149463 -37.15   0.00206768    2.244    0.554
        35  -7.4863    136.4912      1.4827   2.9031354821e+02   6.9022733328e+00    0.0066259  0.006442149  38.05 0.0001309566    1.034    0.033
        36  -8.9297    115.0900      4.2800   2.9058197429e+02   7.0038885880e+00   0.01192491   0.01106862 -81.49 0.0005910324    1.144    0.126
        37  -8.4133    110.2670      7.6768   2.9065991684e+02   6.9953868685e+00  0.009613675  0.008725525  15.16 0.0003955123    1.097    0.088
        38  -8.7595    111.0141      4.5142   2.9063122497e+02   7.0266100260e+00   0.01346259  0.009757191 -11.87  0.001388321    1.680    0.405
        39  -8.1348    101.9174      8.1627   2.9076085745e+02   7.0418405440e+00    0.0101728  0.008791224  57.47 0.0005099806    1.237    0.191
        40  -8.8828    104.0481      2.6707   2.9070126517e+02   7.0908800863e+00   0.02590513    0.0139308 -30.15  0.002153667    2.620    0.618
        41  -7.7994    143.2521      5.4134   2.9025913835e+02   6.8155434880e+00   0.01124117  0.008170793  85.74 0.0004975713    1.764    0.433
        42  -8.3088     89.2418      3.4678   2.9087989832e+02   7.1739460171e+00   0.02031085   0.01087093 -67.67  0.001400643    2.105    0.525
        43  -9.5688     63.7474      2.9872   2.9117591040e+02   7.3378113977e+00   0.02073139    0.0138856  76.40   0.00189951    2.098    0.523
        44 -10.6579     19.3591      7.0019   2.9172210852e+02   7.5674791268e+00    0.0681109   0.03770008  67.73   0.00531704    3.201    0.688
        45 -11.0670    121.0967    109.4464   2.9117349458e+02   5.7724289056e+00   0.05477702    0.0333758 -72.64  0.003212388    1.930    0.482
        46 -11.1192    191.3443    247.2604   2.9121697870e+02   3.7689908021e+00   0.03209119   0.02024889  42.78  0.003228183    1.606    0.377
        47  -9.2804    109.3241    106.7215   2.9129419225e+02   5.8766130187e+00   0.02753607   0.02285999   1.51  0.002595671    1.295    0.228
        48 -10.1706    107.9368     99.3291   2.9126399319e+02   5.9692430988e+00   0.03706905   0.01620813  49.13  0.002078198    2.876    0.652
        49 -10.0225     92.0606    113.0022   2.9153577019e+02   5.9125291729e+00   0.02917597   0.01826214  69.59  0.001589183    2.342    0.573
        50  -8.6284     93.4570    103.6341   2.9146059747e+02   6.0103244999e+00   0.02971777   0.01596786  -2.05  0.002200224    3.454    0.711
        51 -10.4899    245.6785    115.3259   2.8975405020e+02   4.9288463106e+00   0.01543448   0.01159052  25.50 0.0005050329    1.317    0.241
        52  -8.3652    152.7985    115.5857   2.9084111370e+02   5.5053307366e+00  0.009567707  0.005892635  39.36 0.0005734693    1.599    0.374
        53 -10.1331     78.0886    112.9699   2.9169919360e+02   5.9996651959e+00   0.02389721   0.01539749  84.57  0.001928817    2.282    0.562
        54 -10.6043     63.0129     96.2576   2.9177091527e+02   6.2831822804e+00   0.04487059   0.02604917  87.18  0.001824193    2.974    0.664
        55 -10.2786     65.6541    111.1045   2.9183313611e+02   6.0980412284e+00   0.04000078   0.03025373  61.01  0.002505053    1.525    0.344
        56 -10.0184     59.0731    109.6272   2.9190096235e+02   6.1556581680e+00   0.03813292   0.02373428   2.54  0.002984306    2.142    0.533
        57  -9.6941     14.3336    111.4808   2.9243682572e+02   6.4117228955e+00    0.0228683   0.01523764  71.86  0.001552569    2.071    0.517
        58  -8.1991     14.0396    105.0278   2.9239984884e+02   6.4869059818e+00   0.01311783  0.007673185 -35.55 0.0008087984    2.017    0.504
        59  -8.0432    158.7852    112.0297   2.9074872686e+02   5.5084361823e+00  0.009950704   0.00886692  71.75 0.0004527563    1.228    0.186
        60  -9.2546     36.1579    111.7398   2.9218269528e+02   6.2736771970e+00   0.01427605   0.01165766  59.62   0.00112208    1.350    0.259
        61  -8.2188    150.1415    110.1637   2.9083811060e+02   5.5834810853e+00  0.009199486  0.007782116  79.26  0.000498688    1.349    0.259
        62  -9.8017     33.7227    107.1049   2.9218217908e+02   6.3414523149e+00   0.02524814   0.01304581  15.10  0.002132039    2.415    0.586
        63 -10.3642     32.9442     63.5807   2.9191825219e+02   6.8409134756e+00   0.05607508   0.02813397 -25.14  0.003417218    3.707    0.730
        64  -7.7232     23.0563     69.2169   2.9206958817e+02   6.8381126774e+00   0.01196558  0.009688176 -74.53  0.000441311    1.344    0.256
        65 -10.6928     20.6618    101.1074   2.9229766131e+02   6.4904973032e+00    0.0552588    0.0290222  71.69  0.003707502    4.412    0.773
        66 -10.2020     19.7498     85.6407   2.9221139044e+02   6.6719443608e+00   0.05209956    0.0144262 -53.65  0.003421548    3.258    0.693
        67 -10.4748     25.6278     77.7610   2.9209304594e+02   6.7251062644e+00   0.04158523   0.02571768  83.26  0.001908679    2.545    0.607
        68 -10.1266     34.4930     90.8343   2.9207112612e+02   6.5216289680e+00   0.02710927   0.01571451 -84.37  0.001664606    2.599    0.615
        69 -10.1308     36.2544     81.5022   2.9199192996e+02   6.6167744007e+00    0.0578665   0.02885162 -12.89  0.003282555    6.058    0.835
        70 -10.7805     44.8032    102.5292   2.9202364102e+02   6.3248167528e+00   0.04262899   0.02189473  64.99  0.002816996    3.843    0.740
        71  -8.8878     40.0548    106.6357   2.9210503440e+02   6.3075604037e+00   0.01412383  0.008842744 -72.57 0.0005864222    1.854    0.461
        72  -9.8231    139.4899    103.3779   2.9092008224e+02   5.7269072776e+00   0.03189216   0.01451284 -59.86  0.001258587    2.204    0.546
        73  -7.9773     78.0901    105.2404   2.9165066468e+02   6.0875131057e+00   0.01524817  0.008886951 -19.26   0.00127598    2.638    0.621
        74  -9.6992    149.2907    103.0633   2.9080342008e+02   5.6694449072e+00   0.02179039   0.01350922 -68.21  0.001036996    1.774    0.436
        75  -8.3882    150.9808     96.3204   2.9074123848e+02   5.7355130143e+00   0.01687969  0.009737678 -18.60  0.001389811    2.745    0.636
        76  -9.3004      6.1325    103.7720   2.9248466488e+02   6.5500882602e+00   0.02243462   0.01551978  52.18  0.001665642    1.599    0.375
        77  -8.3844    165.9931    103.8467   2.9061295520e+02   5.5564750191e+00   0.01130443  0.009552651 -67.96 0.0005735249    1.239    0.193
        78  -7.9597     73.8513    102.8569   2.9168535570e+02   6.1409170630e+00   0.01145666   0.00908922 -71.41  0.000640081    1.356    0.262
        79  -7.6435    191.4500    102.2139   2.9030500544e+02   5.4162722761e+00  0.008705488   0.00657778 -81.06 0.0003042146    1.541    0.351
        80  -8.2089    158.9030    101.3243   2.9068002543e+02   5.6293133647e+00   0.01059265  0.009066615 -84.39 0.0004545604    1.295    0.228
        81  -9.4284     81.4372    100.3738   2.9158090610e+02   6.1220398859e+00   0.01901523   0.01283721  84.68 0.0009074673    2.052    0.513
        82  -7.9111     81.7899     94.7806   2.9154165265e+02   6.1834141225e+00   0.01134906   0.00779099 -25.03  0.001131419    1.760    0.432
        83  -8.8227    248.5824     96.6289   2.8960239453e+02   5.1228997956e+00   0.01721963   0.01020295  68.96  0.001049676    2.675    0.626
        84  -9.3638     94.1321     97.0106   2.9141109076e+02   6.0814001146e+00   0.01718698   0.01190012 -71.63 0.0006020921    1.608    0.378
        85  -8.5319     95.7662     90.8433   2.9135320667e+02   6.1413233309e+00   0.02112217   0.01238181 -19.01  0.001788018    2.607    0.616
        86  -9.1860    242.8473     97.1629   2.8967271455e+02   5.1526827191e+00   0.01042239  0.009221987  60.69  0.001000062    1.209    0.173
        87  -8.3184    164.2280     94.4272   2.9057434386e+02   5.6744650591e+00   0.01171533   0.00946579 -62.78 0.0006099066    1.273    0.214
        88  -9.5650    138.3780     91.9218   2.9086105782e+02   5.8639757391e+00    0.0252288   0.01642814 -62.58  0.001963189    1.585    0.369
        89 -10.0815      4.1437     89.3722   2.9241776209e+02   6.7260761175e+00   0.03305572    0.0185695 -84.86  0.002125627    2.836    0.647
        90  -9.4986      5.8040     79.0956   2.9233387594e+02   6.8326065389e+00   0.04108537   0.02121237 -17.14  0.002768548    4.243    0.764
        91  -8.3531    157.3396     91.6418   2.9063740643e+02   5.7490331013e+00   0.01139425  0.008171687 -76.72 0.0006214821    1.610    0.379
        92  -8.4778    108.2943     90.9842   2.9120736711e+02   6.0618376019e+00   0.01961336    0.0111158   0.83  0.001606141    2.754    0.637
        93  -8.7651    113.1219     88.8515   2.9113742947e+02   6.0560425920e+00    0.0165742    0.0135566 -64.47   0.00162503    1.266    0.210
        94 -10.4373     47.9747     83.4828   2.9186697006e+02   6.5216297425e+00   0.05554113    0.0222134 -56.14  0.003537006    2.398    0.583
        95 -10.6644     55.5071     71.2363   2.9170178112e+02   6.6140714098e+00   0.04126936    0.0205713  52.95  0.001669233    2.644    0.622
        96 -10.2301     62.8673     60.8067   2.9154997212e+02   6.6868884424e+00   0.04175625   0.01410463  26.31  0.003027011    3.056    0.673
        97  -8.6026    150.5122     89.1054   2.9070133500e+02   5.8203853235e+00   0.01060646  0.008886606  59.55  0.000593744    1.301    0.231
        98 -10.1889     85.2114     86.4885   2.9144948596e+02   6.2563871923e+00   0.02373021     0.016191  71.66 0.0009212086    1.971    0.493
        99  -9.5640     87.6812     78.5484   2.9137065857e+02   6.3312569714e+00   0.02849544   0.01660079   5.21  0.001759214    2.382    0.580
       100  -7.7656    174.3135     88.6833   2.9042022589e+02   5.6768129622e+00  0.006950991  0.005039225  62.12 0.0007035723    1.644    0.392
       101  -8.6643    163.5782     87.1949   2.9053643498e+02   5.7606517672e+00   0.01342316  0.009815652 -69.14  0.001103633    1.473    0.321
       102  -8.9140     65.2067     85.5779   2.9167816229e+02   6.3909390403e+00   0.03007928   0.01595141 -13.82  0.002099832    3.943    0.746
       103  -7.2025    116.2723     85.3071   2.9107825544e+02   6.0767103824e+00   0.00676161  0.004977211 -27.44 0.0002535883    1.543    0.352
       104  -9.5434    109.8969     64.2331   2.9102038462e+02   6.3557431183e+00   0.02696428   0.01382027 -72.51  0.002276357    2.496    0.599
       105  -8.9025    110.7219     58.0548   2.9097184823e+02   6.4207722793e+00   0.01561088   0.01285378  -8.40 0.0009651577    1.337    0.252
       106 -10.2941    103.8481     82.7097   2.9120742808e+02   6.1834929561e+00   0.02525887   0.01548999 -76.21 0.0008126812    2.022    0.506
       107  -9.4986    104.8490     71.9875   2.9112829011e+02   6.2990695553e+00   0.03353368   0.01752839 -40.60  0.002301441    2.161    0.537
       108  -9.8853    156.7549     75.0738   2.9053998054e+02   5.9408301122e+00   0.03224272   0.01857143 -78.85  0.002849303    2.369    0.578
       109  -9.1452    140.4834     82.3165   2.9077599616e+02   5.9599658422e+00   0.02546069   0.01220541 -55.42  0.001522855    2.034    0.508
       110  -8.8242    139.9295     75.5666   2.9074000821e+02   6.0400750997e+00   0.02010093   0.01010903 -64.50   0.00130767    2.135    0.532
       111  -8.1594    169.9677     83.2014   2.9043655260e+02   5.7661626357e+00    0.0106032  0.008838595  59.33  0.001206898    1.309    0.236
       112  -8.0641     63.3889     82.1536   2.9167796167e+02   6.4411296810e+00  0.009309822  0.006490694 -78.56 0.0007249107    1.706    0.414
       113  -8.8572    150.0215     79.8928   2.9064911060e+02   5.9280711272e+00   0.02291644   0.01065534 -52.73  0.001334807    2.095    0.523
       114  -8.9061    118.8853     80.5766   2.9101791107e+02   6.1141890256e+00   0.01384328   0.01142866  82.12 0.0005497059    1.407    0.289
       115  -8.1259    119.8640     76.1300   2.9097848406e+02   6.1586065380e+00   0.01211961  0.009440899 -40.27 0.0006641913    1.328    0.247
       116  -8.9624     74.1719     80.2971   2.9153993630e+02   6.3952948772e+00   0.01615161   0.01121533 -86.80 0.0007169161    1.847    0.459
       117  -7.7243     74.8007     74.7916   2.9149797851e+02   6.4539414378e+00   0.01680334  0.009065425  -5.86  0.001212538    3.606    0.723
       118  -8.2628     68.8119     79.3524   2.9159681474e+02   6.4393033430e+00   0.01340876  0.007347477 -49.29  0.001253717    1.826    0.452
       119  -8.6336    166.1206     78.6832   2.9045311621e+02   5.8414568100e+00   0.01104966  0.009240305 -83.66 0.0006382983    1.338    0.253
       120  -8.3987    157.5359     83.3889   2.9058317708e+02   5.8415386879e+00   0.01354774  0.009949919 -60.86 0.0008884951    1.390    0.280
       121  -8.0246    184.1777     78.0661   2.9023801500e+02   5.7358302266e+00   0.01020258  0.008721525 -32.99 0.0006500751    1.216    0.177
       122  -8.9215    130.1976     57.0408   2.9073735174e+02   6.3110537542e+00   0.02598106   0.01079967 -57.17  0.001135345    2.334    0.572
       123  -8.3530    130.4447     64.2725   2.9077997933e+02   6.2274027043e+00   0.01939589  0.009505401 -67.64  0.001524866    2.350    0.574
       124  -9.4458    127.2391     75.1768   2.9088612854e+02   6.1235285683e+00   0.01910144   0.01310604  85.43 0.0009160007    1.980    0.495
       125  -8.5750    128.4737     69.8092   2.9083790089e+02   6.1768017436e+00   0.01765663   0.01116788 -15.68  0.001613572    2.215    0.548
       126  -7.9255    214.9995     75.0189   2.8985849516e+02   5.5779867036e+00   0.01036465  0.007665669 -23.59 0.0003217717    1.567    0.362
       127  -9.8662     81.6338     72.5772   2.9140399000e+02   6.4366613192e+00   0.02058237   0.01452323  77.67 0.0009465169    1.880    0.468
       128  -9.2248     83.1193     64.9752   2.9133879615e+02   6.5137884854e+00   0.02845623    0.0148861 -28.84  0.002263307    2.891    0.654
       129  -8.6611    162.6687     72.9848   2.9045762806e+02   5.9276810525e+00   0.01386387  0.009766996  76.14 0.0009242521    1.882    0.469
       130  -8.8033    114.9521     72.8330   2.9101526983e+02   6.2266195043e+00   0.01557489   0.01095189 -76.18 0.0005574437    1.648    0.393
       131  -7.5656    116.2998     68.3971   2.9097158236e+02   6.2686150293e+00   0.01097587  0.007910443 -37.12 0.0005295193    1.487    0.328
       132  -7.5190    237.3333    249.3218   2.9069336136e+02   3.4592937810e+00  0.007112805  0.005005309 -23.70 0.0007049948    1.703    0.413
       133  -9.9462     15.9567     70.5154   2.9216099643e+02   6.8673032720e+00   0.02178856   0.01424912 -59.21  0.001313531    1.542    0.352
       134 -10.1934     16.8583     62.0540   2.9209732805e+02   6.9578592939e+00   0.04070433   0.01510607 -59.31  0.003199071    2.647    0.622
       135 -10.8413     21.8454     53.5487   2.9198543887e+02   7.0236109725e+00   0.04640674   0.02656951  78.62  0.002735822    3.271    0.694
       136 -10.2238    174.6661    246.4541   2.9140661440e+02   3.8819067055e+00   0.02950133   0.01176263 -61.93  0.002350824    2.599    0.615
       137  -9.2060     71.7774    243.6054   2.9259073895e+02   4.5532179230e+00   0.01300126   0.01074058 -44.42 0.0005281563    1.227    0.185
       138 -11.0976    163.2309    248.0672   2.9155022245e+02   3.9346842396e+00   0.03206404   0.02802277  80.88  0.003781529    1.277    0.217
       139  -7.7974    181.2394    237.9994   2.9127692298e+02   3.9370982814e+00  0.008663249  0.005634222 -60.70 0.0003691711    1.565    0.361
       140  -9.4779      8.5557     47.0842   2.9210076280e+02   7.1792806812e+00   0.03420693   0.01243487  28.78  0.002617715    2.653    0.623
       141  -9.8634     14.6893     44.6918   2.9201377559e+02   7.1685027170e+00   0.02726432   0.01731485 -33.79  0.001183455    1.826    0.452
       142  -9.6133    188.0131    233.8213   2.9117166714e+02   3.9424293871e+00   0.01631963   0.01047707 -67.55  0.001632215    1.688    0.408
       143  -9.9022      6.7300     32.5720   2.9203105813e+02   7.3553794665e+00   0.01803542   0.01019759  35.91 0.0005674798    1.704    0.413
       144  -8.2702      6.7753    233.8748   2.9328995289e+02   5.0662466299e+00   0.00998153  0.008623357 -27.29 0.0004698025    1.215    0.177
       145  -7.8000    146.4870     64.4640   2.9059336352e+02   6.1252936433e+00   0.01142653  0.008032133  -2.89 0.0006267821    1.754    0.430
       146  -9.7327     94.8146     68.4914   2.9122386075e+02   6.4011693388e+00    0.0228536   0.01367546 -75.65 0.0007298741    2.084    0.520
       147  -8.2298     95.2990     61.3119   2.9117303539e+02   6.4797024760e+00   0.01500655  0.009471564 -33.56  0.001143017    1.851    0.460
       148  -8.7025     97.5129     57.5158   2.9112321601e+02   6.5090499655e+00   0.02389386   0.02209164 -64.31  0.002921454    1.114    0.102
       149  -9.1959    121.2188     66.1725   2.9089997581e+02   6.2632643996e+00   0.01676336   0.01205915 -88.02 0.0005981642    1.748    0.428
       150  -8.1773    122.0415     61.4628   2.9086070303e+02   6.3116269198e+00   0.01554135     0.010216 -10.58  0.001117203    2.052    0.513
       151  -9.4933    138.2161     66.4483   2.9070268089e+02   6.1542948012e+00   0.01507188   0.01159544  77.34 0.0006263685    1.592    0.372
       152  -9.3152     55.1062     62.9598   2.9165449006e+02   6.7105834181e+00   0.03754448   0.01251666  28.77  0.002780358    2.888    0.654
       153  -8.4427    157.2912     62.9985   2.9045767673e+02   6.0745879374e+00   0.01283763   0.01163622  28.30  0.001545785    1.081    0.075
       154  -7.9326    152.5939     60.7255   2.9049833953e+02   6.1296763223e+00  0.008816297  0.006552811 -76.49 0.0004369522    1.528    0.346
       155  -8.9668     80.0057     46.6543   2.9126007685e+02   6.7412007745e+00   0.02915356  0.009598279 -58.53  0.001570868    2.919    0.657
       156  -9.8238     73.1134     59.3686   2.9142082242e+02   6.6396176361e+00   0.02209333   0.01337812 -76.14 0.0008837514    2.061    0.515
       157  -9.4131     74.3325     51.4234   2.9135657688e+02   6.7222818570e+00   0.03531227   0.01814949 -26.04  0.002649608    3.311    0.698
       158  -7.5301    164.4852     60.4908   2.9035769405e+02   6.0581955912e+00  0.006638228   0.00643887  42.18 5.611749e-05    1.041    0.040
       159  -8.2587      9.9135     59.6692   2.9216382401e+02   7.0279240246e+00  0.009588033  0.008697738  28.63  0.000649317    1.081    0.075
       160  -9.0979    149.6881     48.0266   2.9045237255e+02   6.2919421190e+00   0.01541776  0.009626854 -68.99 0.0009935597    1.778    0.437
       161  -9.0831    146.5217     58.2907   2.9055408729e+02   6.1951654167e+00   0.02033393  0.009991266 -56.41  0.001458442    1.996    0.499
       162  -8.5283    148.0000     52.9837   2.9050336026e+02   6.2461967350e+00   0.01894397  0.009509865 -64.67   0.00139313    2.147    0.534
       163  -8.8495     87.4802     58.3916   2.9124629310e+02   6.5614680869e+00   0.01769866   0.01218944 -83.91 0.0007360721    1.831    0.454
       164 -10.3934     85.4284     48.5353   2.9120834532e+02   6.6861480057e+00    0.0315564   0.01887063  69.37  0.001372914    2.622    0.619
       165 -10.4875     89.5720     38.1789   2.9109461220e+02   6.7779791202e+00   0.04810959   0.02442298   5.58  0.003541971    3.417    0.707
       166  -9.5873    100.9581     31.3805   2.9091835529e+02   6.7843471727e+00   0.02698081   0.01528337 -67.38  0.001938146    1.954    0.488
       167  -9.4716    139.0857     57.1434   2.9063392126e+02   6.2545252525e+00   0.01723574   0.01190855 -79.91  0.000823371    1.755    0.430
       168  -7.9712    139.3231     52.3198   2.9060076896e+02   6.3078072546e+00   0.01092583  0.009269306 -29.33 0.0007532327    1.240    0.194
       169  -8.8086    141.9683     48.7884   2.9054755530e+02   6.3314109912e+00   0.01341251  0.009839673 -59.16 0.0008321121    1.381    0.276
       170  -9.4240    118.2255     54.8310   2.9086366069e+02   6.4106828723e+00   0.02331719   0.01466608 -64.00  0.001520254    1.664    0.399
       171  -9.3613    121.0674     47.1038   2.9078172826e+02   6.4807216675e+00   0.03718302  0.009416463 -51.82 0.0004621871    3.581    0.721
       172  -9.1574     53.3049     38.7718   2.9152358347e+02   6.9964657252e+00   0.03061617  0.007803612 -49.72  0.002007641    3.762    0.734
       173  -9.9426     49.9010     53.5951   2.9165668056e+02   6.8492411477e+00   0.03377748   0.01907738 -73.29  0.002325163    2.180    0.541
       174  -9.3289     55.9729     43.5000   2.9152202290e+02   6.9262254871e+00   0.03460729   0.01800641 -20.30  0.002456733    3.781    0.736
       175  -9.6252    162.7445     53.2620   2.9033252730e+02   6.1511055431e+00   0.02175916   0.01105011 -60.40  0.001969905    1.995    0.499
       176  -7.6815    157.4662     55.5103   2.9040846660e+02   6.1585027001e+00   0.00659591  0.006470153  18.03 2.296314e-05    1.009    0.008
       177  -8.8764    197.3913     53.8814   2.8993111907e+02   5.9278349918e+00   0.01121126   0.01000727  14.39 0.0004270755    1.124    0.110
       178  -7.7028    152.5634     53.7411   2.9045471023e+02   6.2091535755e+00   0.00869027  0.006579809 -79.46 0.0004075148    1.521    0.342
       179  -9.0147    105.4259     51.7112   2.9099397644e+02   6.5257508975e+00   0.02703973   0.01304699 -59.87  0.001646034    2.083    0.520
       180  -9.4384     44.0163     53.1580   2.9172294351e+02   6.8906935981e+00   0.01527786   0.01424973  44.83  0.001063043    1.085    0.078
       181  -9.5918    130.4617     46.3141   2.9066671998e+02   6.4311862605e+00   0.03942597   0.01030764 -54.21  0.001297837    3.406    0.706
       182  -7.8652    136.3541     27.1938   2.9047725237e+02   6.6114744678e+00  0.009326922  0.007823598  70.03 0.0004474775    1.350    0.259
       183  -8.7839    132.9564     35.9928   2.9057249124e+02   6.5327960683e+00   0.01475488   0.01174086 -83.76 0.0004840897    1.445    0.308
       184  -9.3697    133.9521     31.0672   2.9052979547e+02   6.5824897501e+00   0.01268064    0.0102863 -35.04            0    1.292    0.226
       185  -8.6082    111.8555     46.8249   2.9088789045e+02   6.5412261428e+00    0.0122153   0.01017058  80.12 0.0005612154    1.387    0.279
       186  -9.2196    157.2782     48.9266   2.9036919339e+02   6.2344030446e+00   0.02067174   0.01261144 -84.98  0.001852958    2.350    0.575
       187  -7.4339    138.0399    229.0800   2.9172559942e+02   4.3071112743e+00  0.007787708   0.00763356 -29.46 0.0004080734    1.027    0.026
       188  -7.3942     64.3263    228.2832   2.9258216375e+02   4.7736745958e+00  0.006864946  0.005046811 -20.77 0.0001941112    1.601    0.376
       189  -9.9715     76.2180     31.8820   2.9121154166e+02   6.9324476502e+00    0.0218248   0.01456011  48.00  0.001281235    1.598    0.374
       190  -8.6145     49.5639    222.8622   2.9272092228e+02   4.9267985515e+00   0.01194597  0.009628318 -18.46 0.0005524342    1.379    0.275
       191  -9.4209     71.7573     25.7582   2.9122531058e+02   7.0296677734e+00   0.02646062   0.01724832  11.47   0.00261757    1.769    0.435
       192  -9.6430     79.3277     24.1463   2.9112638931e+02   7.0009338570e+00   0.02600688   0.01568155  -3.21  0.001678461    2.449    0.592
       193  -9.0935     84.7061     21.9939   2.9104977352e+02   6.9919384484e+00   0.01351955   0.01224963 -47.35 0.0007570956    1.113    0.101
       194  -8.6278     39.7502     35.2097   2.9166018238e+02   7.1209652627e+00   0.02094159    0.0097999  20.46  0.001302816    2.435    0.589
       195  -9.8022     38.0223     42.2674   2.9172481275e+02   7.0515329324e+00   0.02450004    0.0152899  63.69  0.001466001    2.191    0.544
       196  -9.7835     35.6986     37.9662   2.9172503926e+02   7.1147763477e+00   0.01239172   0.01126128  48.96 0.0003993846    1.128    0.113
       197  -9.4232    153.3235     40.7471   2.9036394949e+02   6.3518941022e+00   0.01612044   0.01054588 -62.77   0.00103814    1.581    0.367
       198  -7.8063    112.9943     42.4994   2.9084731751e+02   6.5832443880e+00  0.009751867  0.005787413  -4.66 0.0008106356    2.591    0.614
       199  -9.1182    104.8315     41.1244   2.9093430805e+02   6.6496455807e+00   0.01922976   0.01034529 -70.18   0.00119969    2.197    0.545
       200  -8.3944    106.1902     36.5547   2.9088961593e+02   6.6930666728e+00   0.01307916   0.01107279 -20.76 0.0009765518    1.268    0.211
       201  -9.0197    139.4812     39.9147   2.9052078229e+02   6.4476297348e+00   0.01876074   0.01253247 -72.92  0.001473153    1.711    0.415
       202  -8.8597    144.0609     36.5234   2.9044578538e+02   6.4575732893e+00   0.01249346  0.009644782  76.04 0.0005029824    1.579    0.367
       203  -7.3075     46.3298    209.7187   2.9267666748e+02   5.0963422201e+00  0.006903676  0.004961736  57.97 0.0003892306    1.605    0.377
       204  -8.1542    169.2456     70.7759   2.9036676824e+02   5.9117466191e+00   0.01167282  0.008118175 -66.38 0.0005550922    1.525    0.344
       205  -8.7745    118.9841     34.6932   2.9072798136e+02   6.6345661630e+00   0.01388995  0.009631121 -59.32 0.0006958704    1.460    0.315
       206  -9.3279     60.0073     33.6169   2.9141255759e+02   7.0134071171e+00   0.02136817    0.0139574 -79.18  0.001373773    1.906    0.475
       207  -9.8811     10.1959    207.4113   2.9308495392e+02   5.3461796980e+00   0.02883089   0.01639209   5.82  0.002469551    2.480    0.597
       208 -10.1863    191.4467    189.8787   2.9085600371e+02   4.4203942584e+00   0.03680398   0.01628172 -70.91  0.002810928    3.032    0.670
       209  -8.7836     63.4284     26.6264   2.9132845457e+02   7.0715295903e+00   0.02298567   0.01010569  17.94  0.001394107    2.925    0.658
       210  -7.4338     67.9899    199.4510   2.9235914123e+02   5.0789145106e+00  0.009635467  0.006467568  26.74 0.0003384459    1.469    0.319
       211  -9.0403    110.3178     33.1697   2.9081993074e+02   6.7058043016e+00     0.014884   0.01162891 -85.11 0.0008332249    1.497    0.332
       212  -8.9929    110.0000     27.9990   2.9079109017e+02   6.7664667171e+00   0.01616833  0.008942108 -54.94  0.001532827    1.782    0.439
       213  -9.3628    146.9026     69.2978   2.9061892900e+02   6.0678193938e+00   0.01796692   0.01299793  89.70  0.001050949    1.751    0.429
       214  -7.6000    221.5456    185.4755   2.9047691190e+02   4.2828567013e+00  0.006693618  0.006357562 -15.93 3.245197e-05    1.063    0.059
       215  -7.6615    191.7511    173.6647   2.9075066318e+02   4.6027352094e+00  0.009299911  0.005765023  37.05 0.0003329653    1.568    0.362
       216  -8.7894    230.6217    168.1074   2.9026184691e+02   4.4235327646e+00   0.01334304  0.006724425 -72.02  0.001102857    2.534    0.605
       217  -7.5501    245.9933     29.2580   2.8920780574e+02   5.9032295482e+00  0.008550048  0.005663377  28.06 0.0003301537    1.480    0.324
       218  -7.1278     19.3015    151.2941   2.9262782428e+02   5.9282385766e+00  0.006818563  0.005022154 -23.77 0.0002903334    1.573    0.364
       219  -9.2695     91.3537     26.4206   2.9099970691e+02   6.9003728279e+00   0.01984758    0.0126318 -78.45  0.001297109    1.971    0.493
       220  -8.5692     92.2644     20.8216   2.9095377366e+02   6.9582536724e+00   0.01565345   0.01066298 -12.10 0.0007088228    1.898    0.473
       221  -9.3327    233.0645    147.8053   2.9010568972e+02   4.6388546312e+00   0.01404241   0.01044825 -70.90  0.001392479    1.462    0.316
       222  -9.2448    236.4826    145.4888   2.9005121758e+02   4.6438272806e+00   0.01326181  0.008264703  37.68   0.00132364    1.565    0.361
       223  -7.7327    192.6214     27.3387   2.8981953837e+02   6.2587348536e+00  0.009051815  0.006024541 -49.79 0.0006424185    1.506    0.336
       224  -8.7005    144.1789     25.8436   2.9037709865e+02   6.5780217893e+00  0.009989854  0.009015123  71.66 0.0007055036    1.204    0.170
       225  -8.2750    145.7256     21.1134   2.9032916673e+02   6.6220421256e+00   0.01759206  0.008269285 -44.91 0.0008015547    2.265    0.559
       226  -8.5444    133.5807    145.8122   2.9125579039e+02   5.2814631670e+00   0.02249818  0.007364638 -67.00  0.001440743    4.135    0.758
       227 -10.0556     67.3700    144.3411   2.9202142881e+02   5.7095195603e+00   0.02522491   0.02040201  70.58  0.002074553    1.435    0.303
       228  -9.4829    153.2736     28.0944   2.9028478978e+02   6.4957745260e+00   0.02557474   0.01350164 -36.72  0.002216231    2.316    0.568
       229  -7.2479    205.0042    136.9794   2.9036531097e+02   4.9368799233e+00   0.00782805  0.007616046 -48.59            0    1.044    0.042
       230  -9.5797    135.6612    135.2440   2.9116510228e+02   5.3886356019e+00   0.02178859   0.01109367 -57.62 0.0005039877    1.942    0.485
       231  -8.1774    112.1795    133.8196   2.9143091903e+02   5.5508741957e+00   0.01466652  0.009569634  68.69  0.001377185    2.115    0.527
       232  -9.5910     98.7630    128.9758   2.9155755549e+02   5.6893197407e+00   0.02995043   0.01572431  58.54   0.00240659    2.846    0.649
       233 -10.6125     70.0217    126.4771   2.9187839959e+02   5.8961835863e+00    0.0347819   0.02829566   1.29  0.002172022    1.338    0.252
       234  -9.9677     58.1646    124.6373   2.9200573108e+02   5.9906508151e+00   0.02972262   0.01744333  67.34  0.002316954    2.665    0.625
       235  -7.8483    160.3719    128.1897   2.9083175272e+02   5.3149512113e+00  0.009472796  0.006476261 -76.32 0.0006092017    1.718    0.418
       236  -9.0531    102.9823     21.1206   2.9083001399e+02   6.8881941452e+00   0.01595684   0.01140076 -82.19 0.0005692173    1.698    0.411
       237  -9.8251    117.3765    125.7001   2.9131912520e+02   5.6108506669e+00   0.02874235   0.01538555  58.24   0.00200264    2.701    0.630
       238  -8.8368     40.9620     20.7875   2.9155527682e+02   7.2771815520e+00   0.01103086  0.009307752 -53.55 0.0004080187    1.194    0.162
       239  -9.1098    116.6773    119.6668   2.9128942229e+02   5.6837697145e+00   0.01431593   0.01073944  21.55  0.001359283    1.344    0.256
       240  -8.2797    200.1013    124.4042   2.9034350800e+02   5.1102927885e+00   0.01026813  0.008639239 -44.10 0.0007153091    1.204    0.170
       241  -9.5169     27.2957    123.0036   2.9235710836e+02   6.2004908630e+00   0.02686063   0.01544858  66.67  0.002036582    2.777    0.640
       242  -7.9641    141.8183     12.5976   2.9032123870e+02   6.7430039216e+00  0.009496496  0.005830552  39.89 0.0003421976    1.609    0.379
       243 -10.4767    131.7392    119.9867   2.9111516100e+02   5.5864348536e+00   0.04138622   0.01941125  50.70  0.003133107    2.719    0.632
       244 -10.4551    133.6117    109.6418   2.9102824528e+02   5.6923321369e+00   0.03575125   0.01985218 -67.92  0.002739618    2.018    0.504
       245  -9.0903     41.0992    121.6514   2.9218691907e+02   6.1303779851e+00   0.02321276   0.01324503 -78.35  0.002041194    2.374    0.579
       246  -7.4126    152.3064    121.3317   2.9088298634e+02   5.4431098535e+00  0.007051446  0.004984694 -26.13 0.0004249123    1.663    0.399
       247  -9.7872    140.7555    117.8710   2.9099636885e+02   5.5543569130e+00   0.02703246   0.01668983 -71.76  0.001149927    1.871    0.466
       248  -8.9273    130.2932     96.9802   2.9098749677e+02   5.8568457254e+00   0.02036295   0.01222417 -13.43  0.001746233    2.552    0.608
       249  -9.5818    127.7156    102.5852   2.9105290083e+02   5.8092075431e+00   0.01989693   0.01600866  37.49  0.001126975    1.224    0.183
       250 -10.2894    123.1447     92.2164   2.9104122972e+02   5.9554567284e+00   0.03714759   0.01977356 -54.59  0.001942547    1.845    0.458
       251  -8.7671    126.2535     83.6407   2.9095090714e+02   6.0335277764e+00     0.025561   0.01426341 -14.05  0.001973103    3.196    0.687
       252  -9.9535    108.5574    114.5165   2.9135212753e+02   5.7927942854e+00   0.02534203   0.01566119  79.00  0.001608664    2.569    0.611
