#   1 NUMBER                 Running object number                                     
#   2 MAG_AUTO               Kron-like elliptical aperture magnitude                    [mag]
#   3 X_IMAGE                Object position along x                                    [pixel]
#   4 Y_IMAGE                Object position along y                                    [pixel]
#   5 X_WORLD                Barycenter position along world x axis                     [deg]
#   6 Y_WORLD                Barycenter position along world y axis                     [deg]
#   7 A_WORLD                Profile RMS along major axis (world units)                 [deg]
#   8 B_WORLD                Profile RMS along minor axis (world units)                 [deg]
#   9 THETA_WORLD            Position angle (CCW/world-x)                               [deg]
#  10 FWHM_WORLD             FWHM assuming a gaussian core                              [deg]
#  11 ELONGATION             A_IMAGE/B_IMAGE                                           
#  12 ELLIPTICITY            1 - B_IMAGE/A_IMAGE                                       
         1 -16.4179    182.7131    197.2057   5.2888940337e+01   5.3294415292e+00     3.806707     1.261875 -47.94   0.01298518    3.412    0.707
         2 -15.0848     91.8777     98.5810   5.4016808130e+01   4.4992183586e+01     1.804085     1.200503 -69.44  0.007631112    2.132    0.531
         3 -14.4439    119.9462     47.6529   2.9569010139e+01   4.8699811984e+01     1.088202    0.7828074 -48.59  0.005453047    1.618    0.382
         4 -15.0846    139.7369     44.2812   2.3868092055e+01   4.4511498840e+01     1.322629    0.9127628 -40.75  0.005451364    1.557    0.358
         5 -14.6852    127.3399     28.3912   2.1375923397e+01   4.9462922827e+01    0.9372928    0.6042771 -48.66  0.004726511    1.863    0.463
         6 -13.5976      6.7568     32.2495   6.7683118221e+01   6.8851610548e+01    0.5987688    0.5199625 -59.74  0.004354827    1.545    0.353
         7 -14.2134     78.6346     21.4434   3.1656895556e+01   6.0857191247e+01     0.684725    0.6162792  54.36  0.002577451    1.346    0.257
         8 -14.4991     63.2221     17.6283   3.5375760597e+01   6.4138046986e+01      1.12136    0.8034873 -31.00  0.005678411    1.557    0.358
         9 -14.0440     42.4485     20.9784   4.5404257847e+01   6.6996683465e+01     1.036767    0.4436667  40.22  0.005039906    2.446    0.591
        10 -14.2592     26.5659     23.9657   5.4279135562e+01   6.8530419813e+01    0.8361444    0.5114141  19.48  0.003172479    1.549    0.354
        11 -14.1583     20.9742     13.0156   5.2201990629e+01   7.0720345865e+01    0.8271199    0.5481165  10.88  0.004717194    1.312    0.238
        12 -14.6186    122.2724     12.8132   1.7186534130e+01   5.2255615597e+01    0.9462011    0.7478525  81.22  0.004305705    1.356    0.262
        13 -12.1813      2.4877     17.2389   6.4311305043e+01   7.1677206245e+01    0.2814281    0.1508664 -34.65  0.001778818    1.423    0.297
        14 -14.3124    208.7990     16.6270   6.2119829699e+00   3.1298031192e+01    0.8572868    0.4443551 -67.84  0.004228678    2.055    0.513
        15 -13.1184     97.8314      3.0755   1.8925150769e+01   5.8614591644e+01    0.8959652    0.3550567  70.54  0.003375141    3.561    0.719
        16 -16.4393     63.4964    154.9511   7.5026797418e+01   3.5556871899e+01     2.568845     1.730662  79.18   0.01220041    1.781    0.438
        17 -13.7518     73.5109    249.1801   8.4043259974e+01   1.2816756248e+01    0.8172198    0.2407083  39.83   0.00347808    2.647    0.622
        18 -13.2016     66.4979    244.9863   8.5062029491e+01   1.4566257752e+01    0.4255606    0.2630193  46.13  0.001949056    1.345    0.257
        19 -13.5446     42.0447    246.2996   8.9910129257e+01   1.7382574329e+01    0.5947959    0.3282576  65.08  0.002884682    1.597    0.374
        20 -14.9806     96.1483    202.9132   7.3858501288e+01   1.9168472789e+01     2.105382    0.8920612  38.58  0.008650697    2.166    0.538
        21 -15.7871    111.8274    139.2188   5.8228303094e+01   3.1711116184e+01     1.596015     1.475138 -74.25   0.00603499    1.123    0.110
        22 -14.7181    106.1447    125.0231   5.6526059718e+01   3.6205831276e+01    0.8954799    0.8858309 -43.93  0.002845393    1.021    0.020
        23 -15.9976     74.6720    187.6664   7.6945097059e+01   2.5944208836e+01     2.393433     1.491867 -66.92   0.01184693    1.570    0.363
        24 -15.8740     90.3255    168.6263   6.9991724624e+01   2.8207281287e+01     1.595192     1.183189  45.86  0.006573773    1.341    0.254
        25 -14.1045     15.9709    201.7064   9.1949817324e+01   2.9592696280e+01    0.7793145    0.4104616 -81.23  0.003561046    1.632    0.387
        26 -16.6282     33.5749    169.5929   8.4992802705e+01   3.5401283180e+01     2.576702     1.467634  78.54  0.009184955    1.927    0.481
        27 -12.7636     22.9214    188.4739   8.9391926171e+01   3.1949048846e+01    0.4364491    0.1736672 -73.38  0.001872343    2.162    0.538
        28 -14.6439    218.9560    180.9070   4.2251607145e+01   2.0065704619e+00    0.6231556    0.4340718 -35.54  0.003313885    1.341    0.255
        29 -12.9595      2.1828    181.5574   9.3497806291e+01   3.5362139017e+01    0.5594183    0.1668844 -61.96  0.002444601    2.826    0.646
        30 -14.2227      2.3301    166.6769   9.2361053629e+01   3.8816729461e+01     1.192025     0.330648 -76.26  0.004242392    2.925    0.658
        31 -14.8029     11.0087    158.8032   8.9567316323e+01   4.0045685079e+01     0.806788    0.5093717 -73.33  0.002502313    1.294    0.227
        32 -14.1764      5.3616    152.4891   9.0406087031e+01   4.1980779780e+01    0.5734398    0.4182862 -80.67  0.002009121    1.101    0.092
        33 -12.3994     10.0814    179.0218   9.1535423827e+01   3.5314013633e+01    0.2400638    0.2038278 -79.60  0.001310732    1.146    0.127
        34 -13.9817    199.1089    159.6049   4.1696341882e+01   9.5977019532e+00    0.4892953    0.3439405  34.98  0.002391342    1.477    0.323
        35 -14.7808     30.4721    145.0448   8.2839346567e+01   4.1774794004e+01    0.7597985    0.5852265  -2.67  0.004332218    1.709    0.415
        36 -15.4200     39.2722    140.1924   7.9636826454e+01   4.2128755754e+01     1.408135    0.8161342  22.79  0.006911464    2.047    0.512
        37 -15.0080    142.9560    137.5697   4.9488390808e+01   2.5861271369e+01    0.9881654    0.8215181 -23.75   0.00475819    1.312    0.238
        38 -15.1081    162.8016    133.6353   4.3670315302e+01   2.2490522549e+01     1.416191     1.008722 -56.64  0.006321456    1.548    0.354
        39 -12.9422    247.4093    130.7650   2.6777512374e+01   5.8946535235e+00    0.4594964    0.2271284 -50.14  0.002034542    2.121    0.528
        40 -14.6287     13.2474    108.5088   8.2839254294e+01   5.2111709696e+01     1.011145    0.2697963 -60.97  0.004023798    2.572    0.611
        41 -14.1527      9.6171    120.7551   8.5724894029e+01   4.9389222380e+01    0.7078816    0.2683801 -62.49  0.003253329    1.969    0.492
        42 -14.1587    215.7896    115.2941   2.8454201902e+01   1.4734232096e+01    0.7856534    0.5311648 -56.15  0.003779624    1.588    0.370
        43 -14.5692     64.9610    119.5802   6.7966320228e+01   4.4249305531e+01    0.9861261    0.7847873  62.65  0.005146096    1.490    0.329
        44 -13.9853    152.2393    115.5165   4.1638640285e+01   2.8733961982e+01    0.6066599    0.4773695 -20.50  0.002812346    1.461    0.316
        45 -13.8548     51.0304    114.2926   7.1385457054e+01   4.7308882562e+01    0.6666809    0.5037428 -76.48  0.003534995    1.415    0.293
        46 -13.0963    195.7147    111.0966   3.1086605869e+01   1.9830574461e+01     0.545949    0.3441924 -47.34  0.002460183    1.542    0.352
        47 -12.1253    248.6643    111.3324   2.2457900011e+01   8.9732476167e+00    0.1383317   0.09476563 -64.59  0.000705217    1.736    0.424
        48 -14.4438     74.1744    236.3388   8.2702315548e+01   1.5244833720e+01    0.5638746    0.3656231  77.77  0.002701741    1.636    0.389
        49 -14.1200    128.6809     94.5084   4.1932614156e+01   3.8432232284e+01     1.010754    0.7471932  50.80   0.00458669    1.385    0.278
        50 -14.3926     14.7599    125.7476   8.4833100868e+01   4.7830698253e+01    0.6920948    0.4218891 -83.00  0.002571905    1.556    0.357
        51 -13.6336     22.1219     89.6281   7.6365316662e+01   5.5956245965e+01    0.6274445    0.4602423 -46.70  0.003190892    1.133    0.117
        52 -12.6804      3.4121    107.0467   8.5820802544e+01   5.3035132722e+01    0.3615099    0.2045043  89.53  0.001877346    1.945    0.486
        53 -13.1576    121.0669     79.5900   3.9583083277e+01   4.3075890108e+01    0.9273527    0.5023485  33.86  0.003635959    2.142    0.533
        54 -15.1131    137.6459     75.9350   3.4124645427e+01   3.9983854009e+01     1.686943     1.259211  -6.26  0.007779558    1.745    0.427
        55 -14.6133    133.7634     61.3389   3.0588607899e+01   4.3393729881e+01    0.8144939    0.7306621  88.78  0.004443414    1.254    0.202
        56 -12.2830     42.7376     80.9010   6.6504539305e+01   5.6063324760e+01    0.3877484    0.2184207 -50.37   0.00192522    1.538    0.350
        57 -12.2153    109.2916     70.5892   4.0112052350e+01   4.7303274546e+01    0.2673838    0.1853599 -14.41  0.001208586    1.787    0.440
        58 -13.1223    212.4973     65.5487   1.7199497322e+01   2.3955211211e+01    0.4370888    0.2623082 -60.88   0.00206888    1.796    0.443
        59 -12.2126    102.5381     64.8058   4.0235720202e+01   4.9753996677e+01    0.3678593    0.1921908  41.00  0.001557754    1.864    0.464
        60 -13.6175    217.8834    101.5648   2.4904844190e+01   1.6771166394e+01     0.433811    0.3213268 -44.19  0.002272073    1.229    0.186
        61 -13.5487      8.6461     51.4824   7.2765413020e+01   6.5093503581e+01    0.5211092    0.4584846 -53.19  0.003434577    1.275    0.215
        62 -13.1324     75.1684    227.5372   8.1601633647e+01   1.6914379822e+01    0.3776964    0.2443263  75.40  0.002053168    1.649    0.394
        63 -12.7824     72.6231     52.3143   4.5872140868e+01   5.7570152385e+01    0.4027865    0.3562648 -89.92  0.002216872    1.740    0.425
        64 -12.6287     31.5852     50.5812   6.2060518600e+01   6.3452581205e+01    0.6083383    0.3318293 -49.77  0.002782249    1.725    0.420
        65 -13.0869     38.1331     49.3297   5.8731111795e+01   6.2991760423e+01    0.4635374    0.4272444 -17.78  0.002777823    1.232    0.189
        66 -14.5107     37.7086    216.9764   8.8557113311e+01   2.3943636107e+01    0.9459597    0.5289129  81.52  0.004532223    1.764    0.433
        67 -15.1307     52.5673    212.6155   8.4991395883e+01   2.3130462285e+01     1.511715     0.936064  89.80  0.007234905    1.611    0.379
        68 -14.0014    212.2041     46.6059   1.2759524660e+01   2.6791237313e+01    0.7749804    0.4635963 -65.94  0.003835626    1.793    0.442
        69 -13.0579    102.3394     47.5912   3.4356937958e+01   5.2601303293e+01    0.5340533    0.4032722 -21.38   0.00285737    1.390    0.281
        70 -12.3592    234.7208     45.6683   1.0011569748e+01   2.1975596737e+01    0.2921401    0.2154482 -50.47  0.001772102    1.198    0.166
        71 -13.0530     56.4657     46.0935   4.9785567494e+01   6.1184888542e+01    0.3596604    0.2752836   7.67  0.001935644    1.217    0.178
        72 -12.4273     97.8153     39.1456   3.2630616746e+01   5.4764780160e+01    0.3259104    0.2376947 -33.18  0.001767521    1.470    0.320
        73 -13.6378     40.8136    205.6754   8.6918088496e+01   2.6094418385e+01    0.4847609    0.3696448  68.98  0.001723866    1.134    0.118
        74 -13.3046    107.2601     34.9240   2.8442767938e+01   5.3283295785e+01    0.5711879    0.4078995 -16.41  0.002924101    1.549    0.354
        75 -13.1437    104.4096     26.5954   2.6161496523e+01   5.4916530898e+01    0.8869489    0.3521452  61.39  0.003378558    2.891    0.654
        76 -13.1666     17.5102    219.1124   9.2818568087e+01   2.5641967497e+01    0.4696859    0.2283619  58.17  0.002543586    1.784    0.440
        77 -15.9049    155.0759    200.8652   5.9700243174e+01   9.5442734858e+00     1.850464     1.277344  39.11  0.007220234    1.358    0.264
        78 -16.7148    159.2408    181.4963   5.5087237500e+01   1.2803967301e+01     1.897594      1.43598  42.98  0.007436183    1.309    0.236
        79 -13.6708     10.8694    242.5426   9.5406956866e+01   2.1524851168e+01    0.6579651    0.2376009 -79.73  0.002989303    2.517    0.603
        80 -15.5452    180.6029    159.9659   4.5705732696e+01   1.3165587743e+01      1.83366     1.040267 -57.91  0.007152935    2.366    0.577
        81 -13.8107      7.6793    213.1517   9.4387084244e+01   2.7857924502e+01    0.5143657    0.3340364 -72.01  0.002239522    1.455    0.313
        82 -17.2326    125.3014    176.1755   6.2285582512e+01   2.0358436089e+01     3.660003     2.973823 -82.22   0.01825759    1.447    0.309
        83 -15.2894     90.8075    125.3470   6.1177630149e+01   3.8870644337e+01     2.426245     1.042539 -57.63  0.008649376    2.433    0.589
