#   1 NUMBER                 Running object number                                     
#   2 MAG_AUTO               Kron-like elliptical aperture magnitude                    [mag]
#   3 X_IMAGE                Object position along x                                    [pixel]
#   4 Y_IMAGE                Object position along y                                    [pixel]
#   5 X_WORLD                Barycenter position along world x axis                     [deg]
#   6 Y_WORLD                Barycenter position along world y axis                     [deg]
#   7 A_WORLD                Profile RMS along major axis (world units)                 [deg]
#   8 B_WORLD                Profile RMS along minor axis (world units)                 [deg]
#   9 THETA_WORLD            Position angle (CCW/world-x)                               [deg]
#  10 FWHM_WORLD             FWHM assuming a gaussian core                              [deg]
#  11 ELONGATION             A_IMAGE/B_IMAGE                                           
#  12 ELLIPTICITY            1 - B_IMAGE/A_IMAGE                                       
         1 -13.5965     58.4047    130.7432   1.0569599637e+02   4.1945224790e+01     3.780142     1.707473  83.22   0.01179474    4.471    0.776
         2 -12.4031    196.4757     39.6013   4.7098842711e+01   3.1130125470e+01     1.117045    0.8955511 -34.23   0.00396242    1.166    0.142
         3 -12.5146    205.9990     29.6302   4.3205319127e+01   3.0074630922e+01    0.8609306    0.7255368   9.73  0.001599691    1.440    0.306
         4 -11.6186    230.3292      4.2669   3.4587436586e+01   2.7215192715e+01    0.7946824    0.5178142  84.50  0.004642844    1.592    0.372
         5 -10.3956     60.2675      6.2754   6.3747076777e+01   6.9208900347e+01    0.4132553    0.2246996  72.86  0.001502965    3.959    0.747
         6 -10.5459     40.3382      3.8662   7.2280507045e+01   7.3289725184e+01    0.3197899     0.241878 -11.77   0.00188547    1.270    0.213
         7  -8.5092     60.3261      2.3173   6.1202437525e+01   6.9687868779e+01    0.1425136   0.09322624  21.35 0.0005909912    1.675    0.403
         8 -10.1044     54.2707    221.8449   1.1547980907e+02   2.2910774611e+01    0.4149097    0.2948471  31.97  0.001689219    1.349    0.259
         9 -14.4679     49.2741    201.5528   1.1521714774e+02   2.7256129417e+01     8.490533     1.708296  47.17   0.03222387    3.579    0.721
        10  -9.3676     92.4361    217.1888   1.0716582767e+02   1.9105683721e+01    0.2280818    0.1792597  61.51  0.001561361    1.239    0.193
        11  -9.9010    157.0243    218.7570   9.4223239012e+01   9.9309046711e+00    0.2129497    0.1724056 -60.80  0.001447944    1.758    0.431
        12  -9.4800    184.9976    214.0009   8.8286338054e+01   6.6356049882e+00     0.295144    0.1004634  41.11  0.001318157    2.721    0.632
        13  -9.9429     41.4518    207.5224   1.1730311013e+02   2.6948233101e+01    0.3542829    0.2192176  52.82   0.00227741    1.267    0.211
        14 -13.3494     57.4839    240.4472   1.1595168324e+02   1.9388024234e+01    0.9786466    0.4148218  47.84  0.003996598    1.734    0.423
        15  -9.6747    109.5077    201.4097   1.0182772121e+02   1.9556080201e+01    0.2659068    0.1922152  10.97  0.001078355    1.736    0.424
        16  -9.7514    195.2307    198.9108   8.4103612865e+01   7.1805414215e+00    0.2967885    0.2027299 -62.35  0.001529559    3.186    0.686
        17  -8.2580    128.3689    195.1683   9.6919369724e+01   1.7885997473e+01    0.1647871    0.1221283 -72.50 0.0009530738    1.798    0.444
        18  -8.7449     71.8137    186.2997   1.0876379130e+02   2.7621354528e+01    0.2306168    0.1484214  55.49 0.0003316032    1.402    0.287
        19  -8.3305     99.2009    180.8051   1.0161937121e+02   2.4959132673e+01    0.1997384    0.1557179  54.20 0.0008591947    1.189    0.159
        20  -8.5572    150.5530    179.0742   8.9694148344e+01   1.7194028210e+01    0.3158276    0.2165416 -78.01  0.001502146    2.700    0.630
        21 -10.8194     71.5881    174.3761   1.0756800467e+02   3.0148940881e+01    0.4529006    0.2828612 -39.66  0.001522924    2.274    0.560
        22 -10.4647     75.9721    169.4772   1.0590480621e+02   3.0621727340e+01    0.3101583    0.2613648 -39.67  0.001837356    1.476    0.323
        23  -9.9024     48.3710    171.8990   1.1314219918e+02   3.3517228369e+01    0.4092399    0.1978191 -42.00  0.001714886    3.520    0.716
        24  -8.8381     45.2516    169.4227   1.1371756790e+02   3.4410560887e+01    0.2479388    0.1274457  67.90 0.0008352873    2.015    0.504
        25 -10.1266    104.7621    171.8746   9.9064085123e+01   2.5928550184e+01    0.4778693    0.2321359  52.03  0.002073032    2.216    0.549
        26 -13.1390     21.4832    241.5954   1.2278897314e+02   2.2868816624e+01    0.4611073    0.3588127 -72.24 0.0006468543    1.661    0.398
        27 -12.6812     68.5864    144.1649   1.0461146353e+02   3.7373187967e+01     1.224005    0.7896571  80.12  0.003571797    1.776    0.437
        28  -8.0342    157.8631    160.8745   8.4912960583e+01   1.9162279891e+01    0.1715881     0.162829  83.34 0.0004168268    1.285    0.222
        29 -10.8838     90.6622    153.9195   9.9980279417e+01   3.1937456804e+01     0.602713    0.4359919 -15.10  0.002268393    2.135    0.532
        30 -11.0250     52.8672    148.9827   1.0966580587e+02   3.8226689545e+01    0.5460362    0.2288221  51.67  0.002296034    2.379    0.580
        31 -10.7808     58.1731    146.0277   1.0781746074e+02   3.8283067477e+01    0.3788495    0.2863416 -74.03  0.002148904    1.289    0.224
        32  -9.4122    133.9490    145.8723   8.7504718101e+01   2.6337031096e+01    0.8813124     0.216929 -54.36  0.002156179    6.620    0.849
        33  -7.4844    112.6849    150.6781   9.3703089129e+01   2.9090469473e+01    0.1398354    0.1110482  -9.49 0.0007041126    1.660    0.398
        34  -7.9063    174.6989    149.3090   7.9089264001e+01   1.8169627768e+01    0.1275713    0.1115309  87.26 0.0004899462    1.601    0.376
        35 -10.0978     41.2366    147.3462   1.1276240395e+02   3.9918718509e+01    0.2750326    0.2318262 -84.86  0.001316507    1.125    0.111
        36  -9.5630     40.9814    142.4613   1.1233919652e+02   4.1112722155e+01    0.2246607    0.1908485  65.21  0.000624478    1.054    0.051
        37  -9.9927     46.6613    145.4523   1.1102693115e+02   3.9778479531e+01     0.279853    0.1770428  34.81  0.001219076    1.547    0.354
        38  -8.6098     84.5390    144.0562   1.0010396096e+02   3.5110521465e+01    0.2071909    0.1793336  48.07 0.0003692384    1.094    0.086
        39  -9.6913    103.7992    139.4226   9.4003168620e+01   3.3071766387e+01    0.4853802    0.3030853 -29.70  0.002065381    2.372    0.578
        40 -10.5325     91.4790    139.1624   9.7350004871e+01   3.5163713974e+01    0.2666635    0.2593836 -15.38 0.0004144514    1.165    0.142
        41  -9.2326     45.1714    138.7858   1.1071500739e+02   4.1547673691e+01    0.1770157    0.1543189 -46.77  0.001067955    1.347    0.258
        42  -9.1301    106.0618    130.8297   9.1721252376e+01   3.4619942425e+01    0.3319296    0.2982368  81.53  0.001199965    1.157    0.136
        43 -11.5078     43.2967    126.0320   1.0974696563e+02   4.4887380007e+01     0.600913    0.3301718  49.57  0.002894757    1.782    0.439
        44  -9.2251     50.2740    165.3717   1.1206473847e+02   3.4751686019e+01    0.1859586    0.1443801 -37.33 0.0004474763    1.730    0.422
        45  -9.9185    112.9654    129.5643   8.9571764461e+01   3.3663618562e+01    0.4231493    0.3192012 -19.64  0.001852539    1.768    0.434
        46  -8.2575    135.6777    126.3197   8.2952639734e+01   3.0032436661e+01    0.1492548    0.1178866  82.43 0.0007044557    1.671    0.402
        47  -9.8667    118.9050    124.3247   8.6841940968e+01   3.3716749263e+01    0.3424045    0.2437372 -25.98  0.001568072    1.806    0.446
        48  -8.5310    108.4863    118.9953   8.8525824408e+01   3.6871859945e+01    0.2188301    0.1948149  43.24 0.0003597981    1.110    0.099
        49  -8.0258    168.5045    113.4817   7.2323711845e+01   2.5801002391e+01    0.1445305    0.1406111 -15.25 0.0008100827    1.039    0.038
        50  -9.7317    114.7695    110.7241   8.4815913943e+01   3.7537877919e+01    0.3828562    0.2053743 -47.11  0.001342062    1.877    0.467
        51 -10.1070    118.1175    108.8348   8.3415466187e+01   3.7293175461e+01    0.3132941    0.2473506  50.90  0.001165933    1.279    0.218
        52  -8.5196    205.4902    110.2480   6.4541168832e+01   1.8728874972e+01    0.2462394    0.1910574  43.74  0.001005757    1.368    0.269
        53 -10.1615     49.4455    216.7835   1.1616526272e+02   2.4356850498e+01    0.5421552    0.3539074   9.18  0.003169399    2.353    0.575
        54  -9.1961    134.7082    105.1918   7.8064291839e+01   3.4639132655e+01    0.3619765    0.1355454 -42.08  0.001213384    2.721    0.633
        55  -9.3817     99.9091    125.9575   9.2462920714e+01   3.6816325396e+01    0.3069936    0.2594969  -4.13  0.001127805    1.484    0.326
        56  -8.7682     57.3768     95.8319   9.9922862628e+01   5.0816979683e+01    0.3612507    0.1637826  47.26  0.001421177    2.437    0.590
        57  -8.3058     60.2707     68.4165   9.1849523932e+01   5.7171421065e+01    0.1938881    0.1338637  46.73 0.0003108224    1.582    0.368
        58 -11.1671     83.8790    161.0760   1.0279768975e+02   3.1355464205e+01    0.6544923    0.3908987  59.34 0.0007395071    1.796    0.443
        59 -14.6222     31.6945    249.7518   1.2120480448e+02   2.0571867920e+01        7.365     1.950246  23.56   0.01117902   14.537    0.931
        60  -8.4814     77.4547    226.7163   1.1108065170e+02   1.9359411851e+01    0.1613111    0.1090338 -83.26 0.0005342172    1.756    0.431
        61 -11.9895    185.1585     48.5392   5.1232079738e+01   3.2691989846e+01    0.8497503    0.6622604  27.80  0.001893126    1.551    0.355
        62  -8.8822    149.8073     45.7074   5.6279227121e+01   4.2025730854e+01    0.2691028    0.2229908 -71.72 0.0005109329    1.307    0.235
        63 -12.1546     72.5674    155.7568   1.0508018524e+02   3.4139496738e+01    0.5574813    0.4978892 -41.35  0.001363375    1.339    0.253
        64  -9.8133    148.0886     52.1696   5.8826701186e+01   4.1463214024e+01    0.5378601     0.330841 -77.04  0.001063917    2.602    0.616
        65  -8.7606     40.6716     20.3250   8.2196071983e+01   7.0465067501e+01     0.125067    0.1077664  89.50 0.0003255309    1.699    0.411
        66 -16.8277      6.0565    237.4458   1.2550315592e+02   2.4944814728e+01     16.00523      1.26957 -82.23   0.02634707   11.575    0.914
        67  -8.7240     50.3183    224.7476   1.1646059251e+02   2.2832203027e+01    0.3425774    0.1534708  80.54  0.001778724    2.776    0.640
        68  -8.3220     61.0125    220.4654   1.1399943584e+02   2.2392947230e+01    0.2487578    0.1615732  22.93  0.000884283    1.716    0.417
