#   1 NUMBER                 Running object number                                     
#   2 MAG_AUTO               Kron-like elliptical aperture magnitude                    [mag]
#   3 X_IMAGE                Object position along x                                    [pixel]
#   4 Y_IMAGE                Object position along y                                    [pixel]
#   5 X_WORLD                Barycenter position along world x axis                     [deg]
#   6 Y_WORLD                Barycenter position along world y axis                     [deg]
#   7 A_WORLD                Profile RMS along major axis (world units)                 [deg]
#   8 B_WORLD                Profile RMS along minor axis (world units)                 [deg]
#   9 THETA_WORLD            Position angle (CCW/world-x)                               [deg]
#  10 FWHM_WORLD             FWHM assuming a gaussian core                              [deg]
#  11 ELONGATION             A_IMAGE/B_IMAGE                                           
#  12 ELLIPTICITY            1 - B_IMAGE/A_IMAGE                                       
         1 -13.1242    235.8390     25.1732   2.6009045961e+02  -6.0795157046e+01    0.1307469    0.1204359  50.66   0.00406429    1.107    0.097
         2 -10.4449    249.9958     10.9739   2.5943660440e+02  -6.1435270852e+01   0.03366611   0.02435903  16.55 0.0008570012    1.389    0.280
         3  -9.6547     17.1806     11.1230   2.5494891382e+02  -5.3452395873e+01   0.02631256   0.02007871 -43.15  0.000555186    1.326    0.246
         4  -9.2017    125.0413    243.5301   2.7047770103e+02  -5.4047806380e+01    0.0302799   0.02189339  27.85 0.0007171154    1.386    0.279
         5  -9.7075    100.8173    249.6405   2.7012138452e+02  -5.3182604525e+01   0.05481209   0.03588101  23.71  0.001942499    1.567    0.362
         6  -9.4866    100.6194    244.4791   2.6984302015e+02  -5.3259716549e+01   0.04237302   0.02826866 -26.97  0.001536732    1.809    0.447
         7  -9.0611     75.1285    249.8580   2.6943457257e+02  -5.2365299895e+01   0.02877241   0.01968136  50.92 0.0007552244    1.604    0.377
         8 -10.0306     75.9985    245.1132   2.6921029362e+02  -5.2467925249e+01   0.04560198   0.02415231  31.76 0.0006393295    1.835    0.455
         9 -15.0112     68.0990    148.3394   2.6377215410e+02  -5.3625253907e+01    0.5893433    0.3188952 -23.38   0.01459991    2.561    0.609
        10 -10.1335     64.3451    232.5128   2.6824573675e+02  -5.2291968865e+01   0.04500629    0.0298839  55.10  0.000528839    1.733    0.423
        11  -9.5326    198.1182    216.4628   2.7115850055e+02  -5.6802692867e+01   0.02630194   0.02442244  20.14 0.0004476357    1.089    0.082
        12  -9.3372    105.2781    216.9964   2.6849446304e+02  -5.3843177063e+01   0.02661573   0.02369627  30.05 0.0006399347    1.123    0.109
        13  -9.4382    165.8111    215.1711   2.7010249051e+02  -5.5803706639e+01    0.0255683   0.02089607  55.90 0.0006970319    1.311    0.237
        14 -10.7148     71.8519    224.6481   2.6802438499e+02  -5.2652895030e+01   0.03976503   0.03707568  46.25 0.0005138326    1.093    0.085
        15  -9.4594    124.6358    206.3032   2.6843294407e+02  -5.4630744822e+01   0.01985241   0.01316635 -31.85 0.0007036362    1.734    0.423
        16 -13.6891     20.8241    195.5408   2.6524353360e+02  -5.1426765797e+01   0.05751203   0.04727665   1.84  0.001414869    1.285    0.222
        17  -9.8837    211.0079    198.7723   2.7053458132e+02  -5.7505892999e+01   0.02975422   0.02625572  27.24 0.0004892399    1.136    0.120
        18 -10.4105    192.7841    194.3614   2.6971504506e+02  -5.7000530137e+01   0.08527471    0.0418552  -3.39  0.001876928    5.313    0.812
        19 -11.5173     68.8847    193.7996   2.6629546848e+02  -5.3016397325e+01   0.05045938   0.03454707  -9.87 0.0007941173    1.776    0.437
        20  -9.4754    207.7035    189.5506   2.6988770381e+02  -5.7553445623e+01   0.02517926   0.01655521 -50.31 0.0009330714    1.503    0.334
        21 -11.6784    128.5667    185.3569   2.6736532578e+02  -5.5078830506e+01   0.06097658   0.04134736 -69.50  0.002020517    1.524    0.344
        22  -9.5977     72.5992    186.8042   2.6600642616e+02  -5.3238456365e+01   0.03224775   0.02485928 -58.67 0.0005046988    1.275    0.216
        23  -9.3403     69.7376    184.3533   2.6580244475e+02  -5.3180294278e+01   0.03290324   0.02537045  14.55 0.0006975401    1.341    0.254
        24  -9.7426    142.1177    182.8556   2.6759065595e+02  -5.5555377896e+01     0.027737   0.02468452 -27.23 0.0004122748    1.164    0.141
        25 -10.4719    116.0026    181.7573   2.6682854911e+02  -5.4725124041e+01   0.03151663   0.02674617  22.73 0.0005966329    1.183    0.154
        26 -10.8050    173.9903    171.9757   2.6784922797e+02  -5.6752272805e+01   0.06209213   0.03800827 -51.64  0.001883957    1.599    0.375
        27  -9.9542    174.7694    180.4027   2.6836654527e+02  -5.6646648146e+01   0.03443586   0.03176838  57.06 0.0007643797    1.119    0.107
        28 -10.5483    172.4948    176.0336   2.6804520126e+02  -5.6641355297e+01   0.05252714   0.04321222 -10.17  0.001327653    1.341    0.254
        29 -11.0140    180.7173    168.7141   2.6784864630e+02  -5.7019764660e+01   0.09845428   0.04688041   9.21  0.002739149    3.092    0.677
        30 -10.8813    177.4906    169.5276   2.6780448109e+02  -5.6903011984e+01   0.04449993    0.0343476  -4.53  0.001772035    1.473    0.321
        31  -9.9129     62.9790    180.9424   2.6545263035e+02  -5.3008015203e+01   0.03170207   0.02678346 -79.95 0.0005452295    1.240    0.194
        32 -14.2455     31.3028    247.1879   2.6816762690e+02  -5.1011845916e+01    0.1416356   0.08719316  85.98  0.004687864    2.309    0.567
        33 -10.5577    102.9566    237.7151   2.6954760637e+02  -5.3442390095e+01   0.06822522   0.02464654  31.80  0.001663595    2.587    0.613
        34  -9.0287     93.7653    236.2782   2.6922066755e+02  -5.3172825796e+01   0.03987507   0.02270528  61.07  0.001257103    2.448    0.591
        35 -14.4689     47.0791    178.8800   2.6496390901e+02  -5.2516555083e+01    0.3465863    0.2100026  54.16  0.008512977    1.912    0.477
        36  -8.8622     75.2956    175.6756   2.6546159376e+02  -5.3485449173e+01   0.02542086    0.0168485 -46.68 0.0004285747    1.516    0.340
        37 -10.0900     74.1103    172.1242   2.6523680279e+02  -5.3496742426e+01   0.05290758   0.03075189  -6.20   0.00165869    2.351    0.575
        38  -9.8869    184.8505    232.6602   2.7166329966e+02  -5.6111093460e+01   0.05555963   0.02033484  24.98  0.001490804    3.066    0.674
        39 -12.3319     85.5869    221.8055   2.6823039251e+02  -5.3137209625e+01    0.2149838   0.06238735 -57.83  0.005693132    3.030    0.670
        40  -9.7924    110.7761    167.0318   2.6586042159e+02  -5.4770046160e+01   0.02909812   0.02404746 -23.78 0.0008048178    1.295    0.228
        41 -11.3093     97.1797    228.0273   2.6887218276e+02  -5.3411711886e+01    0.0982026   0.08275989 -70.16  0.004199592    1.214    0.176
        42 -10.2452     95.9691    161.0412   2.6515040875e+02  -5.4369854815e+01   0.03491589   0.02627334   6.82 0.0003139513    1.430    0.301
        43 -11.2527    238.1176    159.2788   2.6899701267e+02  -5.9012480235e+01   0.03736794   0.02805626  18.24  0.001442317    1.387    0.279
        44  -9.2279    117.4928    158.9987   2.6557252671e+02  -5.5105245674e+01   0.02697337   0.01815115  18.64   0.00100517    1.530    0.346
        45 -11.7816    114.8624    228.9560   2.6940521912e+02  -5.3961047356e+01    0.0769681   0.05565102 -37.64  0.000944592    1.468    0.319
        46 -10.3683     51.5407    155.8184   2.6380855559e+02  -5.2977795302e+01   0.05366763   0.03674217 -53.89   0.00147065    1.427    0.299
        47  -9.2786    114.4029    153.2647   2.6516492383e+02  -5.5085122352e+01   0.02563257   0.01756031   4.32 0.0007134826    1.653    0.395
        48 -11.6165    133.1974    145.1010   2.6516649607e+02  -5.5818400569e+01    0.1280646   0.04769019  15.68  0.002722191    3.387    0.705
        49  -9.6392     88.7533    150.8127   2.6439649351e+02  -5.4274240754e+01   0.02899799   0.02556812 -61.79 0.0004273237    1.126    0.112
        50 -11.9707     87.7018    145.4329   2.6406620460e+02  -5.4312812422e+01   0.08471756   0.05667861  53.35    0.0013772    1.649    0.393
        51 -10.6621     81.5385    150.3554   2.6419904372e+02  -5.4042298634e+01   0.03251538   0.03180535  86.35 0.0002112302    1.041    0.039
        52  -8.9655     43.0961    148.9159   2.6323931088e+02  -5.2789943184e+01   0.02372815   0.02309146 -54.22            0    1.024    0.024
        53 -11.6210    109.6810    229.5572   2.6929467814e+02  -5.3786420309e+01   0.07736439   0.05982064 -69.85  0.003157739    1.336    0.252
        54 -10.9080    108.9341    145.3401   2.6457276436e+02  -5.5015518063e+01   0.03705678   0.03537606 -79.55  0.000652877    1.063    0.059
        55  -9.6345     33.0715    145.0560   2.6280795169e+02  -5.2507871409e+01   0.05794108   0.02581973 -38.41  0.001672655    2.715    0.632
        56 -10.5336     36.8131    142.4662   2.6274690493e+02  -5.2665422222e+01   0.04425951   0.03894061  36.04  0.000940146    1.136    0.120
        57 -10.2808    147.0262    143.0206   2.6540089320e+02  -5.6302590289e+01    0.0274105   0.02691466 -24.16 0.0004022155    1.017    0.016
        58 -11.9449    132.9857    229.8356   2.6996260127e+02  -5.4522991869e+01    0.0871735   0.05479351  80.82  0.002891425    2.327    0.570
        59  -9.5080    127.1744    137.2128   2.6455128984e+02  -5.5729999345e+01   0.03086518   0.02596956  -8.44 0.0003820577    1.269    0.212
        60  -9.7441    108.2313    136.7960   2.6406155176e+02  -5.5109254331e+01    0.0399166   0.02498684  16.63 0.0005403813    1.663    0.399
        61 -11.6977    104.5756    131.6703   2.6367645258e+02  -5.5057166825e+01   0.08236386     0.050866  58.49  0.001975619    1.921    0.480
        62  -9.0195    150.1740    132.8383   2.6487567496e+02  -5.6549896425e+01   0.02471758   0.02071024  65.89            0    1.290    0.225
        63 -11.3991     89.9129    131.9663   2.6334865318e+02  -5.4566360258e+01   0.03476961   0.03143979  38.28 0.0003580691    1.110    0.099
        64 -10.5080     44.0405    130.1409   2.6222077676e+02  -5.3063161114e+01   0.04621856   0.03860281  23.70  0.001319859    1.189    0.159
        65 -11.0401    135.7478    127.3777   2.6418359285e+02  -5.6148621479e+01   0.09375945   0.02899529  13.87  0.001966862    5.131    0.805
        66  -9.4375    148.9158    127.8953   2.6454683766e+02  -5.6577119172e+01   0.03115569    0.0258474  30.06 0.0006647744    1.196    0.164
        67  -9.8912    146.9332    124.2125   2.6427505024e+02  -5.6562244693e+01   0.04106646   0.02668579 -24.11 0.0009895408    1.846    0.458
        68 -10.4839    111.6315    126.1673   2.6352377575e+02  -5.5364944342e+01   0.04528484   0.02981392  63.48  0.001092865    1.808    0.447
        69  -9.8077     79.1404    125.7066   2.6274296692e+02  -5.4289734474e+01   0.05052007   0.02860182 -33.50  0.001667348    2.070    0.517
        70 -18.4945     11.0977    224.3335   2.6651109811e+02  -5.0702462192e+01     1.093276     0.615844  26.81   0.02397708    1.740    0.425
        71 -10.0614     44.0677    122.6515   2.6180331579e+02  -5.3158072552e+01    0.0330865   0.02658262  57.48  0.000675623    1.324    0.245
        72 -10.8098    117.1168    121.8675   2.6340210591e+02  -5.5604446798e+01    0.0289129   0.02492481 -33.44 0.0006112639    1.191    0.160
        73  -9.5157     76.4943    120.4911   2.6238487623e+02  -5.4268444706e+01   0.01798595   0.01783714 -26.57 -9.42585e-05    1.002    0.002
        74 -10.8556     55.4911    118.3098   2.6180227438e+02  -5.3594042608e+01   0.07062578   0.04618262 -37.76   0.00261485    1.633    0.387
        75 -10.3763     98.5807    121.4126   2.6293939168e+02  -5.4993320112e+01   0.03645581   0.02889523  61.12 0.0009444751    1.367    0.268
        76 -10.1160    107.7950    116.3628   2.6285790840e+02  -5.5366262040e+01   0.03828177   0.02463494  30.06 0.0002966718    1.514    0.339
        77  -9.7820    123.4795    116.5375   2.6323870200e+02  -5.5886700931e+01   0.01800849   0.01781007 -35.02 0.0001211795    1.005    0.005
        78  -8.9498    243.6524    114.3253   2.6630550876e+02  -5.9881477978e+01   0.01999106   0.01317398 -31.10 0.0007049663    1.748    0.428
        79 -10.2774     40.7709    113.3002   2.6121031898e+02  -5.3162921135e+01   0.06027492    0.0231742 -60.05 0.0009170967    2.363    0.577
        80 -10.9923     55.4200    110.4641   2.6135605408e+02  -5.3688635882e+01   0.06598476   0.03528794 -61.50  0.002267831    1.785    0.440
        81 -11.3907    116.1275    108.6965   2.6259872254e+02  -5.5743673529e+01   0.05355732   0.02886861 -43.11  0.001787238    1.958    0.489
        82 -10.4482    134.2320    105.3269   2.6282399967e+02  -5.6392051314e+01   0.05613551   0.02512027   3.58   0.00148999    3.310    0.698
        83  -8.8585     93.3578    105.7628   2.6190681128e+02  -5.5018885952e+01   0.02528608   0.01629192  30.06  0.000501889    1.510    0.338
        84 -11.6249    127.1916    229.0986   2.6975789460e+02  -5.4350953613e+01   0.06116978   0.05140275 -79.89  0.002594207    1.270    0.212
        85  -8.9554     93.9516    109.4852   2.6213795599e+02  -5.4991891717e+01   0.02812087   0.01185185 -45.33 0.0008089663    2.502    0.600
        86 -11.2872     36.0459    101.8078   2.6046806454e+02  -5.3142195278e+01   0.09462978   0.04519605 -42.89  0.002973338    2.245    0.555
        87  -9.1166     64.4757     95.4488   2.6068581862e+02  -5.4174647940e+01   0.05384282   0.02528141  65.46  0.001445222    3.315    0.698
        88 -10.2504     61.4923     93.4557   2.6050921753e+02  -5.4097853783e+01   0.05291705   0.02939294  12.95  0.001797601    1.904    0.475
        89 -10.8567     17.3055     96.2536   2.5978904622e+02  -5.2576144228e+01   0.03375563   0.02988521 -55.71 0.0005651956    1.120    0.107
        90  -9.8043    113.7817     94.5959   2.6170321875e+02  -5.5843682036e+01   0.02691172   0.01587322 -56.06 0.0007393922    1.631    0.387
        91 -10.2090    102.6754     91.4417   2.6126735304e+02  -5.5509229174e+01   0.05919766   0.03384408 -19.92  0.001795814    2.252    0.556
        92  -8.8842     71.5280    232.2803   2.6841936847e+02  -5.2525424732e+01   0.02531785   0.01631097  39.28 0.0006312499    1.556    0.357
        93 -10.3614     55.9177     92.0976   2.6031709268e+02  -5.3925960175e+01   0.02928443   0.02323825 -35.27 0.0005261624    1.304    0.233
        94 -10.0926     14.9221     89.2568   2.5935359765e+02  -5.2575476299e+01   0.03907711   0.02153509 -56.22  0.001022076    1.739    0.425
        95 -10.5510     33.2176     87.0190   2.5957728473e+02  -5.3218610856e+01   0.04939808   0.02343591 -55.02 0.0007040355    1.996    0.499
        96 -11.2214     27.6421     86.9131   2.5946394036e+02  -5.3031483675e+01   0.04325614   0.03421631  26.80 0.0008543856    1.246    0.197
        97  -9.3976     98.0807     84.8110   2.6077256706e+02  -5.5434745224e+01    0.0280457   0.02320606 -37.37 0.0004517141    1.235    0.190
        98 -11.4934     53.8429     82.9281   2.5974778394e+02  -5.3962508578e+01   0.07661971   0.05546657 -48.44  0.002028095    1.376    0.273
        99 -11.3405     21.8998     82.5524   2.5910926518e+02  -5.2886505820e+01   0.03875856   0.03648847  25.81  0.000429806    1.058    0.055
       100  -8.6222     80.7749     75.5960   2.5986271398e+02  -5.4958306585e+01   0.02669449   0.01558624 -55.88 0.0006563061    1.648    0.393
       101 -10.6081     31.6286     72.3720   2.5871497724e+02  -5.3328809104e+01   0.03882268   0.02809577  76.53  0.001498547    1.546    0.353
       102  -8.5568    133.5444     69.5475   2.6062124145e+02  -5.6814778305e+01   0.01841219   0.01731047 -33.97 7.132099e-05    1.068    0.064
       103  -9.3467     69.8061     67.1591   2.5914502619e+02  -5.4682333435e+01   0.02686256   0.02379399 -31.42 0.0004184362    1.150    0.131
       104 -11.9580    187.8474     63.3884   2.6148938865e+02  -5.8720637291e+01   0.05990983   0.05386043  66.86 0.0007876873    1.161    0.139
       105  -8.8919     66.3771     65.1588   2.5896025063e+02  -5.4588176048e+01   0.02484499   0.01713431  -1.55 0.0003582078    1.588    0.370
       106 -11.8556    147.0023    228.6739   2.7030295152e+02  -5.4986182772e+01    0.0619623   0.05498349  76.75  0.002702024    1.220    0.180
       107 -13.6317    204.4289     51.5475   2.6111535468e+02  -5.9423384874e+01    0.1866055    0.1234557  59.14  0.004681394    1.715    0.417
       108 -12.6212    210.4222     46.9619   2.6095597877e+02  -5.9680636386e+01   0.07855276   0.06968156  32.73  0.001312288    1.125    0.111
       109 -11.3064    173.8615    223.6512   2.7082081982e+02  -5.5918044533e+01   0.05923014   0.03698215  80.27  0.001930329    2.409    0.585
       110 -11.3120     12.7035     42.1819   2.5665953727e+02  -5.3001371099e+01   0.04725291   0.02726906 -66.26 0.0008861828    1.677    0.404
       111  -8.7620    132.1438     57.8219   2.5986371080e+02  -5.6904846507e+01   0.02554344   0.02063727  56.53 0.0004592334    1.301    0.232
       112  -9.3619     70.1309     39.4802   2.5751056590e+02  -5.4992274667e+01   0.02687049    0.0177026 -70.02 0.0005066323    1.500    0.333
       113 -10.3140     35.2225     38.2265   2.5681504521e+02  -5.3810824874e+01    0.0438633   0.02849523 -60.41  0.001064362    1.491    0.329
       114  -8.8687     37.5704     34.7961   2.5665591158e+02  -5.3925577017e+01   0.02651913   0.01799267  16.32 0.0003094652    1.472    0.320
       115  -9.1238     65.3165    249.0709   2.6913413208e+02  -5.2066092613e+01   0.02456036    0.0214908  25.83 0.0002637762    1.145    0.127
       116 -10.4137     52.9351     31.4276   2.5672419474e+02  -5.4485614648e+01   0.05537125   0.02508626 -57.54  0.001010812    2.061    0.515
       117  -9.6275     60.7293     21.1304   2.5624763961e+02  -5.4854935063e+01   0.03174668   0.02352243 -56.64 0.0006232161    1.323    0.244
       118  -8.7400    189.5878     14.8167   2.5832664511e+02  -5.9339026940e+01    0.0254687   0.01737306  -2.47 0.0006959096    1.606    0.377
       119  -9.4056     33.2376     14.9954   2.5542755620e+02  -5.3968669049e+01   0.02419714    0.0151899  14.99 0.0005614893    1.594    0.373
       120 -10.7315     68.7661    244.2236   2.6897290303e+02  -5.2251770913e+01   0.05716552   0.03666133  48.32  0.002100956    1.690    0.408
